Fichero De Datos De SpectraSuite
++++++++++++++++++++++++++++++++++++
Fecha: Wed Apr 22 08:12:46 CEST 2009
Usuario: evoflor
Presente Oscuro Del Espectro: Sí
La Referencia de Presente Del Espectro De: Sí
Muestreados de los componentes de Número de espectros: 1
Espectrómetros: USB4F02353
Tiempo de integración (usec): 500000 (USB4F02353)
Promedio de Espectros Hechos un: 5 (USB4F02353)
El Alisar Del Furgón: 0 (USB4F02353)
Párrafo de de Corregir del la del del de Eléctrica del obscuridad: Sí (USB4F02353)
Estrobo/Lámpara Permitido: No (USB4F02353)
Correct for Detector Non-linearity: No (USB4F02353)
Párrafo de de Corregir del la del del de Externa del luz: No (USB4F02353)
Procesado del espectro de Número de pixeles en: 3648
>>>>> Comienza Data<<<<< Espectral Procesado Del EL
177,79	821,199
178,00	821,199
178,22	821,199
178,44	-9353,672
178,66	523,906
178,88	89,034
179,09	2349,871
179,31	99,691
179,53	-4335,362
179,75	323,864
179,96	-69,986
180,18	216,803
180,40	-358,559
180,62	-175,279
180,83	566,054
181,05	-990,292
181,27	-690,854
181,49	14,768
181,70	-253,600
181,92	363,473
182,14	182,181
182,36	-443,728
182,58	185,921
182,79	-840,719
183,01	-10841,683
183,23	414,469
183,45	-70,275
183,66	152,403
183,88	907,036
184,10	511,807
184,32	698,819
184,53	-294,803
184,75	436,341
184,97	-157,407
185,18	990,934
185,40	303,144
185,62	-821,277
185,84	2926,702
186,05	2658,341
186,27	-3798,048
186,49	-923,731
186,71	192,324
186,92	361,819
187,14	1442,961
187,36	243,058
187,58	828,040
187,79	-502,194
188,01	-1005,397
188,23	145,000
188,45	219,706
188,66	40,242
188,88	218,965
189,10	-285,243
189,31	-116,783
189,53	-125,063
189,75	878,339
189,97	121,525
190,18	1002,110
190,40	1430,848
190,62	222,182
190,83	418,204
191,05	-141,840
191,27	6446,573
191,49	472,662
191,70	362,306
191,92	495,059
192,14	256,827
192,35	-1108,257
192,57	-861,325
192,79	-2122,021
193,01	490,465
193,22	-766,876
193,44	-511,815
193,66	342,511
193,87	307,158
194,09	59,194
194,31	143,665
194,53	-319,215
194,74	145,664
194,96	38,662
195,18	314,891
195,39	-942,927
195,61	-362,991
195,83	2558,271
196,04	246,158
196,26	109,064
196,48	1416,677
196,70	589,009
196,91	153,572
197,13	168,721
197,35	263,199
197,56	-357,372
197,78	4284,019
198,00	122,926
198,21	95,063
198,43	678,660
198,65	319,839
198,86	101,000
199,08	1217,635
199,30	96,292
199,51	599,134
199,73	-1965,842
199,95	232,922
200,16	589,456
200,38	182,329
200,60	2259,193
200,81	-210,850
201,03	6182,297
201,25	519,547
201,46	-659,227
201,68	704,846
201,90	465,876
202,11	261,702
202,33	160,115
202,55	84,880
202,76	609,874
202,98	532,975
203,20	173,856
203,41	-1836,478
203,63	452,825
203,85	166,544
204,06	-338,872
204,28	207,477
204,50	-180,708
204,71	410,607
204,93	131,778
205,15	200,821
205,36	-223,699
205,58	-3455,009
205,80	-3389,196
206,01	-3550,098
206,23	258,503
206,45	396,142
206,66	287,999
206,88	-348,179
207,10	2650,152
207,31	-50159,603
207,53	212,290
207,75	-159,796
207,96	350,203
208,18	269,071
208,39	265,840
208,61	593,609
208,83	6835,414
209,04	350,456
209,26	410,073
209,48	72,188
209,69	-104,485
209,91	961,317
210,13	21,226
210,34	17,510
210,56	302,321
210,77	2141,661
210,99	336,427
211,21	-246,433
211,42	160,565
211,64	551,275
211,86	336,551
212,07	181,114
212,29	540,839
212,50	1027,095
212,72	156,937
212,94	508,808
213,15	127,630
213,37	624,074
213,58	208,075
213,80	427,445
214,02	2382,869
214,23	376,678
214,45	256,999
214,67	44,466
214,88	-39,722
215,10	925,203
215,31	53,929
215,53	116,477
215,75	283,325
215,96	433,020
216,18	184,770
216,39	278,016
216,61	312,530
216,83	925,911
217,04	345,115
217,26	-80,667
217,47	599,208
217,69	295,883
217,91	72,020
218,12	1131,007
218,34	84,719
218,55	201,074
218,77	50,487
218,99	87,809
219,20	162,571
219,42	390,871
219,63	75,865
219,85	279,629
220,06	-93,095
220,28	105,682
220,50	40,072
220,71	80,595
220,93	368,752
221,14	371,832
221,36	104,135
221,58	98,560
221,79	67,480
222,01	153,608
222,22	134,817
222,44	51,119
222,65	175,781
222,87	-34,301
223,09	85,588
223,30	79,055
223,52	178,738
223,73	76,301
223,95	77,289
224,16	57,243
224,38	121,494
224,60	44,420
224,81	47,118
225,03	112,218
225,24	50,760
225,46	-4,625
225,67	17,817
225,89	79,926
226,10	81,739
226,32	33,043
226,54	-1,953
226,75	-9,831
226,97	100,787
227,18	85,294
227,40	94,286
227,61	37,627
227,83	25,229
228,04	81,396
228,26	53,607
228,47	23,404
228,69	98,457
228,91	40,574
229,12	98,002
229,34	16,720
229,55	32,366
229,77	27,462
229,98	36,310
230,20	29,315
230,41	3,112
230,63	80,014
230,84	19,605
231,06	61,127
231,27	4,823
231,49	38,466
231,71	15,475
231,92	7,085
232,14	-11,339
232,35	36,970
232,57	1,994
232,78	19,430
233,00	19,805
233,21	11,849
233,43	16,396
233,64	-7,636
233,86	15,617
234,07	34,210
234,29	9,949
234,50	6,070
234,72	33,596
234,93	8,852
235,15	8,521
235,36	14,360
235,58	43,211
235,79	26,711
236,01	13,787
236,22	20,726
236,44	26,903
236,65	9,492
236,87	10,783
237,08	9,814
237,30	-8,694
237,51	18,850
237,73	14,289
237,94	4,491
238,16	8,476
238,37	9,677
238,59	-3,623
238,80	10,654
239,02	6,445
239,23	23,803
239,45	6,911
239,66	18,189
239,88	21,620
240,09	8,745
240,31	5,243
240,52	1,306
240,74	15,632
240,95	10,553
241,17	8,918
241,38	7,517
241,60	-1,117
241,81	16,829
242,03	2,075
242,24	12,374
242,46	11,348
242,67	-4,314
242,89	14,439
243,10	8,691
243,32	7,941
243,53	14,881
243,75	5,695
243,96	7,710
244,18	8,635
244,39	14,394
244,60	-2,108
244,82	3,723
245,03	16,000
245,25	8,136
245,46	17,494
245,68	-0,412
245,89	24,678
246,11	14,640
246,32	5,968
246,54	9,836
246,75	1,440
246,97	11,343
247,18	20,928
247,39	3,403
247,61	10,292
247,82	5,290
248,04	-1,176
248,25	1,675
248,47	1,819
248,68	7,903
248,90	2,645
249,11	2,687
249,33	8,980
249,54	9,904
249,75	5,352
249,97	1,929
250,18	15,678
250,40	8,851
250,61	7,565
250,83	-0,274
251,04	5,445
251,25	14,169
251,47	7,954
251,68	3,027
251,90	5,002
252,11	5,043
252,33	6,672
252,54	2,654
252,76	2,064
252,97	-3,482
253,18	3,704
253,40	8,837
253,61	2,148
253,83	4,619
254,04	7,733
254,25	0,673
254,47	0,300
254,68	5,504
254,90	3,515
255,11	-0,387
255,33	6,005
255,54	3,816
255,75	3,905
255,97	5,677
256,18	1,065
256,40	5,151
256,61	7,583
256,82	2,090
257,04	7,277
257,25	3,358
257,47	8,655
257,68	6,268
257,89	4,394
258,11	4,150
258,32	7,792
258,54	1,092
258,75	10,536
258,96	7,990
259,18	5,978
259,39	1,620
259,61	6,773
259,82	2,486
260,03	2,274
260,25	5,154
260,46	3,315
260,68	1,045
260,89	3,261
261,10	6,764
261,32	4,053
261,53	-2,745
261,75	9,343
261,96	2,690
262,17	14,098
262,39	7,144
262,60	0,684
262,81	3,018
263,03	10,177
263,24	5,142
263,46	1,428
263,67	4,790
263,88	7,453
264,10	4,780
264,31	0,766
264,52	4,206
264,74	6,928
264,95	1,387
265,17	7,081
265,38	7,133
265,59	10,382
265,81	4,736
266,02	-1,488
266,23	-0,033
266,45	8,946
266,66	5,271
266,87	5,165
267,09	3,294
267,30	7,459
267,52	8,263
267,73	5,257
267,94	-1,242
268,16	4,601
268,37	-1,488
268,58	6,940
268,80	0,048
269,01	3,836
269,22	6,704
269,44	4,707
269,65	5,519
269,86	3,532
270,08	6,068
270,29	2,143
270,50	3,097
270,72	6,418
270,93	1,058
271,14	4,673
271,36	1,363
271,57	5,893
271,78	5,478
272,00	2,663
272,21	6,651
272,42	3,500
272,64	7,399
272,85	-0,693
273,06	2,385
273,28	4,155
273,49	-1,995
273,70	5,084
273,92	6,460
274,13	0,470
274,34	-3,021
274,56	7,433
274,77	0,867
274,98	9,683
275,20	7,532
275,41	6,023
275,62	-0,208
275,84	4,399
276,05	14,246
276,26	0,117
276,47	3,702
276,69	9,302
276,90	5,901
277,11	3,149
277,33	0,880
277,54	7,422
277,75	4,280
277,97	-1,561
278,18	2,331
278,39	7,013
278,61	0,836
278,82	10,460
279,03	6,049
279,24	1,020
279,46	2,939
279,67	8,282
279,88	3,749
280,10	7,421
280,31	1,877
280,52	0,379
280,73	1,852
280,95	6,275
281,16	3,753
281,37	5,677
281,59	5,186
281,80	7,339
282,01	1,182
282,22	-0,596
282,44	2,141
282,65	9,752
282,86	3,173
283,08	1,507
283,29	1,672
283,50	-0,939
283,71	3,953
283,93	4,414
284,14	0,519
284,35	3,289
284,56	2,967
284,78	-0,594
284,99	5,825
285,20	7,754
285,42	2,032
285,63	3,131
285,84	2,449
286,05	2,710
286,27	2,255
286,48	6,155
286,69	2,375
286,90	3,092
287,12	1,857
287,33	2,281
287,54	1,002
287,75	9,609
287,97	0,871
288,18	1,507
288,39	3,221
288,60	2,877
288,82	0,976
289,03	2,543
289,24	6,018
289,45	6,089
289,67	4,419
289,88	0,921
290,09	7,575
290,30	2,811
290,52	2,918
290,73	-0,686
290,94	3,108
291,15	0,824
291,37	4,430
291,58	2,806
291,79	4,154
292,00	2,603
292,21	3,829
292,43	4,716
292,64	-2,082
292,85	2,960
293,06	4,804
293,28	1,817
293,49	1,837
293,70	7,537
293,91	0,773
294,12	3,489
294,34	1,600
294,55	3,261
294,76	4,071
294,97	4,948
295,19	2,715
295,40	3,457
295,61	4,407
295,82	4,648
296,03	3,713
296,25	2,966
296,46	0,569
296,67	1,803
296,88	2,630
297,09	0,843
297,31	1,841
297,52	5,648
297,73	3,187
297,94	0,565
298,15	6,956
298,37	3,833
298,58	2,081
298,79	3,178
299,00	-3,066
299,21	3,394
299,43	0,379
299,64	7,989
299,85	1,695
300,06	0,268
300,27	1,085
300,49	5,184
300,70	4,970
300,91	0,643
301,12	1,276
301,33	5,664
301,54	3,201
301,76	3,398
301,97	2,685
302,18	6,293
302,39	3,387
302,60	2,493
302,82	3,127
303,03	7,656
303,24	3,028
303,45	5,591
303,66	4,241
303,87	-0,275
304,09	3,199
304,30	-1,019
304,51	2,869
304,72	1,861
304,93	2,704
305,14	2,161
305,36	1,530
305,57	0,604
305,78	4,818
305,99	2,153
306,20	4,638
306,41	0,798
306,62	1,890
306,84	3,583
307,05	4,082
307,26	0,566
307,47	7,699
307,68	1,693
307,89	0,932
308,11	5,105
308,32	2,442
308,53	-0,187
308,74	-0,021
308,95	1,820
309,16	7,342
309,37	3,485
309,59	-0,140
309,80	1,913
310,01	2,194
310,22	5,107
310,43	4,565
310,64	4,397
310,85	5,045
311,06	1,042
311,28	3,321
311,49	2,383
311,70	6,839
311,91	2,161
312,12	0,081
312,33	1,193
312,54	4,970
312,75	6,540
312,97	3,335
313,18	4,975
313,39	-0,488
313,60	4,110
313,81	3,399
314,02	3,318
314,23	6,859
314,44	3,141
314,65	0,726
314,87	0,340
315,08	0,956
315,29	2,219
315,50	3,781
315,71	8,183
315,92	7,510
316,13	-0,685
316,34	3,153
316,55	6,412
316,77	-0,624
316,98	-0,190
317,19	2,744
317,40	3,948
317,61	5,618
317,82	4,090
318,03	-0,172
318,24	3,840
318,45	6,831
318,66	4,307
318,87	2,281
319,09	3,632
319,30	4,920
319,51	3,297
319,72	3,573
319,93	4,507
320,14	4,272
320,35	4,960
320,56	0,492
320,77	3,266
320,98	4,650
321,19	7,274
321,40	4,920
321,62	3,509
321,83	-1,728
322,04	3,299
322,25	4,744
322,46	7,034
322,67	3,672
322,88	2,771
323,09	3,376
323,30	6,313
323,51	8,919
323,72	1,887
323,93	0,190
324,14	2,541
324,35	-1,161
324,56	1,688
324,77	1,590
324,99	2,071
325,20	1,913
325,41	3,414
325,62	3,084
325,83	-1,996
326,04	1,650
326,25	3,966
326,46	0,536
326,67	2,665
326,88	2,790
327,09	1,223
327,30	1,840
327,51	4,497
327,72	0,862
327,93	1,574
328,14	3,257
328,35	5,260
328,56	2,518
328,77	3,347
328,98	4,900
329,19	1,947
329,40	2,169
329,61	-0,057
329,82	-1,111
330,04	5,153
330,25	1,485
330,46	2,182
330,67	2,256
330,88	3,625
331,09	2,060
331,30	3,913
331,51	2,861
331,72	2,365
331,93	5,299
332,14	1,341
332,35	3,884
332,56	1,638
332,77	5,069
332,98	2,038
333,19	5,259
333,40	2,812
333,61	2,306
333,82	3,698
334,03	3,675
334,24	8,076
334,45	3,814
334,66	5,732
334,87	1,869
335,08	2,141
335,29	1,698
335,50	2,160
335,71	0,756
335,92	5,534
336,13	3,434
336,34	1,140
336,55	4,296
336,76	4,679
336,97	2,940
337,18	1,990
337,39	2,251
337,60	4,597
337,81	4,568
338,02	4,082
338,23	3,987
338,44	2,042
338,65	-1,018
338,86	3,710
339,07	4,594
339,28	1,931
339,49	2,582
339,70	-0,732
339,91	3,444
340,11	7,007
340,32	1,993
340,53	1,843
340,74	-0,789
340,95	0,677
341,16	2,805
341,37	3,188
341,58	4,680
341,79	0,925
342,00	0,365
342,21	-0,763
342,42	3,594
342,63	6,409
342,84	4,990
343,05	2,400
343,26	7,206
343,47	4,073
343,68	1,804
343,89	0,305
344,10	1,119
344,31	3,361
344,52	3,778
344,73	2,082
344,94	-0,913
345,14	3,239
345,35	2,335
345,56	0,314
345,77	1,200
345,98	-0,160
346,19	5,070
346,40	6,323
346,61	0,953
346,82	4,535
347,03	3,308
347,24	-0,045
347,45	2,372
347,66	4,767
347,87	0,915
348,08	6,570
348,28	1,464
348,49	1,620
348,70	5,084
348,91	4,557
349,12	2,008
349,33	4,586
349,54	3,807
349,75	4,927
349,96	2,794
350,17	6,066
350,38	1,435
350,59	2,711
350,80	3,807
351,00	0,142
351,21	9,131
351,42	2,735
351,63	2,673
351,84	2,741
352,05	6,146
352,26	2,857
352,47	5,642
352,68	6,169
352,89	1,765
353,09	2,139
353,30	1,100
353,51	-0,110
353,72	8,063
353,93	5,867
354,14	2,154
354,35	1,503
354,56	4,790
354,77	3,678
354,98	1,157
355,18	3,836
355,39	8,900
355,60	0,909
355,81	3,714
356,02	2,600
356,23	1,449
356,44	4,396
356,65	1,392
356,85	5,170
357,06	5,800
357,27	3,232
357,48	1,220
357,69	8,004
357,90	5,033
358,11	-2,143
358,32	-0,450
358,52	5,928
358,73	0,104
358,94	2,320
359,15	2,857
359,36	6,418
359,57	2,564
359,78	5,525
359,98	2,569
360,19	1,546
360,40	2,696
360,61	3,483
360,82	2,943
361,03	10,338
361,24	12,780
361,44	-0,530
361,65	2,476
361,86	1,802
362,07	2,309
362,28	7,253
362,49	3,173
362,70	4,212
362,90	4,048
363,11	3,153
363,32	0,422
363,53	2,452
363,74	6,599
363,95	8,506
364,15	1,886
364,36	6,627
364,57	0,164
364,78	0,564
364,99	1,325
365,20	4,044
365,40	7,945
365,61	4,790
365,82	4,025
366,03	7,981
366,24	2,300
366,45	0,370
366,65	0,038
366,86	2,221
367,07	1,880
367,28	0,457
367,49	0,191
367,69	5,717
367,90	3,520
368,11	5,344
368,32	2,490
368,53	7,775
368,73	2,586
368,94	1,899
369,15	7,410
369,36	5,433
369,57	5,067
369,78	4,335
369,98	3,850
370,19	5,759
370,40	2,344
370,61	4,453
370,82	6,086
371,02	5,252
371,23	3,414
371,44	1,130
371,65	1,104
371,85	5,427
372,06	2,952
372,27	4,563
372,48	0,643
372,69	8,027
372,89	3,851
373,10	3,274
373,31	4,929
373,52	4,478
373,73	6,820
373,93	5,680
374,14	3,575
374,35	1,552
374,56	4,310
374,76	3,871
374,97	3,064
375,18	6,698
375,39	4,343
375,60	5,841
375,80	3,600
376,01	2,323
376,22	5,950
376,43	3,176
376,63	4,403
376,84	6,046
377,05	4,332
377,26	3,029
377,46	4,333
377,67	1,965
377,88	0,130
378,09	3,308
378,29	5,672
378,50	4,347
378,71	5,174
378,92	0,383
379,12	0,901
379,33	1,213
379,54	5,762
379,75	5,787
379,95	4,018
380,16	4,137
380,37	5,601
380,58	0,878
380,78	4,937
380,99	1,508
381,20	2,777
381,41	8,713
381,61	1,255
381,82	3,693
382,03	3,513
382,24	4,315
382,44	3,962
382,65	3,047
382,86	8,434
383,06	6,404
383,27	4,002
383,48	3,303
383,69	6,092
383,89	2,424
384,10	1,307
384,31	4,561
384,51	8,577
384,72	5,472
384,93	-0,289
385,14	0,234
385,34	2,984
385,55	2,198
385,76	-0,102
385,96	8,889
386,17	2,639
386,38	3,311
386,59	7,543
386,79	6,763
387,00	8,616
387,21	5,704
387,41	4,447
387,62	4,576
387,83	7,873
388,03	2,333
388,24	4,896
388,45	4,157
388,66	4,424
388,86	3,428
389,07	2,329
389,28	11,931
389,48	2,639
389,69	4,338
389,90	-1,681
390,10	3,757
390,31	7,577
390,52	4,418
390,72	3,626
390,93	4,986
391,14	5,810
391,34	6,994
391,55	4,859
391,76	8,937
391,96	8,726
392,17	3,269
392,38	4,674
392,58	4,875
392,79	3,589
393,00	2,089
393,20	3,950
393,41	5,095
393,62	8,025
393,82	3,458
394,03	5,686
394,24	3,327
394,44	7,444
394,65	7,899
394,86	3,982
395,06	8,146
395,27	6,553
395,48	3,946
395,68	4,161
395,89	7,211
396,10	7,829
396,30	1,174
396,51	3,875
396,72	3,863
396,92	1,607
397,13	7,866
397,34	2,353
397,54	5,629
397,75	3,775
397,95	1,158
398,16	2,749
398,37	5,700
398,57	0,230
398,78	2,821
398,99	5,335
399,19	4,892
399,40	11,958
399,60	2,214
399,81	10,882
400,02	10,888
400,22	5,593
400,43	9,042
400,64	3,235
400,84	2,510
401,05	8,113
401,25	7,322
401,46	4,009
401,67	7,848
401,87	3,817
402,08	1,435
402,29	5,866
402,49	11,060
402,70	7,363
402,90	2,136
403,11	5,546
403,32	1,228
403,52	2,582
403,73	3,714
403,93	7,203
404,14	12,704
404,35	1,971
404,55	2,509
404,76	4,098
404,96	6,204
405,17	9,849
405,38	11,290
405,58	2,741
405,79	9,169
405,99	11,626
406,20	6,120
406,40	5,903
406,61	6,609
406,82	5,293
407,02	5,773
407,23	2,522
407,43	3,857
407,64	1,984
407,85	6,705
408,05	1,667
408,26	11,791
408,46	10,479
408,67	7,330
408,87	5,541
409,08	3,910
409,29	11,365
409,49	9,114
409,70	6,380
409,90	4,582
410,11	6,914
410,31	7,067
410,52	9,115
410,72	4,427
410,93	6,456
411,14	5,474
411,34	0,934
411,55	6,037
411,75	8,296
411,96	8,178
412,16	5,861
412,37	5,985
412,57	8,311
412,78	10,241
412,99	2,697
413,19	8,680
413,40	4,390
413,60	3,853
413,81	3,733
414,01	4,606
414,22	4,519
414,42	5,369
414,63	4,747
414,83	5,774
415,04	12,258
415,24	9,140
415,45	2,769
415,65	6,363
415,86	10,285
416,07	4,909
416,27	6,436
416,48	8,050
416,68	14,914
416,89	2,234
417,09	9,049
417,30	12,462
417,50	0,393
417,71	10,960
417,91	8,358
418,12	6,638
418,32	6,737
418,53	1,396
418,73	4,912
418,94	5,469
419,14	9,320
419,35	2,949
419,55	5,824
419,76	11,242
419,96	7,208
420,17	5,700
420,37	3,383
420,58	6,481
420,78	6,984
420,99	2,100
421,19	6,517
421,40	12,126
421,60	10,029
421,81	5,132
422,01	8,159
422,22	4,484
422,42	6,374
422,63	9,939
422,83	7,077
423,04	12,808
423,24	16,840
423,45	7,101
423,65	6,794
423,86	9,888
424,06	8,997
424,27	6,325
424,47	6,548
424,67	2,719
424,88	5,880
425,08	4,475
425,29	9,056
425,49	2,285
425,70	3,844
425,90	8,521
426,11	5,267
426,31	7,619
426,52	8,296
426,72	5,831
426,93	3,121
427,13	8,549
427,33	3,614
427,54	8,773
427,74	7,251
427,95	10,338
428,15	5,528
428,36	3,282
428,56	5,491
428,77	7,842
428,97	8,121
429,18	6,205
429,38	5,007
429,58	5,768
429,79	10,464
429,99	3,650
430,20	4,062
430,40	12,121
430,61	5,609
430,81	6,743
431,01	9,953
431,22	9,433
431,42	8,433
431,63	0,148
431,83	9,734
432,04	10,471
432,24	6,907
432,44	8,030
432,65	5,850
432,85	6,977
433,06	7,813
433,26	6,860
433,47	5,495
433,67	2,505
433,87	4,867
434,08	6,232
434,28	1,448
434,49	4,447
434,69	14,297
434,89	8,767
435,10	3,175
435,30	11,006
435,51	5,113
435,71	4,885
435,91	4,048
436,12	1,265
436,32	3,841
436,53	5,092
436,73	4,731
436,93	8,170
437,14	5,452
437,34	5,288
437,55	4,326
437,75	8,546
437,95	11,224
438,16	5,442
438,36	7,684
438,57	8,201
438,77	3,355
438,97	9,987
439,18	7,670
439,38	6,416
439,58	7,700
439,79	6,362
439,99	0,713
440,20	13,492
440,40	11,213
440,60	5,920
440,81	5,578
441,01	9,690
441,21	9,050
441,42	7,471
441,62	9,046
441,83	7,517
442,03	5,761
442,23	6,363
442,44	7,546
442,64	10,401
442,84	5,760
443,05	12,069
443,25	5,978
443,45	8,518
443,66	7,706
443,86	5,925
444,06	10,334
444,27	6,247
444,47	10,109
444,67	8,619
444,88	11,616
445,08	8,216
445,28	5,824
445,49	9,557
445,69	8,195
445,90	11,063
446,10	10,946
446,30	6,453
446,51	7,450
446,71	9,777
446,91	9,971
447,12	13,808
447,32	2,199
447,52	10,181
447,72	13,117
447,93	4,112
448,13	2,863
448,33	12,069
448,54	9,465
448,74	6,109
448,94	7,804
449,15	12,673
449,35	3,539
449,55	10,594
449,76	8,968
449,96	5,817
450,16	11,673
450,37	5,588
450,57	10,303
450,77	5,237
450,98	7,197
451,18	11,320
451,38	10,131
451,58	12,315
451,79	4,389
451,99	7,641
452,19	11,189
452,40	16,220
452,60	5,655
452,80	11,780
453,00	10,417
453,21	5,114
453,41	9,465
453,61	7,080
453,82	10,068
454,02	6,981
454,22	20,376
454,42	12,001
454,63	6,603
454,83	5,132
455,03	11,456
455,24	7,984
455,44	9,878
455,64	8,718
455,84	11,286
456,05	6,375
456,25	2,668
456,45	7,253
456,65	7,234
456,86	11,511
457,06	11,189
457,26	12,459
457,47	13,168
457,67	9,741
457,87	7,382
458,07	11,225
458,28	13,271
458,48	14,190
458,68	5,545
458,88	16,771
459,09	7,530
459,29	14,796
459,49	4,060
459,69	10,471
459,90	12,605
460,10	9,571
460,30	14,129
460,50	8,782
460,71	10,957
460,91	6,984
461,11	13,990
461,31	12,923
461,52	11,908
461,72	8,758
461,92	6,903
462,12	16,359
462,32	9,217
462,53	7,616
462,73	8,441
462,93	12,566
463,13	12,588
463,34	9,401
463,54	12,613
463,74	10,122
463,94	10,817
464,14	12,038
464,35	9,697
464,55	14,755
464,75	17,028
464,95	11,410
465,16	6,563
465,36	16,326
465,56	7,813
465,76	10,775
465,96	11,533
466,17	11,801
466,37	8,450
466,57	14,575
466,77	12,539
466,97	9,126
467,18	13,615
467,38	13,045
467,58	18,535
467,78	14,943
467,98	13,108
468,19	8,345
468,39	16,117
468,59	7,586
468,79	15,961
468,99	11,463
469,19	9,906
469,40	10,125
469,60	10,834
469,80	9,771
470,00	11,563
470,20	16,940
470,41	9,849
470,61	15,360
470,81	15,728
471,01	13,578
471,21	13,962
471,41	17,071
471,62	12,532
471,82	7,509
472,02	12,238
472,22	11,657
472,42	10,805
472,62	13,868
472,83	7,914
473,03	14,308
473,23	11,600
473,43	15,897
473,63	13,834
473,83	14,445
474,03	11,988
474,24	13,876
474,44	11,124
474,64	13,860
474,84	9,287
475,04	10,775
475,24	16,032
475,45	12,351
475,65	14,218
475,85	16,954
476,05	10,166
476,25	12,197
476,45	15,211
476,65	17,223
476,85	11,428
477,06	13,675
477,26	10,476
477,46	12,915
477,66	13,302
477,86	14,818
478,06	14,311
478,26	18,828
478,46	10,738
478,67	16,624
478,87	12,631
479,07	13,584
479,27	15,479
479,47	13,496
479,67	8,556
479,87	12,500
480,07	17,796
480,28	14,708
480,48	12,151
480,68	16,580
480,88	21,095
481,08	18,732
481,28	16,582
481,48	15,787
481,68	12,865
481,88	10,547
482,08	14,031
482,29	16,515
482,49	12,937
482,69	14,694
482,89	12,705
483,09	18,352
483,29	12,667
483,49	14,052
483,69	14,424
483,89	14,053
484,09	10,999
484,29	11,440
484,50	13,351
484,70	16,140
484,90	14,249
485,10	16,836
485,30	16,495
485,50	16,991
485,70	15,631
485,90	12,464
486,10	12,334
486,30	13,754
486,50	14,881
486,70	10,792
486,90	11,962
487,10	14,958
487,30	16,190
487,51	13,348
487,71	10,714
487,91	13,644
488,11	17,355
488,31	14,007
488,51	13,989
488,71	11,859
488,91	13,889
489,11	13,103
489,31	13,198
489,51	15,384
489,71	13,845
489,91	13,001
490,11	16,198
490,31	15,417
490,51	16,236
490,71	16,191
490,91	13,394
491,11	14,082
491,31	18,239
491,51	16,014
491,72	14,942
491,92	12,906
492,12	18,246
492,32	16,152
492,52	17,546
492,72	14,725
492,92	15,617
493,12	17,770
493,32	15,044
493,52	13,892
493,72	15,218
493,92	17,038
494,12	14,499
494,32	18,321
494,52	16,046
494,72	14,588
494,92	14,810
495,12	19,951
495,32	21,434
495,52	16,449
495,72	15,367
495,92	16,641
496,12	19,289
496,32	17,935
496,52	15,838
496,72	18,769
496,92	19,381
497,12	18,540
497,32	17,958
497,52	17,864
497,72	18,301
497,92	16,418
498,12	17,605
498,32	17,572
498,52	18,468
498,72	16,272
498,92	16,087
499,12	17,736
499,32	14,675
499,52	20,945
499,72	17,607
499,92	20,353
500,12	17,442
500,32	17,919
500,52	19,980
500,72	21,771
500,91	20,142
501,11	19,340
501,31	18,254
501,51	20,076
501,71	20,445
501,91	18,724
502,11	15,358
502,31	18,976
502,51	19,143
502,71	19,407
502,91	16,962
503,11	18,980
503,31	19,594
503,51	13,966
503,71	19,081
503,91	19,920
504,11	17,307
504,31	18,793
504,51	17,655
504,71	24,429
504,91	17,339
505,10	20,373
505,30	19,419
505,50	20,427
505,70	18,615
505,90	17,871
506,10	18,010
506,30	18,839
506,50	19,295
506,70	22,851
506,90	19,846
507,10	17,792
507,30	16,367
507,50	18,717
507,70	19,927
507,89	19,886
508,09	18,301
508,29	16,011
508,49	15,759
508,69	19,355
508,89	18,910
509,09	20,175
509,29	17,290
509,49	21,615
509,69	21,865
509,89	21,569
510,09	22,116
510,28	20,711
510,48	19,379
510,68	18,274
510,88	22,255
511,08	19,212
511,28	19,201
511,48	17,192
511,68	14,862
511,88	23,855
512,07	17,524
512,27	19,280
512,47	19,419
512,67	18,086
512,87	15,527
513,07	21,004
513,27	18,571
513,47	18,742
513,67	15,771
513,86	21,261
514,06	20,868
514,26	19,388
514,46	22,057
514,66	18,362
514,86	21,578
515,06	23,425
515,26	20,058
515,45	18,763
515,65	17,085
515,85	20,181
516,05	19,899
516,25	19,124
516,45	22,328
516,65	17,999
516,84	19,264
517,04	21,426
517,24	21,344
517,44	21,951
517,64	21,947
517,84	24,546
518,04	19,369
518,23	21,855
518,43	24,287
518,63	19,519
518,83	17,676
519,03	21,163
519,23	19,936
519,42	20,051
519,62	19,830
519,82	20,362
520,02	19,549
520,22	20,451
520,42	18,672
520,61	22,738
520,81	19,620
521,01	21,536
521,21	18,130
521,41	17,159
521,61	23,114
521,80	18,842
522,00	17,621
522,20	23,789
522,40	19,975
522,60	19,232
522,79	18,847
522,99	25,893
523,19	15,511
523,39	20,179
523,59	20,648
523,78	19,308
523,98	18,317
524,18	21,717
524,38	17,685
524,58	20,751
524,77	20,019
524,97	22,030
525,17	20,452
525,37	19,287
525,57	25,303
525,76	21,594
525,96	24,005
526,16	18,664
526,36	20,660
526,56	19,921
526,75	20,525
526,95	22,433
527,15	19,381
527,35	22,327
527,55	18,832
527,74	18,864
527,94	21,123
528,14	17,787
528,34	20,772
528,53	17,503
528,73	24,019
528,93	22,684
529,13	18,044
529,32	20,629
529,52	21,083
529,72	19,831
529,92	20,644
530,12	17,969
530,31	20,353
530,51	23,690
530,71	17,497
530,91	25,615
531,10	17,678
531,30	20,958
531,50	17,046
531,70	21,659
531,89	22,714
532,09	19,999
532,29	20,062
532,49	20,808
532,68	21,688
532,88	18,288
533,08	19,876
533,28	22,625
533,47	21,797
533,67	20,220
533,87	19,429
534,06	25,929
534,26	19,174
534,46	20,167
534,66	21,088
534,85	22,546
535,05	17,399
535,25	17,486
535,45	19,103
535,64	24,077
535,84	22,996
536,04	16,613
536,23	21,008
536,43	22,624
536,63	19,576
536,83	20,377
537,02	19,586
537,22	18,275
537,42	21,049
537,61	21,770
537,81	16,865
538,01	23,232
538,20	20,332
538,40	17,096
538,60	18,734
538,80	17,037
538,99	20,034
539,19	17,623
539,39	17,498
539,58	17,957
539,78	16,900
539,98	14,168
540,17	13,514
540,37	18,389
540,57	13,057
540,76	13,310
540,96	9,313
541,16	14,527
541,36	13,040
541,55	9,696
541,75	11,293
541,95	13,036
542,14	7,647
542,34	8,972
542,54	5,826
542,73	12,252
542,93	8,961
543,13	9,703
543,32	8,262
543,52	11,144
543,72	8,683
543,91	10,748
544,11	9,703
544,31	6,052
544,50	9,307
544,70	11,976
544,89	11,764
545,09	13,681
545,29	11,154
545,48	10,980
545,68	8,101
545,88	13,477
546,07	10,320
546,27	11,196
546,47	15,961
546,66	14,403
546,86	13,192
547,06	14,908
547,25	12,692
547,45	13,977
547,64	16,552
547,84	18,282
548,04	17,230
548,23	20,743
548,43	16,890
548,63	18,833
548,82	18,516
549,02	18,036
549,21	16,455
549,41	16,076
549,61	18,482
549,80	17,599
550,00	18,397
550,20	18,113
550,39	18,837
550,59	17,585
550,78	19,508
550,98	18,633
551,18	20,661
551,37	18,584
551,57	18,481
551,76	19,851
551,96	19,761
552,16	18,743
552,35	19,984
552,55	17,212
552,74	19,152
552,94	21,938
553,14	16,837
553,33	19,372
553,53	19,757
553,72	18,479
553,92	22,153
554,12	18,903
554,31	21,506
554,51	20,265
554,70	16,231
554,90	19,155
555,09	22,955
555,29	19,210
555,49	21,243
555,68	21,928
555,88	19,162
556,07	18,968
556,27	24,216
556,46	18,572
556,66	18,844
556,86	24,618
557,05	19,908
557,25	20,672
557,44	19,539
557,64	17,889
557,83	21,089
558,03	20,559
558,22	19,248
558,42	20,653
558,62	20,112
558,81	22,613
559,01	21,645
559,20	20,408
559,40	19,927
559,59	21,170
559,79	18,749
559,98	21,883
560,18	21,957
560,37	22,189
560,57	20,422
560,76	19,560
560,96	17,848
561,16	19,919
561,35	17,429
561,55	21,419
561,74	20,642
561,94	21,463
562,13	21,094
562,33	21,127
562,52	21,586
562,72	19,773
562,91	19,928
563,11	20,950
563,30	21,318
563,50	19,635
563,69	18,515
563,89	18,020
564,08	21,202
564,28	19,557
564,47	21,029
564,67	19,600
564,86	19,009
565,06	20,239
565,25	19,415
565,45	18,466
565,64	23,122
565,84	20,205
566,03	16,771
566,23	21,295
566,42	20,438
566,62	20,116
566,81	18,316
567,01	18,092
567,20	20,575
567,40	20,375
567,59	19,973
567,79	24,235
567,98	22,858
568,18	19,099
568,37	22,083
568,57	20,905
568,76	20,700
568,96	22,669
569,15	18,569
569,35	20,339
569,54	23,148
569,73	21,292
569,93	20,934
570,12	20,790
570,32	21,878
570,51	21,141
570,71	20,535
570,90	22,598
571,10	20,015
571,29	20,463
571,49	18,983
571,68	21,575
571,87	21,354
572,07	21,058
572,26	17,305
572,46	20,692
572,65	20,128
572,85	20,006
573,04	20,865
573,24	19,020
573,43	21,003
573,62	21,274
573,82	19,953
574,01	20,202
574,21	17,568
574,40	19,160
574,60	17,846
574,79	22,103
574,98	19,573
575,18	19,714
575,37	18,132
575,57	19,818
575,76	20,000
575,96	19,161
576,15	20,680
576,34	18,590
576,54	20,297
576,73	20,096
576,93	19,594
577,12	19,837
577,31	19,653
577,51	17,557
577,70	18,370
577,90	18,952
578,09	20,398
578,28	18,386
578,48	18,933
578,67	18,782
578,87	20,670
579,06	19,398
579,25	19,656
579,45	21,258
579,64	18,178
579,84	17,872
580,03	19,254
580,22	20,576
580,42	18,328
580,61	20,786
580,81	19,116
581,00	19,009
581,19	20,977
581,39	18,397
581,58	18,692
581,77	18,369
581,97	20,404
582,16	19,272
582,35	19,265
582,55	18,835
582,74	20,159
582,94	20,446
583,13	18,541
583,32	18,950
583,52	19,868
583,71	20,271
583,90	19,620
584,10	21,447
584,29	19,586
584,48	17,944
584,68	18,563
584,87	20,184
585,06	19,680
585,26	17,920
585,45	18,767
585,65	20,339
585,84	19,048
586,03	18,347
586,23	18,403
586,42	18,328
586,61	23,299
586,81	19,507
587,00	17,512
587,19	19,185
587,39	19,187
587,58	18,798
587,77	19,096
587,97	17,893
588,16	19,078
588,35	18,173
588,54	18,782
588,74	19,122
588,93	20,878
589,12	19,182
589,32	16,782
589,51	18,338
589,70	18,124
589,90	16,913
590,09	17,133
590,28	22,152
590,48	16,820
590,67	21,137
590,86	18,576
591,06	19,753
591,25	20,647
591,44	19,595
591,63	18,503
591,83	19,080
592,02	19,703
592,21	17,993
592,41	19,889
592,60	20,330
592,79	19,637
592,98	21,667
593,18	18,652
593,37	18,612
593,56	20,395
593,76	20,219
593,95	18,257
594,14	18,179
594,33	21,732
594,53	18,772
594,72	18,555
594,91	20,361
595,10	18,592
595,30	18,426
595,49	19,811
595,68	20,670
595,88	21,381
596,07	20,755
596,26	21,173
596,45	18,744
596,65	16,351
596,84	18,223
597,03	21,098
597,22	19,505
597,42	21,343
597,61	18,913
597,80	19,703
597,99	18,835
598,19	21,392
598,38	19,207
598,57	17,546
598,76	20,538
598,95	20,040
599,15	20,483
599,34	19,099
599,53	17,930
599,72	19,375
599,92	21,143
600,11	19,722
600,30	20,380
600,49	22,312
600,69	18,614
600,88	19,884
601,07	18,524
601,26	17,939
601,45	18,837
601,65	19,044
601,84	20,575
602,03	19,191
602,22	20,551
602,42	20,103
602,61	18,243
602,80	20,470
602,99	19,534
603,18	19,087
603,38	21,244
603,57	18,530
603,76	18,248
603,95	18,177
604,14	21,049
604,34	17,570
604,53	17,711
604,72	20,845
604,91	20,772
605,10	20,022
605,29	21,301
605,49	17,729
605,68	20,726
605,87	22,100
606,06	19,297
606,25	19,045
606,45	19,797
606,64	18,697
606,83	21,389
607,02	19,445
607,21	20,588
607,40	18,651
607,60	17,487
607,79	18,198
607,98	17,025
608,17	17,054
608,36	16,945
608,55	18,168
608,75	17,830
608,94	16,696
609,13	14,970
609,32	14,956
609,51	14,497
609,70	15,675
609,89	13,202
610,09	13,446
610,28	14,886
610,47	13,355
610,66	13,503
610,85	10,386
611,04	15,011
611,23	11,872
611,43	11,515
611,62	12,660
611,81	12,723
612,00	13,972
612,19	12,408
612,38	13,351
612,57	14,578
612,77	15,366
612,96	14,606
613,15	15,656
613,34	15,867
613,53	16,526
613,72	15,928
613,91	15,833
614,10	17,104
614,29	17,684
614,49	16,474
614,68	16,489
614,87	16,972
615,06	20,412
615,25	17,944
615,44	18,817
615,63	17,568
615,82	16,847
616,01	19,773
616,21	16,488
616,40	18,824
616,59	19,952
616,78	19,306
616,97	17,512
617,16	17,321
617,35	18,645
617,54	18,355
617,73	19,442
617,92	18,140
618,11	19,246
618,31	18,584
618,50	19,431
618,69	18,035
618,88	19,240
619,07	15,716
619,26	17,299
619,45	17,680
619,64	15,973
619,83	17,104
620,02	18,231
620,21	20,190
620,40	18,240
620,59	18,398
620,78	17,418
620,97	17,761
621,17	20,197
621,36	17,514
621,55	17,043
621,74	18,959
621,93	19,306
622,12	18,508
622,31	17,063
622,50	18,477
622,69	20,599
622,88	18,448
623,07	20,031
623,26	19,399
623,45	21,103
623,64	18,576
623,83	18,452
624,02	19,107
624,21	18,767
624,40	17,647
624,59	16,519
624,78	18,542
624,97	20,216
625,16	17,473
625,35	16,876
625,54	16,981
625,73	16,251
625,92	19,899
626,12	19,099
626,31	19,527
626,50	19,185
626,69	17,647
626,88	18,763
627,07	18,336
627,26	19,468
627,45	19,450
627,64	17,006
627,83	19,483
628,02	17,658
628,21	18,522
628,40	17,399
628,59	20,104
628,78	16,244
628,97	17,064
629,16	17,453
629,35	18,491
629,54	19,031
629,73	19,490
629,92	17,825
630,10	19,230
630,29	18,621
630,48	17,016
630,67	17,608
630,86	19,308
631,05	18,882
631,24	19,449
631,43	17,474
631,62	18,238
631,81	17,986
632,00	19,244
632,19	16,689
632,38	19,441
632,57	19,477
632,76	15,650
632,95	18,237
633,14	20,583
633,33	20,095
633,52	18,638
633,71	18,464
633,90	16,037
634,09	19,207
634,28	19,247
634,47	19,255
634,66	18,485
634,85	19,419
635,04	21,647
635,22	18,140
635,41	18,459
635,60	21,618
635,79	20,694
635,98	17,581
636,17	19,469
636,36	17,445
636,55	17,199
636,74	17,112
636,93	18,544
637,12	18,980
637,31	17,573
637,50	18,622
637,69	18,858
637,87	19,159
638,06	16,529
638,25	17,109
638,44	18,333
638,63	17,020
638,82	18,338
639,01	18,143
639,20	18,762
639,39	19,683
639,58	18,607
639,77	18,289
639,95	17,532
640,14	20,591
640,33	18,694
640,52	19,359
640,71	20,849
640,90	18,290
641,09	20,406
641,28	17,210
641,47	19,649
641,66	18,445
641,84	20,161
642,03	16,444
642,22	17,910
642,41	22,334
642,60	18,078
642,79	18,794
642,98	19,755
643,17	18,591
643,35	17,486
643,54	18,105
643,73	17,937
643,92	18,075
644,11	18,049
644,30	18,019
644,49	20,148
644,67	17,744
644,86	17,891
645,05	18,467
645,24	17,530
645,43	17,872
645,62	19,149
645,81	17,997
645,99	18,258
646,18	20,618
646,37	19,609
646,56	17,917
646,75	18,952
646,94	20,090
647,13	17,406
647,31	18,499
647,50	17,108
647,69	19,307
647,88	18,329
648,07	18,500
648,26	22,620
648,44	18,639
648,63	20,016
648,82	17,567
649,01	18,748
649,20	16,955
649,38	19,405
649,57	18,177
649,76	17,861
649,95	19,006
650,14	17,137
650,33	18,539
650,51	19,820
650,70	18,294
650,89	18,778
651,08	18,809
651,27	19,847
651,45	17,116
651,64	17,496
651,83	18,706
652,02	17,730
652,21	18,084
652,39	19,436
652,58	20,378
652,77	20,102
652,96	18,838
653,15	19,848
653,33	18,718
653,52	19,042
653,71	19,862
653,90	19,490
654,09	17,380
654,27	18,461
654,46	19,241
654,65	18,857
654,84	19,218
655,02	20,361
655,21	18,571
655,40	20,633
655,59	19,248
655,77	20,975
655,96	19,170
656,15	20,520
656,34	20,041
656,53	18,294
656,71	18,638
656,90	20,187
657,09	19,764
657,28	20,392
657,46	18,853
657,65	18,334
657,84	19,108
658,03	18,349
658,21	19,022
658,40	18,586
658,59	18,224
658,78	18,548
658,96	17,293
659,15	20,366
659,34	17,735
659,52	18,477
659,71	18,735
659,90	18,697
660,09	18,935
660,27	18,821
660,46	19,985
660,65	19,697
660,84	16,834
661,02	18,488
661,21	20,548
661,40	20,155
661,58	19,567
661,77	18,565
661,96	18,087
662,15	19,989
662,33	19,221
662,52	18,263
662,71	18,924
662,89	17,134
663,08	18,164
663,27	20,166
663,45	18,119
663,64	19,582
663,83	18,614
664,02	16,445
664,20	19,489
664,39	18,056
664,58	20,040
664,76	17,029
664,95	18,645
665,14	19,797
665,32	16,622
665,51	18,987
665,70	18,791
665,88	18,968
666,07	18,312
666,26	20,083
666,44	20,388
666,63	16,268
666,82	18,213
667,00	17,966
667,19	16,673
667,38	19,162
667,56	19,232
667,75	18,918
667,94	18,131
668,12	18,230
668,31	19,388
668,50	18,987
668,68	21,059
668,87	17,827
669,06	19,324
669,24	19,763
669,43	17,927
669,62	18,592
669,80	16,732
669,99	18,354
670,18	19,507
670,36	16,785
670,55	20,616
670,74	17,263
670,92	16,132
671,11	19,689
671,29	17,117
671,48	18,538
671,67	17,745
671,85	17,907
672,04	18,701
672,23	18,431
672,41	17,900
672,60	19,039
672,78	19,343
672,97	17,929
673,16	19,438
673,34	19,699
673,53	16,829
673,71	18,512
673,90	18,990
674,09	19,478
674,27	19,126
674,46	16,283
674,64	18,308
674,83	18,106
675,02	17,727
675,20	17,505
675,39	17,955
675,57	18,463
675,76	18,126
675,95	20,863
676,13	18,659
676,32	17,585
676,50	17,801
676,69	17,146
676,88	19,393
677,06	16,642
677,25	18,541
677,43	21,068
677,62	20,387
677,80	18,498
677,99	18,294
678,18	20,546
678,36	19,899
678,55	17,476
678,73	16,718
678,92	18,955
679,10	18,652
679,29	18,194
679,48	16,880
679,66	18,953
679,85	19,267
680,03	19,263
680,22	18,116
680,40	17,786
680,59	19,056
680,77	17,660
680,96	18,106
681,15	19,185
681,33	19,861
681,52	18,419
681,70	18,091
681,89	20,328
682,07	17,926
682,26	18,133
682,44	19,688
682,63	19,040
682,81	20,261
683,00	18,604
683,18	17,421
683,37	17,861
683,55	17,012
683,74	19,711
683,92	24,099
684,11	18,000
684,29	18,431
684,48	18,410
684,67	18,826
684,85	19,393
685,04	18,500
685,22	18,336
685,41	18,913
685,59	18,633
685,78	16,916
685,96	17,641
686,15	16,825
686,33	18,768
686,52	18,083
686,70	17,742
686,89	18,697
687,07	18,552
687,26	18,151
687,44	18,522
687,62	18,166
687,81	19,996
687,99	19,587
688,18	19,061
688,36	19,238
688,55	20,327
688,73	19,037
688,92	18,755
689,10	17,876
689,29	20,378
689,47	19,651
689,66	18,061
689,84	18,046
690,03	22,650
690,21	18,186
690,40	16,779
690,58	18,009
690,76	15,967
690,95	19,685
691,13	16,008
691,32	18,132
691,50	17,621
691,69	20,540
691,87	17,909
692,06	17,331
692,24	17,947
692,43	19,736
692,61	18,386
692,79	19,021
692,98	17,489
693,16	19,584
693,35	16,884
693,53	19,309
693,72	18,901
693,90	20,530
694,08	17,621
694,27	18,334
694,45	19,083
694,64	21,053
694,82	16,786
695,01	18,319
695,19	16,879
695,37	17,524
695,56	17,875
695,74	18,039
695,93	18,842
696,11	17,686
696,29	19,573
696,48	19,598
696,66	19,418
696,85	16,933
697,03	18,199
697,21	18,157
697,40	20,312
697,58	19,012
697,77	19,119
697,95	18,127
698,13	17,883
698,32	17,503
698,50	17,460
698,69	18,107
698,87	19,602
699,05	20,061
699,24	17,271
699,42	19,630
699,60	16,078
699,79	17,108
699,97	17,084
700,16	17,040
700,34	21,992
700,52	18,497
700,71	18,418
700,89	17,030
701,07	16,689
701,26	17,283
701,44	17,340
701,63	18,650
701,81	18,761
701,99	17,842
702,18	17,551
702,36	17,624
702,54	19,246
702,73	18,815
702,91	17,193
703,09	17,997
703,28	17,230
703,46	18,001
703,64	19,483
703,83	19,008
704,01	18,223
704,19	18,076
704,38	16,626
704,56	17,121
704,74	19,291
704,93	16,875
705,11	18,113
705,29	18,153
705,48	20,077
705,66	18,203
705,84	17,905
706,03	16,502
706,21	18,239
706,39	17,392
706,58	17,012
706,76	18,965
706,94	18,721
707,12	18,252
707,31	17,018
707,49	17,244
707,67	17,181
707,86	20,138
708,04	18,589
708,22	17,812
708,41	19,422
708,59	16,793
708,77	18,797
708,95	18,313
709,14	19,809
709,32	18,052
709,50	17,415
709,69	19,185
709,87	18,177
710,05	16,678
710,23	17,045
710,42	17,652
710,60	17,972
710,78	20,579
710,97	18,913
711,15	17,609
711,33	18,309
711,51	17,458
711,70	17,624
711,88	18,745
712,06	20,223
712,24	19,538
712,43	18,223
712,61	16,775
712,79	17,985
712,97	16,154
713,16	18,660
713,34	15,777
713,52	18,922
713,70	17,673
713,89	17,305
714,07	16,530
714,25	18,264
714,43	20,040
714,62	15,759
714,80	17,372
714,98	16,177
715,16	17,764
715,35	16,940
715,53	17,510
715,71	20,172
715,89	20,414
716,07	19,067
716,26	17,385
716,44	20,292
716,62	18,697
716,80	19,849
716,99	17,648
717,17	21,560
717,35	18,545
717,53	16,602
717,71	17,638
717,90	20,102
718,08	18,207
718,26	18,509
718,44	20,066
718,62	21,089
718,81	18,342
718,99	18,384
719,17	17,910
719,35	17,560
719,53	16,461
719,72	15,536
719,90	17,322
720,08	17,982
720,26	20,885
720,44	17,374
720,62	17,099
720,81	21,154
720,99	18,806
721,17	16,825
721,35	18,849
721,53	17,508
721,72	18,981
721,90	19,123
722,08	18,077
722,26	19,178
722,44	18,787
722,62	16,967
722,81	17,981
722,99	18,429
723,17	16,604
723,35	18,765
723,53	18,838
723,71	17,553
723,89	22,328
724,08	18,970
724,26	17,055
724,44	18,131
724,62	19,935
724,80	15,072
724,98	17,003
725,16	20,345
725,35	17,116
725,53	19,186
725,71	19,601
725,89	18,093
726,07	22,007
726,25	20,373
726,43	17,234
726,61	19,340
726,80	20,240
726,98	19,224
727,16	16,679
727,34	18,663
727,52	18,079
727,70	17,249
727,88	17,685
728,06	14,581
728,25	16,122
728,43	18,486
728,61	17,874
728,79	18,093
728,97	20,490
729,15	16,637
729,33	20,454
729,51	19,775
729,69	17,467
729,87	18,741
730,06	19,486
730,24	19,322
730,42	19,474
730,60	18,304
730,78	18,896
730,96	18,787
731,14	18,410
731,32	19,004
731,50	16,436
731,68	17,019
731,86	19,396
732,04	17,887
732,22	18,457
732,41	25,821
732,59	17,940
732,77	18,837
732,95	19,082
733,13	19,507
733,31	18,522
733,49	17,902
733,67	18,587
733,85	19,872
734,03	16,596
734,21	17,712
734,39	19,287
734,57	18,568
734,75	19,462
734,93	17,685
735,11	19,752
735,29	16,577
735,47	19,351
735,65	16,431
735,84	17,750
736,02	17,144
736,20	21,321
736,38	16,520
736,56	20,288
736,74	17,931
736,92	18,511
737,10	19,032
737,28	19,674
737,46	17,978
737,64	18,496
737,82	17,750
738,00	19,462
738,18	18,838
738,36	18,958
738,54	17,934
738,72	18,956
738,90	18,852
739,08	17,559
739,26	16,666
739,44	19,297
739,62	20,097
739,80	18,741
739,98	18,324
740,16	19,201
740,34	18,156
740,52	20,700
740,70	18,225
740,88	18,644
741,06	18,472
741,24	18,655
741,42	18,161
741,60	16,185
741,78	18,929
741,96	19,593
742,14	18,446
742,32	18,953
742,50	15,865
742,68	19,690
742,86	18,221
743,04	15,923
743,21	19,742
743,39	18,924
743,57	18,375
743,75	19,323
743,93	17,119
744,11	15,782
744,29	19,293
744,47	17,497
744,65	18,694
744,83	18,085
745,01	16,426
745,19	17,576
745,37	22,160
745,55	19,867
745,73	21,323
745,91	18,003
746,09	17,312
746,27	17,039
746,45	17,563
746,62	17,042
746,80	16,863
746,98	18,733
747,16	15,391
747,34	17,236
747,52	17,649
747,70	18,755
747,88	20,363
748,06	19,762
748,24	18,517
748,42	20,152
748,60	19,350
748,78	16,062
748,95	21,727
749,13	23,288
749,31	18,567
749,49	19,198
749,67	18,600
749,85	20,423
750,03	19,822
750,21	17,981
750,39	21,387
750,57	15,930
750,74	20,056
750,92	17,673
751,10	18,752
751,28	15,943
751,46	19,301
751,64	18,299
751,82	18,094
752,00	18,734
752,17	19,361
752,35	20,998
752,53	19,326
752,71	17,878
752,89	17,505
753,07	17,438
753,25	19,312
753,43	16,527
753,60	20,200
753,78	18,562
753,96	18,962
754,14	20,131
754,32	20,289
754,50	19,644
754,68	20,420
754,85	18,285
755,03	18,355
755,21	20,596
755,39	21,034
755,57	19,173
755,75	19,474
755,92	19,003
756,10	17,791
756,28	17,260
756,46	17,970
756,64	17,982
756,82	19,484
756,99	18,862
757,17	16,305
757,35	15,564
757,53	22,625
757,71	21,252
757,89	18,111
758,06	19,170
758,24	18,999
758,42	19,359
758,60	18,126
758,78	19,047
758,95	20,449
759,13	19,848
759,31	18,743
759,49	17,844
759,67	18,853
759,84	16,230
760,02	19,343
760,20	17,504
760,38	19,912
760,56	16,797
760,73	17,335
760,91	17,516
761,09	20,476
761,27	17,786
761,45	17,316
761,62	16,205
761,80	17,104
761,98	18,731
762,16	20,211
762,33	17,763
762,51	19,779
762,69	17,213
762,87	18,142
763,05	20,690
763,22	18,983
763,40	18,253
763,58	18,333
763,76	16,980
763,93	20,059
764,11	19,334
764,29	18,011
764,47	20,434
764,64	21,530
764,82	20,985
765,00	18,402
765,18	16,085
765,35	18,181
765,53	17,893
765,71	19,464
765,89	17,998
766,06	16,238
766,24	19,443
766,42	18,269
766,60	15,969
766,77	17,616
766,95	17,212
767,13	17,917
767,30	17,906
767,48	16,638
767,66	17,403
767,84	16,037
768,01	17,894
768,19	18,868
768,37	17,321
768,54	18,187
768,72	19,148
768,90	18,222
769,08	19,565
769,25	18,359
769,43	18,424
769,61	16,554
769,78	19,518
769,96	16,822
770,14	20,515
770,31	20,180
770,49	20,531
770,67	18,066
770,85	17,350
771,02	19,856
771,20	18,235
771,38	17,659
771,55	17,997
771,73	14,762
771,91	19,835
772,08	18,867
772,26	17,914
772,44	20,776
772,61	18,621
772,79	18,002
772,97	17,670
773,14	16,857
773,32	20,522
773,50	17,174
773,67	20,316
773,85	19,639
774,03	22,050
774,20	18,563
774,38	17,787
774,56	19,268
774,73	16,523
774,91	16,347
775,09	15,440
775,26	19,960
775,44	20,042
775,61	17,610
775,79	17,852
775,97	19,786
776,14	18,067
776,32	20,699
776,50	17,957
776,67	17,699
776,85	18,996
777,03	15,412
777,20	19,970
777,38	22,058
777,55	20,079
777,73	18,080
777,91	16,191
778,08	16,241
778,26	18,454
778,43	19,865
778,61	17,741
778,79	18,289
778,96	20,091
779,14	17,681
779,32	17,379
779,49	17,914
779,67	23,106
779,84	20,100
780,02	18,695
780,20	18,358
780,37	19,577
780,55	13,911
780,72	17,637
780,90	17,192
781,07	19,457
781,25	20,563
781,43	18,928
781,60	17,747
781,78	21,954
781,95	21,067
782,13	17,595
782,30	18,844
782,48	19,000
782,66	16,206
782,83	18,531
783,01	24,489
783,18	19,857
783,36	20,655
783,53	19,018
783,71	15,648
783,89	18,456
784,06	18,664
784,24	18,301
784,41	17,469
784,59	17,415
784,76	22,190
784,94	16,991
785,11	18,801
785,29	18,100
785,46	18,012
785,64	18,449
785,82	19,819
785,99	22,254
786,17	21,800
786,34	16,181
786,52	21,704
786,69	20,271
786,87	17,620
787,04	18,056
787,22	18,334
787,39	19,664
787,57	20,736
787,74	17,453
787,92	20,909
788,09	19,872
788,27	19,616
788,44	18,880
788,62	21,457
788,79	16,528
788,97	19,098
789,14	18,406
789,32	18,816
789,49	17,472
789,67	20,416
789,84	16,408
790,02	21,267
790,19	16,446
790,37	21,315
790,54	18,853
790,72	22,472
790,89	19,999
791,07	21,950
791,24	15,572
791,42	21,752
791,59	22,144
791,77	16,960
791,94	20,173
792,12	17,830
792,29	21,737
792,47	21,423
792,64	20,190
792,81	22,261
792,99	18,930
793,16	18,782
793,34	17,745
793,51	19,019
793,69	20,131
793,86	18,339
794,04	19,772
794,21	21,505
794,39	18,171
794,56	17,775
794,73	21,921
794,91	23,118
795,08	18,315
795,26	17,328
795,43	16,213
795,61	23,671
795,78	16,320
795,95	20,447
796,13	21,539
796,30	20,311
796,48	18,107
796,65	15,276
796,83	22,150
797,00	20,556
797,17	19,479
797,35	18,083
797,52	19,315
797,70	18,129
797,87	20,069
798,04	22,622
798,22	17,309
798,39	17,423
798,57	17,754
798,74	19,881
798,91	16,683
799,09	19,380
799,26	19,799
799,44	20,269
799,61	15,634
799,78	16,166
799,96	21,832
800,13	17,184
800,31	22,506
800,48	21,994
800,65	21,306
800,83	22,214
801,00	18,745
801,17	20,021
801,35	21,418
801,52	21,798
801,70	23,126
801,87	17,653
802,04	20,884
802,22	14,811
802,39	19,547
802,56	22,015
802,74	23,225
802,91	18,143
803,08	18,276
803,26	22,910
803,43	25,142
803,61	15,275
803,78	19,239
803,95	20,628
804,13	20,008
804,30	16,942
804,47	21,277
804,65	21,464
804,82	22,645
804,99	24,327
805,17	17,446
805,34	27,449
805,51	21,740
805,69	20,688
805,86	22,910
806,03	25,731
806,21	21,038
806,38	24,492
806,55	17,707
806,72	20,381
806,90	25,294
807,07	22,798
807,24	18,023
807,42	17,460
807,59	19,925
807,76	13,742
807,94	20,626
808,11	26,245
808,28	24,691
808,45	21,458
808,63	16,043
808,80	24,897
808,97	20,179
809,15	21,627
809,32	22,824
809,49	21,408
809,67	19,917
809,84	23,870
810,01	21,150
810,18	30,134
810,36	24,662
810,53	20,341
810,70	20,973
810,87	19,772
811,05	19,647
811,22	21,253
811,39	20,472
811,57	21,474
811,74	18,403
811,91	23,600
812,08	17,497
812,26	16,787
812,43	15,288
812,60	24,959
812,77	21,477
812,95	22,766
813,12	22,450
813,29	20,087
813,46	19,790
813,64	24,820
813,81	24,251
813,98	20,834
814,15	22,906
814,32	25,088
814,50	19,316
814,67	22,605
814,84	26,015
815,01	21,188
815,19	16,598
815,36	19,461
815,53	18,093
815,70	21,232
815,87	26,589
816,05	21,641
816,22	22,870
816,39	24,625
816,56	25,493
816,74	24,077
816,91	24,340
817,08	26,006
817,25	28,483
817,42	22,915
817,60	22,228
817,77	27,559
817,94	16,810
818,11	20,029
818,28	15,182
818,45	22,255
818,63	18,788
818,80	20,161
818,97	19,992
819,14	26,675
819,31	26,435
819,49	22,309
819,66	14,363
819,83	27,329
820,00	24,985
820,17	19,998
820,34	20,685
820,52	24,799
820,69	26,694
820,86	19,566
821,03	24,427
821,20	23,944
821,37	27,777
821,55	24,334
821,72	15,072
821,89	26,056
822,06	25,041
822,23	17,373
822,40	19,835
822,57	25,306
822,75	26,108
822,92	11,396
823,09	24,419
823,26	23,860
823,43	25,812
823,60	16,346
823,77	17,992
823,94	30,209
824,12	25,340
824,29	19,435
824,46	27,678
824,63	35,538
824,80	25,086
824,97	24,599
825,14	20,170
825,31	24,336
825,49	18,741
825,66	15,341
825,83	18,806
826,00	22,932
826,17	29,947
826,34	26,463
826,51	23,189
826,68	17,009
826,85	18,010
827,02	18,035
827,20	19,344
827,37	21,094
827,54	23,457
827,71	27,774
827,88	24,221
828,05	23,634
828,22	27,191
828,39	30,066
828,56	25,116
828,73	22,964
828,90	22,512
829,07	22,473
829,25	21,024
829,42	18,597
829,59	16,263
829,76	22,004
829,93	23,543
830,10	22,379
830,27	21,579
830,44	17,821
830,61	13,430
830,78	19,513
830,95	24,885
831,12	23,369
831,29	19,496
831,46	17,730
831,63	20,123
831,80	23,448
831,97	22,483
832,14	28,913
832,31	25,489
832,48	16,095
832,65	29,216
832,83	21,501
833,00	23,937
833,17	22,771
833,34	20,503
833,51	23,753
833,68	30,801
833,85	23,495
834,02	18,922
834,19	27,788
834,36	23,534
834,53	17,777
834,70	18,825
834,87	36,091
835,04	23,123
835,21	24,534
835,38	23,514
835,55	16,300
835,72	37,257
835,89	17,008
836,06	19,513
836,23	37,464
836,40	20,036
836,57	17,591
836,74	25,707
836,91	21,341
837,08	35,761
837,25	22,507
837,42	18,327
837,59	14,065
837,76	24,819
837,93	21,713
838,09	26,291
838,26	19,907
838,43	33,830
838,60	30,478
838,77	26,254
838,94	23,033
839,11	40,006
839,28	29,681
839,45	20,401
839,62	22,919
839,79	22,560
839,96	23,958
840,13	23,642
840,30	23,238
840,47	20,144
840,64	32,544
840,81	24,850
840,98	17,855
841,15	30,042
841,32	22,209
841,48	28,088
841,65	28,550
841,82	24,213
841,99	24,449
842,16	26,576
842,33	18,925
842,50	33,355
842,67	14,209
842,84	23,775
843,01	30,240
843,18	16,553
843,35	30,915
843,52	20,990
843,68	31,426
843,85	21,056
844,02	13,106
844,19	28,099
844,36	23,085
844,53	21,030
844,70	5,786
844,87	34,252
845,04	28,430
845,21	18,812
845,37	27,598
845,54	20,821
845,71	25,091
845,88	39,984
846,05	19,732
846,22	10,438
846,39	27,765
846,56	28,755
846,72	9,534
846,89	22,423
847,06	33,648
847,23	29,197
847,40	14,630
847,57	22,178
847,74	20,530
847,90	38,892
848,07	27,063
848,24	27,654
848,41	27,136
848,58	32,359
848,75	29,127
848,92	18,257
849,08	27,983
849,25	13,407
849,42	18,464
849,59	23,692
849,76	18,693
849,93	34,590
850,09	30,832
850,26	6,769
850,43	39,336
850,60	12,615
850,77	14,520
850,94	28,173
851,10	25,037
851,27	15,575
851,44	26,388
851,61	25,340
851,78	42,060
851,95	35,885
852,11	21,627
852,28	8,632
852,45	36,257
852,62	40,711
852,79	27,254
852,95	24,557
853,12	36,534
853,29	26,081
853,46	24,327
853,63	31,511
853,79	18,410
853,96	28,614
854,13	40,791
854,30	21,310
854,46	45,486
854,63	17,977
854,80	30,952
854,97	25,672
855,14	46,363
855,30	39,013
855,47	40,105
855,64	32,286
855,81	12,745
855,97	45,505
856,14	25,952
856,31	11,148
856,48	42,426
856,65	37,568
856,81	34,623
856,98	18,546
857,15	4,566
857,32	38,668
857,48	29,038
857,65	51,683
857,82	43,125
857,99	28,432
858,15	35,635
858,32	28,266
858,49	20,368
858,65	48,672
858,82	30,926
858,99	35,368
859,16	37,305
859,32	32,848
859,49	38,932
859,66	31,083
859,83	32,266
859,99	26,543
860,16	16,822
860,33	30,930
860,49	36,866
860,66	23,446
860,83	27,062
861,00	28,627
861,16	45,093
861,33	42,310
861,50	5,784
861,66	43,342
861,83	55,897
862,00	26,468
862,16	24,579
862,33	28,899
862,50	73,389
862,67	31,595
862,83	43,746
863,00	29,935
863,17	53,016
863,33	30,922
863,50	12,988
863,67	39,549
863,83	44,375
864,00	36,857
864,17	17,064
864,33	20,533
864,50	8,733
864,67	49,855
864,83	16,621
865,00	35,912
865,17	16,035
865,33	48,737
865,50	24,158
865,67	30,087
865,83	44,756
866,00	40,752
866,17	32,123
866,33	28,324
866,50	27,248
866,66	26,914
866,83	34,223
867,00	39,278
867,16	61,010
867,33	80,259
867,50	43,637
867,66	45,769
867,83	42,900
868,00	35,237
868,16	15,277
868,33	30,018
868,49	31,510
868,66	44,269
868,83	36,514
868,99	52,682
869,16	63,343
869,32	52,989
869,49	43,365
869,66	13,028
869,82	62,453
869,99	40,773
870,15	26,944
870,32	31,374
870,49	102,881
870,65	64,391
870,82	33,398
870,98	34,602
871,15	60,671
871,32	35,058
871,48	38,063
871,65	32,877
871,81	56,010
871,98	9,801
872,15	31,465
872,31	22,297
872,48	74,500
872,64	56,799
872,81	41,414
872,97	28,821
873,14	92,202
873,31	55,886
873,47	31,003
873,64	52,076
873,80	75,082
873,97	66,984
874,13	35,162
874,30	22,691
874,46	43,735
874,63	38,048
874,80	23,315
874,96	22,049
875,13	68,123
875,29	22,364
875,46	65,054
875,62	13,515
875,79	67,402
875,95	33,178
876,12	11,604
876,28	38,011
876,45	91,591
876,61	-4,208
876,78	19,636
876,94	4,994
877,11	75,078
877,27	142,436
877,44	29,293
877,60	54,223
877,77	65,788
877,94	81,333
878,10	24,252
878,27	60,630
878,43	95,009
878,60	35,783
878,76	20,897
878,93	68,732
879,09	27,680
879,26	87,106
879,42	80,213
879,58	44,779
879,75	99,581
879,91	80,070
880,08	39,728
880,24	51,939
880,41	27,397
880,57	21,040
880,74	133,688
880,90	59,698
881,07	9,907
881,23	124,303
881,40	60,878
881,56	57,373
881,73	130,690
881,89	77,069
882,06	37,234
882,22	117,802
882,38	85,362
882,55	118,079
882,71	77,799
882,88	32,324
883,04	47,117
883,21	90,054
883,37	114,817
883,54	42,512
883,70	200,180
883,86	93,473
884,03	105,467
884,19	63,748
884,36	116,567
884,52	130,222
884,69	41,467
884,85	17,997
885,01	75,815
885,18	111,513
885,34	22,996
885,51	47,907
885,67	67,634
>>>>> Data<<<<< Espectral Procesado Extremo
