Fichero De Datos De SpectraSuite
++++++++++++++++++++++++++++++++++++
Fecha: Wed Apr 22 08:50:11 CEST 2009
Usuario: evoflor
Presente Oscuro Del Espectro: Sí
La Referencia de Presente Del Espectro De: Sí
Muestreados de los componentes de Número de espectros: 1
Espectrómetros: USB4F02353
Tiempo de integración (usec): 500000 (USB4F02353)
Promedio de Espectros Hechos un: 5 (USB4F02353)
El Alisar Del Furgón: 0 (USB4F02353)
Párrafo de de Corregir del la del del de Eléctrica del obscuridad: Sí (USB4F02353)
Estrobo/Lámpara Permitido: No (USB4F02353)
Correct for Detector Non-linearity: No (USB4F02353)
Párrafo de de Corregir del la del del de Externa del luz: No (USB4F02353)
Procesado del espectro de Número de pixeles en: 3648
>>>>> Comienza Data<<<<< Espectral Procesado Del EL
177,79	815,785
178,00	815,785
178,22	815,785
178,44	-9223,231
178,66	462,753
178,88	125,876
179,09	1629,306
179,31	176,988
179,53	-5728,817
179,75	572,764
179,96	-15,690
180,18	199,850
180,40	-350,903
180,62	-150,844
180,83	199,475
181,05	-928,545
181,27	-521,965
181,49	-24,996
181,70	-231,028
181,92	537,706
182,14	140,615
182,36	-410,914
182,58	234,202
182,79	-999,620
183,01	-15893,933
183,23	266,321
183,45	-101,272
183,66	64,231
183,88	829,921
184,10	935,011
184,32	779,158
184,53	-263,383
184,75	420,285
184,97	-190,468
185,18	1226,178
185,40	275,025
185,62	-592,356
185,84	990,387
186,05	3330,748
186,27	-6390,126
186,49	-954,158
186,71	192,917
186,92	435,250
187,14	1591,884
187,36	278,035
187,58	950,780
187,79	-697,537
188,01	-1250,871
188,23	58,704
188,45	208,406
188,66	45,180
188,88	239,668
189,10	-382,828
189,31	-155,851
189,53	-102,598
189,75	1529,794
189,97	49,595
190,18	1436,215
190,40	1361,985
190,62	269,737
190,83	379,037
191,05	-310,384
191,27	5574,341
191,49	544,654
191,70	899,087
191,92	512,108
192,14	371,270
192,35	-1471,483
192,57	-805,388
192,79	-1750,311
193,01	549,723
193,22	-398,366
193,44	-718,896
193,66	294,275
193,87	683,940
194,09	169,520
194,31	246,296
194,53	-492,194
194,74	272,826
194,96	326,311
195,18	628,177
195,39	-1427,127
195,61	-327,571
195,83	2122,396
196,04	468,104
196,26	214,025
196,48	2272,771
196,70	577,194
196,91	133,625
197,13	-286,682
197,35	235,078
197,56	-412,110
197,78	4667,029
198,00	551,612
198,21	257,907
198,43	873,216
198,65	168,220
198,86	129,631
199,08	787,143
199,30	59,770
199,51	908,322
199,73	-962,702
199,95	269,290
200,16	767,296
200,38	133,531
200,60	3647,634
200,81	-737,895
201,03	10697,608
201,25	643,169
201,46	-1079,754
201,68	755,863
201,90	477,479
202,11	440,911
202,33	156,843
202,55	125,788
202,76	647,049
202,98	568,076
203,20	275,017
203,41	-873,994
203,63	689,274
203,85	97,624
204,06	-596,551
204,28	185,763
204,50	-348,915
204,71	486,543
204,93	0,429
205,15	82,283
205,36	-132,264
205,58	1145,518
205,80	-3015,272
206,01	-2297,065
206,23	347,321
206,45	491,108
206,66	319,883
206,88	-413,548
207,10	2993,208
207,31	-46753,642
207,53	295,482
207,75	-83,274
207,96	359,844
208,18	329,543
208,39	207,534
208,61	527,533
208,83	7502,476
209,04	459,315
209,26	212,480
209,48	123,933
209,69	-97,011
209,91	1080,214
210,13	37,202
210,34	88,138
210,56	319,504
210,77	1191,150
210,99	318,827
211,21	-470,185
211,42	183,877
211,64	408,237
211,86	352,055
212,07	233,505
212,29	719,757
212,50	1413,115
212,72	172,914
212,94	350,326
213,15	133,327
213,37	671,373
213,58	167,471
213,80	375,647
214,02	3208,680
214,23	337,256
214,45	247,385
214,67	-56,666
214,88	-118,914
215,10	1361,985
215,31	-1197,201
215,53	147,978
215,75	344,285
215,96	649,575
216,18	121,752
216,39	203,068
216,61	460,683
216,83	1222,629
217,04	438,068
217,26	78,723
217,47	674,454
217,69	287,498
217,91	82,539
218,12	1016,088
218,34	143,564
218,55	231,807
218,77	33,443
218,99	225,657
219,20	188,844
219,42	422,042
219,63	61,137
219,85	199,846
220,06	-98,678
220,28	117,577
220,50	106,731
220,71	123,171
220,93	561,019
221,14	355,026
221,36	74,432
221,58	63,097
221,79	31,581
222,01	146,913
222,22	199,133
222,44	29,055
222,65	86,051
222,87	85,062
223,09	84,670
223,30	19,983
223,52	309,282
223,73	86,188
223,95	102,931
224,16	35,129
224,38	120,314
224,60	82,146
224,81	84,614
225,03	79,504
225,24	69,687
225,46	7,651
225,67	-4,335
225,89	83,712
226,10	142,848
226,32	160,165
226,54	11,683
226,75	7,288
226,97	156,776
227,18	92,808
227,40	83,710
227,61	38,516
227,83	30,914
228,04	102,166
228,26	76,445
228,47	16,374
228,69	83,489
228,91	56,130
229,12	102,991
229,34	35,229
229,55	45,243
229,77	43,150
229,98	17,057
230,20	39,231
230,41	-10,803
230,63	54,409
230,84	37,794
231,06	34,624
231,27	6,532
231,49	25,152
231,71	25,841
231,92	7,771
232,14	1,080
232,35	45,158
232,57	-7,782
232,78	16,535
233,00	28,093
233,21	26,915
233,43	27,140
233,64	-3,775
233,86	33,955
234,07	42,647
234,29	7,981
234,50	9,780
234,72	35,179
234,93	21,409
235,15	3,362
235,36	26,936
235,58	45,727
235,79	25,179
236,01	6,386
236,22	20,853
236,44	38,640
236,65	14,326
236,87	10,736
237,08	14,266
237,30	-4,202
237,51	27,661
237,73	14,934
237,94	9,239
238,16	17,148
238,37	7,628
238,59	-1,355
238,80	12,604
239,02	5,946
239,23	17,322
239,45	3,832
239,66	20,475
239,88	25,130
240,09	17,104
240,31	1,386
240,52	3,450
240,74	17,326
240,95	13,470
241,17	6,909
241,38	6,161
241,60	4,378
241,81	20,149
242,03	-0,928
242,24	8,655
242,46	16,216
242,67	-2,285
242,89	13,111
243,10	10,805
243,32	15,193
243,53	16,698
243,75	4,741
243,96	12,351
244,18	8,788
244,39	13,932
244,60	2,822
244,82	4,827
245,03	16,738
245,25	7,391
245,46	20,477
245,68	0,452
245,89	27,693
246,11	15,453
246,32	7,884
246,54	9,178
246,75	4,431
246,97	16,374
247,18	21,053
247,39	5,297
247,61	15,146
247,82	13,273
248,04	0,482
248,25	2,585
248,47	7,463
248,68	11,126
248,90	7,365
249,11	9,886
249,33	15,551
249,54	10,764
249,75	8,963
249,97	0,747
250,18	17,421
250,40	13,444
250,61	5,923
250,83	2,074
251,04	5,459
251,25	12,324
251,47	10,229
251,68	5,907
251,90	5,362
252,11	6,813
252,33	7,699
252,54	5,168
252,76	2,016
252,97	0,165
253,18	4,497
253,40	8,850
253,61	6,202
253,83	7,816
254,04	7,775
254,25	1,720
254,47	-2,328
254,68	7,265
254,90	5,146
255,11	2,172
255,33	11,537
255,54	4,943
255,75	2,977
255,97	6,449
256,18	3,785
256,40	7,175
256,61	5,330
256,82	5,073
257,04	7,400
257,25	4,559
257,47	7,522
257,68	9,502
257,89	5,606
258,11	5,762
258,32	9,926
258,54	4,597
258,75	17,501
258,96	7,245
259,18	6,589
259,39	4,313
259,61	7,990
259,82	1,113
260,03	2,509
260,25	6,714
260,46	3,885
260,68	4,957
260,89	2,402
261,10	5,520
261,32	3,092
261,53	-2,929
261,75	8,470
261,96	1,447
262,17	18,430
262,39	10,319
262,60	0,558
262,81	3,548
263,03	10,214
263,24	5,614
263,46	2,502
263,67	6,107
263,88	7,310
264,10	4,738
264,31	6,315
264,52	3,397
264,74	7,404
264,95	5,872
265,17	8,702
265,38	6,982
265,59	12,545
265,81	8,298
266,02	1,884
266,23	0,621
266,45	10,539
266,66	9,044
266,87	6,235
267,09	3,837
267,30	6,635
267,52	10,209
267,73	6,050
267,94	2,066
268,16	4,403
268,37	2,740
268,58	5,722
268,80	-0,727
269,01	5,807
269,22	9,811
269,44	6,945
269,65	7,018
269,86	0,870
270,08	5,469
270,29	2,051
270,50	3,157
270,72	9,458
270,93	1,251
271,14	3,534
271,36	1,865
271,57	6,743
271,78	4,562
272,00	3,172
272,21	8,332
272,42	2,646
272,64	9,894
272,85	1,329
273,06	3,357
273,28	5,840
273,49	1,204
273,70	4,455
273,92	4,563
274,13	2,682
274,34	-0,097
274,56	7,394
274,77	4,539
274,98	9,619
275,20	7,445
275,41	7,239
275,62	0,259
275,84	3,557
276,05	14,280
276,26	3,839
276,47	3,418
276,69	10,470
276,90	10,299
277,11	4,435
277,33	1,357
277,54	8,476
277,75	5,938
277,97	1,466
278,18	-1,041
278,39	9,905
278,61	-0,259
278,82	9,860
279,03	7,555
279,24	2,771
279,46	5,106
279,67	8,176
279,88	4,555
280,10	8,447
280,31	2,893
280,52	2,418
280,73	1,580
280,95	7,123
281,16	5,774
281,37	4,462
281,59	4,863
281,80	8,382
282,01	1,662
282,22	1,390
282,44	3,631
282,65	11,588
282,86	5,587
283,08	1,344
283,29	3,079
283,50	1,069
283,71	4,003
283,93	4,745
284,14	1,270
284,35	3,532
284,56	5,885
284,78	0,194
284,99	5,484
285,20	9,697
285,42	3,017
285,63	4,655
285,84	3,254
286,05	4,623
286,27	2,715
286,48	6,951
286,69	4,154
286,90	1,158
287,12	3,247
287,33	4,596
287,54	3,488
287,75	8,612
287,97	4,621
288,18	2,489
288,39	3,899
288,60	5,416
288,82	3,143
289,03	2,285
289,24	6,457
289,45	8,520
289,67	5,940
289,88	4,288
290,09	6,803
290,30	3,174
290,52	1,695
290,73	-1,171
290,94	3,563
291,15	3,880
291,37	7,418
291,58	5,051
291,79	5,432
292,00	3,180
292,21	5,048
292,43	6,522
292,64	0,191
292,85	3,791
293,06	6,396
293,28	2,059
293,49	2,256
293,70	8,522
293,91	0,726
294,12	3,747
294,34	1,734
294,55	5,480
294,76	4,658
294,97	6,728
295,19	3,612
295,40	3,122
295,61	4,432
295,82	5,844
296,03	5,005
296,25	5,083
296,46	3,073
296,67	2,484
296,88	5,446
297,09	1,938
297,31	2,059
297,52	7,133
297,73	2,018
297,94	3,328
298,15	6,689
298,37	3,435
298,58	3,612
298,79	5,516
299,00	-1,197
299,21	3,142
299,43	0,613
299,64	8,293
299,85	1,945
300,06	1,224
300,27	3,116
300,49	6,876
300,70	6,731
300,91	1,856
301,12	2,665
301,33	6,576
301,54	2,751
301,76	4,765
301,97	2,369
302,18	5,537
302,39	7,887
302,60	2,588
302,82	3,605
303,03	8,617
303,24	4,102
303,45	7,001
303,66	4,986
303,87	1,327
304,09	5,533
304,30	-0,200
304,51	1,885
304,72	1,280
304,93	5,040
305,14	3,571
305,36	2,638
305,57	0,560
305,78	6,612
305,99	2,712
306,20	4,297
306,41	2,409
306,62	1,316
306,84	3,458
307,05	4,873
307,26	1,867
307,47	8,950
307,68	4,076
307,89	3,252
308,11	4,634
308,32	3,252
308,53	3,744
308,74	0,884
308,95	2,619
309,16	7,685
309,37	4,672
309,59	1,348
309,80	2,434
310,01	2,780
310,22	4,617
310,43	7,082
310,64	4,857
310,85	6,208
311,06	2,213
311,28	3,796
311,49	5,650
311,70	7,575
311,91	2,816
312,12	0,937
312,33	4,009
312,54	4,296
312,75	7,320
312,97	2,537
313,18	6,184
313,39	1,123
313,60	3,213
313,81	4,456
314,02	4,701
314,23	5,720
314,44	1,679
314,65	1,862
314,87	0,623
315,08	2,010
315,29	2,479
315,50	5,957
315,71	9,046
315,92	8,239
316,13	1,768
316,34	4,382
316,55	5,150
316,77	0,188
316,98	2,192
317,19	2,218
317,40	6,906
317,61	5,711
317,82	5,198
318,03	0,560
318,24	3,300
318,45	6,839
318,66	4,297
318,87	2,032
319,09	4,783
319,30	5,013
319,51	7,504
319,72	6,164
319,93	6,106
320,14	6,070
320,35	7,197
320,56	0,075
320,77	4,693
320,98	6,912
321,19	7,711
321,40	4,030
321,62	5,200
321,83	-0,033
322,04	4,751
322,25	4,439
322,46	8,546
322,67	7,470
322,88	6,766
323,09	4,111
323,30	8,319
323,51	9,126
323,72	3,285
323,93	1,076
324,14	5,508
324,35	-0,285
324,56	1,052
324,77	1,511
324,99	4,067
325,20	2,836
325,41	4,654
325,62	2,756
325,83	-1,939
326,04	3,519
326,25	3,142
326,46	1,875
326,67	3,352
326,88	3,750
327,09	2,996
327,30	5,081
327,51	2,987
327,72	3,032
327,93	3,108
328,14	4,054
328,35	5,423
328,56	2,905
328,77	7,903
328,98	5,180
329,19	4,344
329,40	5,229
329,61	2,578
329,82	1,647
330,04	4,677
330,25	3,075
330,46	5,057
330,67	2,640
330,88	5,500
331,09	3,073
331,30	2,397
331,51	5,698
331,72	3,432
331,93	4,139
332,14	2,233
332,35	3,417
332,56	3,306
332,77	8,735
332,98	1,262
333,19	4,048
333,40	5,366
333,61	3,884
333,82	4,246
334,03	4,890
334,24	10,765
334,45	3,084
334,66	4,552
334,87	3,769
335,08	0,977
335,29	0,453
335,50	2,700
335,71	0,616
335,92	7,274
336,13	5,235
336,34	1,747
336,55	4,651
336,76	7,599
336,97	2,165
337,18	3,168
337,39	5,160
337,60	4,898
337,81	5,734
338,02	4,610
338,23	3,078
338,44	3,602
338,65	0,811
338,86	4,802
339,07	4,414
339,28	3,629
339,49	3,107
339,70	0,617
339,91	3,073
340,11	9,061
340,32	3,346
340,53	2,115
340,74	-0,898
340,95	1,613
341,16	5,102
341,37	3,234
341,58	4,040
341,79	3,547
342,00	1,928
342,21	-1,804
342,42	1,853
342,63	5,841
342,84	5,482
343,05	5,442
343,26	7,252
343,47	7,773
343,68	0,989
343,89	2,262
344,10	3,165
344,31	2,796
344,52	4,378
344,73	1,124
344,94	0,449
345,14	3,494
345,35	3,781
345,56	0,941
345,77	0,064
345,98	2,484
346,19	4,942
346,40	6,888
346,61	0,443
346,82	5,247
347,03	6,952
347,24	1,417
347,45	4,321
347,66	5,750
347,87	3,368
348,08	8,828
348,28	3,351
348,49	0,380
348,70	5,684
348,91	3,493
349,12	4,985
349,33	-0,437
349,54	4,672
349,75	6,008
349,96	4,809
350,17	7,297
350,38	2,093
350,59	4,732
350,80	2,827
351,00	1,955
351,21	10,389
351,42	1,884
351,63	2,980
351,84	3,713
352,05	8,627
352,26	5,687
352,47	4,932
352,68	6,883
352,89	1,857
353,09	3,167
353,30	0,761
353,51	0,509
353,72	9,609
353,93	7,318
354,14	0,636
354,35	4,167
354,56	7,283
354,77	1,571
354,98	3,156
355,18	6,674
355,39	8,596
355,60	-0,378
355,81	4,278
356,02	2,946
356,23	2,911
356,44	5,159
356,65	5,423
356,85	8,431
357,06	8,019
357,27	4,292
357,48	1,250
357,69	8,055
357,90	6,130
358,11	-0,059
358,32	1,894
358,52	7,280
358,73	3,632
358,94	3,987
359,15	2,803
359,36	8,853
359,57	6,261
359,78	7,842
359,98	5,564
360,19	0,442
360,40	2,230
360,61	8,178
360,82	3,768
361,03	11,584
361,24	16,327
361,44	0,215
361,65	6,163
361,86	2,987
362,07	6,633
362,28	8,148
362,49	4,532
362,70	5,662
362,90	4,480
363,11	1,267
363,32	1,092
363,53	2,419
363,74	8,462
363,95	8,236
364,15	3,485
364,36	7,967
364,57	2,512
364,78	0,531
364,99	4,400
365,20	5,928
365,40	8,608
365,61	4,102
365,82	5,724
366,03	7,703
366,24	2,943
366,45	-0,988
366,65	1,400
366,86	2,558
367,07	3,625
367,28	0,319
367,49	2,225
367,69	6,415
367,90	5,828
368,11	4,542
368,32	4,088
368,53	7,384
368,73	1,659
368,94	4,951
369,15	6,473
369,36	7,341
369,57	6,030
369,78	3,957
369,98	6,264
370,19	8,025
370,40	2,486
370,61	5,133
370,82	6,395
371,02	9,221
371,23	2,056
371,44	6,006
371,65	4,305
371,85	9,854
372,06	0,479
372,27	4,901
372,48	3,403
372,69	7,396
372,89	6,077
373,10	4,362
373,31	6,106
373,52	5,028
373,73	7,824
373,93	6,711
374,14	6,374
374,35	2,874
374,56	3,733
374,76	4,501
374,97	4,809
375,18	6,135
375,39	4,996
375,60	6,376
375,80	3,327
376,01	0,537
376,22	6,278
376,43	5,029
376,63	5,838
376,84	8,167
377,05	6,237
377,26	3,125
377,46	6,145
377,67	3,922
377,88	2,067
378,09	4,875
378,29	6,332
378,50	2,977
378,71	7,784
378,92	0,048
379,12	1,183
379,33	2,621
379,54	4,179
379,75	7,955
379,95	4,739
380,16	4,818
380,37	6,541
380,58	2,496
380,78	7,406
380,99	1,314
381,20	3,633
381,41	8,345
381,61	2,907
381,82	6,044
382,03	4,726
382,24	5,757
382,44	3,575
382,65	4,710
382,86	10,034
383,06	8,588
383,27	4,408
383,48	4,007
383,69	4,672
383,89	1,462
384,10	1,552
384,31	4,691
384,51	7,185
384,72	5,827
384,93	4,352
385,14	1,152
385,34	2,293
385,55	3,108
385,76	1,576
385,96	11,197
386,17	7,403
386,38	4,497
386,59	9,570
386,79	6,888
387,00	10,039
387,21	8,217
387,41	6,258
387,62	6,270
387,83	8,920
388,03	5,343
388,24	4,717
388,45	7,034
388,66	3,455
388,86	2,989
389,07	7,127
389,28	15,465
389,48	5,737
389,69	5,607
389,90	2,280
390,10	4,258
390,31	9,827
390,52	4,068
390,72	3,520
390,93	4,973
391,14	6,163
391,34	7,768
391,55	6,878
391,76	10,422
391,96	13,376
392,17	6,255
392,38	5,842
392,58	4,072
392,79	5,175
393,00	3,300
393,20	5,073
393,41	6,696
393,62	7,896
393,82	3,140
394,03	8,994
394,24	5,559
394,44	6,189
394,65	8,764
394,86	5,007
395,06	8,720
395,27	4,730
395,48	7,656
395,68	4,716
395,89	4,050
396,10	10,115
396,30	4,742
396,51	3,394
396,72	7,461
396,92	3,967
397,13	9,118
397,34	4,368
397,54	7,190
397,75	5,243
397,95	1,692
398,16	5,189
398,37	7,353
398,57	-0,890
398,78	5,819
398,99	8,789
399,19	8,429
399,40	12,942
399,60	2,388
399,81	8,926
400,02	10,971
400,22	9,311
400,43	10,545
400,64	5,350
400,84	3,587
401,05	9,606
401,25	9,328
401,46	5,097
401,67	9,803
401,87	5,812
402,08	4,208
402,29	8,956
402,49	12,692
402,70	8,867
402,90	5,975
403,11	8,226
403,32	2,300
403,52	4,358
403,73	5,790
403,93	12,786
404,14	15,095
404,35	8,085
404,55	3,530
404,76	8,958
404,96	8,348
405,17	13,013
405,38	14,276
405,58	6,984
405,79	11,988
405,99	15,337
406,20	9,004
406,40	6,213
406,61	10,015
406,82	10,527
407,02	9,980
407,23	6,827
407,43	9,710
407,64	5,286
407,85	9,195
408,05	5,354
408,26	18,745
408,46	15,921
408,67	11,500
408,87	10,663
409,08	5,937
409,29	19,313
409,49	12,837
409,70	10,850
409,90	10,199
410,11	12,989
410,31	14,567
410,52	11,891
410,72	9,979
410,93	12,245
411,14	11,820
411,34	8,084
411,55	11,184
411,75	14,402
411,96	11,375
412,16	12,236
412,37	8,512
412,57	16,367
412,78	17,512
412,99	9,755
413,19	13,482
413,40	10,803
413,60	10,321
413,81	11,038
414,01	9,916
414,22	10,716
414,42	11,344
414,63	9,987
414,83	12,324
415,04	17,145
415,24	16,346
415,45	14,970
415,65	14,172
415,86	15,757
416,07	12,188
416,27	16,120
416,48	17,843
416,68	22,438
416,89	8,476
417,09	17,890
417,30	20,862
417,50	9,401
417,71	17,838
417,91	16,118
418,12	15,196
418,32	14,436
418,53	8,889
418,73	14,785
418,94	13,170
419,14	16,646
419,35	12,724
419,55	16,241
419,76	17,995
419,96	18,050
420,17	14,419
420,37	11,332
420,58	18,809
420,78	18,776
420,99	14,140
421,19	19,096
421,40	23,664
421,60	20,950
421,81	14,675
422,01	16,568
422,22	18,625
422,42	16,334
422,63	18,250
422,83	17,443
423,04	22,577
423,24	24,848
423,45	17,243
423,65	15,121
423,86	21,983
424,06	21,821
424,27	14,830
424,47	15,399
424,67	14,795
424,88	18,703
425,08	17,234
425,29	22,132
425,49	13,724
425,70	15,581
425,90	14,959
426,11	17,911
426,31	18,588
426,52	20,457
426,72	18,093
426,93	15,484
427,13	19,183
427,33	14,508
427,54	21,193
427,74	18,334
427,95	24,107
428,15	18,425
428,36	17,997
428,56	15,255
428,77	16,995
428,97	18,916
429,18	17,413
429,38	18,164
429,58	19,412
429,79	21,862
429,99	18,040
430,20	18,092
430,40	23,112
430,61	16,156
430,81	17,820
431,01	20,507
431,22	22,387
431,42	20,175
431,63	13,491
431,83	18,950
432,04	21,297
432,24	19,840
432,44	18,797
432,65	18,259
432,85	18,517
433,06	22,095
433,26	18,312
433,47	16,843
433,67	17,956
433,87	17,989
434,08	18,336
434,28	14,863
434,49	20,799
434,69	30,405
434,89	22,235
435,10	16,188
435,30	21,555
435,51	17,811
435,71	16,663
435,91	16,705
436,12	17,459
436,32	17,650
436,53	17,039
436,73	16,767
436,93	22,463
437,14	19,740
437,34	21,718
437,55	17,656
437,75	21,263
437,95	20,734
438,16	16,588
438,36	19,100
438,57	18,997
438,77	17,540
438,97	20,216
439,18	21,449
439,38	17,621
439,58	15,444
439,79	20,619
439,99	13,458
440,20	25,792
440,40	26,596
440,60	17,680
440,81	19,575
441,01	20,113
441,21	23,182
441,42	21,164
441,62	21,901
441,83	20,424
442,03	18,846
442,23	22,370
442,44	18,536
442,64	21,426
442,84	17,026
443,05	22,116
443,25	18,572
443,45	22,509
443,66	21,428
443,86	19,399
444,06	23,213
444,27	20,082
444,47	26,673
444,67	21,553
444,88	23,451
445,08	21,060
445,28	19,107
445,49	22,908
445,69	22,685
445,90	22,345
446,10	26,756
446,30	19,253
446,51	20,482
446,71	25,138
446,91	22,166
447,12	27,382
447,32	19,270
447,52	19,878
447,72	25,098
447,93	18,661
448,13	18,160
448,33	25,323
448,54	24,748
448,74	17,961
448,94	20,848
449,15	25,388
449,35	20,520
449,55	26,313
449,76	21,636
449,96	21,372
450,16	23,417
450,37	17,788
450,57	24,233
450,77	20,977
450,98	19,788
451,18	23,300
451,38	23,411
451,58	23,108
451,79	19,337
451,99	21,645
452,19	22,696
452,40	31,220
452,60	16,040
452,80	25,055
453,00	24,920
453,21	17,786
453,41	23,876
453,61	20,220
453,82	23,126
454,02	19,554
454,22	34,968
454,42	22,407
454,63	20,860
454,83	19,017
455,03	26,384
455,24	20,105
455,44	22,965
455,64	18,688
455,84	20,264
456,05	18,383
456,25	17,540
456,45	19,288
456,65	17,893
456,86	24,336
457,06	22,396
457,26	26,885
457,47	26,243
457,67	22,918
457,87	16,027
458,07	21,887
458,28	22,961
458,48	28,207
458,68	15,751
458,88	24,756
459,09	18,776
459,29	29,323
459,49	16,045
459,69	22,406
459,90	23,863
460,10	20,182
460,30	22,044
460,50	19,247
460,71	23,011
460,91	18,219
461,11	25,412
461,31	23,478
461,52	26,189
461,72	23,505
461,92	20,316
462,12	26,496
462,32	16,173
462,53	22,332
462,73	20,211
462,93	21,822
463,13	26,761
463,34	21,314
463,54	24,160
463,74	22,259
463,94	19,336
464,14	25,360
464,35	19,880
464,55	23,080
464,75	30,199
464,95	22,282
465,16	18,791
465,36	30,367
465,56	19,644
465,76	18,257
465,96	23,160
466,17	23,320
466,37	19,623
466,57	25,862
466,77	22,940
466,97	20,239
467,18	25,515
467,38	23,838
467,58	29,904
467,78	28,207
467,98	21,369
468,19	21,828
468,39	25,574
468,59	21,560
468,79	22,875
468,99	19,989
469,19	21,244
469,40	19,403
469,60	20,021
469,80	19,152
470,00	22,801
470,20	27,218
470,41	19,978
470,61	23,305
470,81	25,627
471,01	19,953
471,21	25,075
471,41	24,059
471,62	21,610
471,82	19,636
472,02	19,581
472,22	21,178
472,42	20,676
472,62	26,408
472,83	17,889
473,03	25,260
473,23	22,689
473,43	27,272
473,63	24,026
473,83	21,386
474,03	23,525
474,24	26,959
474,44	20,712
474,64	22,485
474,84	18,132
475,04	18,768
475,24	24,771
475,45	21,621
475,65	21,273
475,85	24,954
476,05	17,010
476,25	21,429
476,45	26,554
476,65	23,756
476,85	20,290
477,06	22,135
477,26	18,750
477,46	21,487
477,66	21,961
477,86	22,956
478,06	22,884
478,26	30,463
478,46	21,425
478,67	25,976
478,87	21,954
479,07	21,856
479,27	24,091
479,47	21,066
479,67	16,926
479,87	20,083
480,07	24,892
480,28	20,578
480,48	20,613
480,68	23,912
480,88	27,738
481,08	27,582
481,28	23,945
481,48	22,215
481,68	22,672
481,88	18,111
482,08	20,853
482,29	24,577
482,49	18,528
482,69	21,473
482,89	19,562
483,09	27,311
483,29	18,510
483,49	16,253
483,69	22,813
483,89	21,378
484,09	17,946
484,29	18,900
484,50	22,199
484,70	23,255
484,90	20,933
485,10	23,345
485,30	22,309
485,50	25,916
485,70	23,514
485,90	18,486
486,10	18,409
486,30	19,064
486,50	20,407
486,70	18,369
486,90	20,385
487,10	24,460
487,30	21,422
487,51	20,189
487,71	17,400
487,91	20,780
488,11	24,033
488,31	17,751
488,51	20,830
488,71	19,331
488,91	21,244
489,11	20,144
489,31	20,965
489,51	21,039
489,71	20,261
489,91	21,868
490,11	22,350
490,31	22,671
490,51	22,910
490,71	23,863
490,91	19,753
491,11	20,836
491,31	24,003
491,51	23,376
491,72	20,870
491,92	21,480
492,12	25,937
492,32	21,643
492,52	23,530
492,72	19,677
492,92	21,476
493,12	24,172
493,32	17,712
493,52	20,687
493,72	21,647
493,92	21,257
494,12	19,666
494,32	22,379
494,52	21,226
494,72	21,522
494,92	20,050
495,12	24,706
495,32	25,793
495,52	22,378
495,72	20,797
495,92	22,896
496,12	24,016
496,32	23,323
496,52	19,884
496,72	24,236
496,92	23,120
497,12	21,880
497,32	24,428
497,52	22,639
497,72	23,648
497,92	21,761
498,12	20,994
498,32	21,909
498,52	20,672
498,72	19,365
498,92	19,302
499,12	23,531
499,32	18,476
499,52	23,408
499,72	21,975
499,92	25,891
500,12	21,544
500,32	21,296
500,52	22,180
500,72	26,152
500,91	25,084
501,11	23,829
501,31	21,259
501,51	23,331
501,71	23,230
501,91	21,585
502,11	20,368
502,31	24,083
502,51	23,335
502,71	23,140
502,91	19,120
503,11	23,940
503,31	24,312
503,51	16,916
503,71	20,533
503,91	23,911
504,11	20,667
504,31	21,799
504,51	20,969
504,71	26,100
504,91	19,133
505,10	23,512
505,30	21,255
505,50	22,575
505,70	22,871
505,90	21,299
506,10	19,314
506,30	22,734
506,50	23,767
506,70	23,922
506,90	23,509
507,10	21,538
507,30	20,231
507,50	20,064
507,70	22,684
507,89	24,806
508,09	21,606
508,29	19,797
508,49	20,719
508,69	21,305
508,89	20,316
509,09	21,533
509,29	21,141
509,49	22,865
509,69	24,052
509,89	23,927
510,09	23,142
510,28	22,981
510,48	20,320
510,68	20,557
510,88	22,609
511,08	23,187
511,28	20,003
511,48	21,348
511,68	17,143
511,88	26,209
512,07	21,086
512,27	20,469
512,47	20,503
512,67	19,519
512,87	18,319
513,07	22,900
513,27	18,932
513,47	20,545
513,67	18,537
513,86	22,223
514,06	23,588
514,26	21,049
514,46	24,489
514,66	19,393
514,86	22,819
515,06	27,841
515,26	23,780
515,45	19,511
515,65	20,718
515,85	20,525
516,05	19,666
516,25	20,357
516,45	23,013
516,65	18,616
516,84	20,881
517,04	22,456
517,24	20,655
517,44	23,648
517,64	24,142
517,84	24,822
518,04	23,081
518,23	24,361
518,43	25,746
518,63	22,405
518,83	18,722
519,03	23,066
519,23	20,996
519,42	23,034
519,62	22,814
519,82	21,060
520,02	21,562
520,22	23,474
520,42	19,585
520,61	23,304
520,81	20,885
521,01	24,873
521,21	21,463
521,41	20,058
521,61	23,942
521,80	20,010
522,00	21,442
522,20	25,717
522,40	21,878
522,60	21,331
522,79	21,420
522,99	25,351
523,19	18,858
523,39	21,704
523,59	20,411
523,78	22,528
523,98	19,342
524,18	24,546
524,38	17,309
524,58	20,827
524,77	22,856
524,97	22,675
525,17	19,179
525,37	21,335
525,57	27,592
525,76	23,018
525,96	24,829
526,16	19,838
526,36	21,592
526,56	21,530
526,75	22,716
526,95	22,906
527,15	19,491
527,35	22,107
527,55	18,138
527,74	18,749
527,94	21,251
528,14	18,626
528,34	23,902
528,53	19,948
528,73	26,333
528,93	22,933
529,13	19,535
529,32	21,698
529,52	22,358
529,72	21,239
529,92	22,069
530,12	19,734
530,31	22,552
530,51	24,154
530,71	19,939
530,91	26,836
531,10	17,313
531,30	22,360
531,50	20,191
531,70	21,666
531,89	24,384
532,09	20,242
532,29	22,185
532,49	21,500
532,68	23,427
532,88	20,634
533,08	21,204
533,28	20,392
533,47	23,467
533,67	23,037
533,87	21,624
534,06	28,600
534,26	20,674
534,46	19,977
534,66	21,703
534,85	22,221
535,05	18,388
535,25	17,203
535,45	20,246
535,64	24,019
535,84	23,947
536,04	18,331
536,23	22,816
536,43	24,619
536,63	21,748
536,83	21,455
537,02	21,283
537,22	18,872
537,42	20,974
537,61	23,017
537,81	20,749
538,01	22,206
538,20	21,597
538,40	20,847
538,60	20,235
538,80	22,132
538,99	22,311
539,19	22,487
539,39	20,691
539,58	23,598
539,78	21,152
539,98	20,522
540,17	20,352
540,37	24,649
540,57	20,413
540,76	23,125
540,96	18,220
541,16	20,718
541,36	22,589
541,55	19,788
541,75	18,321
541,95	22,929
542,14	16,991
542,34	17,602
542,54	16,084
542,73	23,303
542,93	17,629
543,13	18,709
543,32	17,487
543,52	18,898
543,72	17,267
543,91	21,268
544,11	18,428
544,31	13,894
544,50	18,099
544,70	21,356
544,89	20,280
545,09	21,295
545,29	20,047
545,48	20,056
545,68	18,234
545,88	21,211
546,07	17,490
546,27	17,660
546,47	21,874
546,66	19,520
546,86	20,131
547,06	20,493
547,25	19,393
547,45	20,724
547,64	21,410
547,84	23,011
548,04	21,579
548,23	24,999
548,43	22,410
548,63	21,330
548,82	21,792
549,02	21,834
549,21	20,033
549,41	19,772
549,61	22,357
549,80	18,664
550,00	21,667
550,20	19,562
550,39	21,489
550,59	20,863
550,78	21,926
550,98	21,068
551,18	22,465
551,37	21,921
551,57	20,843
551,76	22,371
551,96	19,918
552,16	19,814
552,35	21,387
552,55	20,120
552,74	20,838
552,94	23,309
553,14	18,881
553,33	22,396
553,53	21,417
553,72	20,302
553,92	22,940
554,12	20,298
554,31	23,507
554,51	20,956
554,70	18,126
554,90	20,540
555,09	24,704
555,29	18,276
555,49	21,460
555,68	24,502
555,88	20,132
556,07	20,583
556,27	25,400
556,46	20,559
556,66	18,448
556,86	26,921
557,05	22,284
557,25	17,960
557,44	20,741
557,64	19,243
557,83	21,261
558,03	22,374
558,22	19,632
558,42	20,719
558,62	20,664
558,81	23,520
559,01	21,343
559,20	23,544
559,40	19,416
559,59	21,588
559,79	19,045
559,98	20,353
560,18	21,116
560,37	22,251
560,57	22,484
560,76	19,991
560,96	17,729
561,16	20,382
561,35	19,710
561,55	22,759
561,74	22,206
561,94	22,401
562,13	20,288
562,33	23,389
562,52	22,687
562,72	20,086
562,91	21,637
563,11	19,353
563,30	22,439
563,50	20,937
563,69	19,908
563,89	17,913
564,08	21,434
564,28	20,262
564,47	23,253
564,67	19,819
564,86	19,962
565,06	19,701
565,25	19,090
565,45	20,385
565,64	25,083
565,84	21,213
566,03	18,979
566,23	21,517
566,42	20,486
566,62	20,420
566,81	19,920
567,01	18,433
567,20	21,629
567,40	20,447
567,59	18,719
567,79	25,063
567,98	24,064
568,18	18,752
568,37	22,823
568,57	21,043
568,76	21,919
568,96	23,028
569,15	18,996
569,35	21,533
569,54	24,358
569,73	21,561
569,93	19,981
570,12	20,612
570,32	22,782
570,51	21,112
570,71	22,376
570,90	22,102
571,10	20,687
571,29	20,697
571,49	19,998
571,68	22,668
571,87	24,088
572,07	22,282
572,26	16,866
572,46	20,293
572,65	20,709
572,85	20,052
573,04	22,692
573,24	18,952
573,43	23,453
573,62	21,910
573,82	21,270
574,01	21,073
574,21	19,592
574,40	20,055
574,60	18,242
574,79	24,389
574,98	20,255
575,18	21,256
575,37	17,826
575,57	19,969
575,76	20,912
575,96	21,156
576,15	21,816
576,34	20,865
576,54	20,193
576,73	21,032
576,93	21,106
577,12	22,176
577,31	21,205
577,51	19,104
577,70	21,430
577,90	20,837
578,09	21,009
578,28	19,586
578,48	20,686
578,67	21,385
578,87	21,431
579,06	20,562
579,25	21,592
579,45	22,335
579,64	18,856
579,84	19,248
580,03	21,219
580,22	22,282
580,42	19,746
580,61	21,881
580,81	20,534
581,00	20,599
581,19	23,549
581,39	19,788
581,58	20,052
581,77	19,908
581,97	23,070
582,16	20,017
582,35	18,996
582,55	19,778
582,74	22,248
582,94	22,245
583,13	20,555
583,32	20,009
583,52	21,994
583,71	21,088
583,90	20,711
584,10	21,346
584,29	22,581
584,48	19,760
584,68	20,368
584,87	23,300
585,06	20,772
585,26	19,354
585,45	20,507
585,65	22,431
585,84	21,228
586,03	20,390
586,23	19,260
586,42	20,937
586,61	24,851
586,81	22,103
587,00	19,016
587,19	21,166
587,39	24,361
587,58	20,977
587,77	19,302
587,97	19,721
588,16	21,324
588,35	19,316
588,54	21,331
588,74	21,232
588,93	23,020
589,12	20,949
589,32	20,517
589,51	20,446
589,70	20,742
589,90	17,707
590,09	18,861
590,28	22,009
590,48	19,770
590,67	21,482
590,86	20,670
591,06	21,269
591,25	22,233
591,44	22,718
591,63	21,323
591,83	20,870
592,02	21,570
592,21	21,042
592,41	20,547
592,60	23,073
592,79	21,755
592,98	22,660
593,18	19,232
593,37	20,346
593,56	21,384
593,76	21,652
593,95	19,764
594,14	19,516
594,33	21,849
594,53	21,695
594,72	19,809
594,91	21,742
595,10	21,710
595,30	20,779
595,49	21,146
595,68	23,361
595,88	23,347
596,07	21,032
596,26	23,375
596,45	20,345
596,65	18,592
596,84	20,889
597,03	23,060
597,22	20,535
597,42	23,110
597,61	21,082
597,80	22,498
597,99	19,712
598,19	21,443
598,38	20,825
598,57	20,415
598,76	23,524
598,95	22,761
599,15	22,145
599,34	19,830
599,53	19,901
599,72	20,855
599,92	22,084
600,11	22,754
600,30	22,524
600,49	24,184
600,69	21,356
600,88	20,737
601,07	20,467
601,26	19,332
601,45	20,137
601,65	19,653
601,84	21,195
602,03	20,939
602,22	21,403
602,42	23,555
602,61	19,887
602,80	21,353
602,99	19,906
603,18	19,799
603,38	23,386
603,57	19,966
603,76	19,452
603,95	19,264
604,14	23,079
604,34	19,986
604,53	19,148
604,72	22,010
604,91	21,955
605,10	21,977
605,29	22,991
605,49	19,324
605,68	20,981
605,87	24,039
606,06	20,428
606,25	21,292
606,45	22,310
606,64	20,923
606,83	22,871
607,02	19,754
607,21	22,472
607,40	20,751
607,60	19,962
607,79	20,071
607,98	20,818
608,17	21,898
608,36	21,152
608,55	21,384
608,75	22,298
608,94	22,617
609,13	20,816
609,32	19,687
609,51	23,038
609,70	23,263
609,89	21,830
610,09	20,484
610,28	21,007
610,47	21,616
610,66	22,171
610,85	19,174
611,04	24,366
611,23	20,201
611,43	18,426
611,62	20,932
611,81	20,147
612,00	22,332
612,19	20,239
612,38	21,795
612,57	22,075
612,77	22,008
612,96	21,393
613,15	20,557
613,34	22,260
613,53	22,118
613,72	21,243
613,91	19,809
614,10	20,808
614,29	22,608
614,49	19,916
614,68	19,980
614,87	21,480
615,06	24,469
615,25	20,441
615,44	22,311
615,63	20,997
615,82	19,501
616,01	22,115
616,21	19,225
616,40	21,576
616,59	23,113
616,78	21,888
616,97	20,903
617,16	21,456
617,35	22,088
617,54	22,014
617,73	22,545
617,92	21,691
618,11	21,216
618,31	20,750
618,50	22,501
618,69	20,601
618,88	22,272
619,07	16,593
619,26	19,426
619,45	20,197
619,64	18,749
619,83	19,879
620,02	21,208
620,21	23,081
620,40	21,739
620,59	22,454
620,78	20,164
620,97	21,524
621,17	23,274
621,36	20,911
621,55	19,394
621,74	22,000
621,93	22,048
622,12	20,907
622,31	20,722
622,50	20,963
622,69	23,477
622,88	22,151
623,07	23,158
623,26	21,573
623,45	23,099
623,64	20,795
623,83	20,010
624,02	22,249
624,21	21,556
624,40	20,453
624,59	19,251
624,78	21,087
624,97	23,340
625,16	18,628
625,35	18,809
625,54	20,084
625,73	20,873
625,92	22,270
626,12	22,578
626,31	22,224
626,50	22,370
626,69	20,909
626,88	21,728
627,07	21,531
627,26	21,831
627,45	22,487
627,64	19,520
627,83	21,944
628,02	19,552
628,21	19,959
628,40	20,560
628,59	22,971
628,78	19,148
628,97	22,471
629,16	20,090
629,35	21,318
629,54	21,651
629,73	23,473
629,92	19,550
630,10	22,509
630,29	22,516
630,48	19,093
630,67	20,344
630,86	21,776
631,05	21,111
631,24	21,753
631,43	19,964
631,62	21,164
631,81	19,661
632,00	21,200
632,19	19,049
632,38	21,839
632,57	21,263
632,76	19,539
632,95	21,402
633,14	22,098
633,33	23,272
633,52	20,486
633,71	21,034
633,90	18,746
634,09	20,413
634,28	20,244
634,47	20,112
634,66	20,698
634,85	20,538
635,04	22,545
635,22	19,706
635,41	19,891
635,60	23,139
635,79	21,660
635,98	20,211
636,17	20,545
636,36	18,009
636,55	18,259
636,74	19,505
636,93	20,778
637,12	18,890
637,31	18,778
637,50	20,518
637,69	20,793
637,87	20,470
638,06	19,479
638,25	19,857
638,44	19,175
638,63	19,067
638,82	19,577
639,01	19,979
639,20	19,580
639,39	21,658
639,58	20,016
639,77	19,976
639,95	19,426
640,14	21,549
640,33	20,579
640,52	19,987
640,71	22,834
640,90	19,032
641,09	22,087
641,28	19,841
641,47	22,171
641,66	21,314
641,84	22,571
642,03	17,035
642,22	20,924
642,41	24,172
642,60	20,410
642,79	21,235
642,98	21,003
643,17	21,024
643,35	18,618
643,54	19,571
643,73	19,816
643,92	20,645
644,11	20,635
644,30	19,449
644,49	20,916
644,67	20,670
644,86	20,890
645,05	20,988
645,24	19,229
645,43	18,422
645,62	21,519
645,81	17,783
645,99	18,886
646,18	22,624
646,37	21,382
646,56	20,572
646,75	20,695
646,94	22,151
647,13	18,915
647,31	21,083
647,50	18,743
647,69	21,921
647,88	20,895
648,07	21,024
648,26	24,949
648,44	19,405
648,63	21,770
648,82	19,684
649,01	21,967
649,20	18,927
649,38	21,055
649,57	21,317
649,76	19,909
649,95	20,378
650,14	19,904
650,33	20,944
650,51	20,308
650,70	21,246
650,89	21,432
651,08	20,624
651,27	21,693
651,45	20,966
651,64	19,575
651,83	19,842
652,02	20,050
652,21	21,143
652,39	21,903
652,58	22,293
652,77	23,630
652,96	20,797
653,15	21,885
653,33	21,136
653,52	21,283
653,71	22,560
653,90	22,658
654,09	20,917
654,27	20,418
654,46	22,174
654,65	20,924
654,84	20,917
655,02	21,678
655,21	20,950
655,40	22,709
655,59	20,943
655,77	21,912
655,96	20,599
656,15	21,801
656,34	22,089
656,53	21,931
656,71	21,261
656,90	21,844
657,09	21,349
657,28	22,523
657,46	19,387
657,65	19,651
657,84	20,141
658,03	20,534
658,21	21,159
658,40	19,077
658,59	19,687
658,78	20,392
658,96	20,274
659,15	22,132
659,34	20,697
659,52	21,314
659,71	20,857
659,90	19,867
660,09	20,673
660,27	21,781
660,46	22,981
660,65	22,049
660,84	20,333
661,02	19,871
661,21	21,528
661,40	22,762
661,58	20,885
661,77	20,950
661,96	18,689
662,15	21,005
662,33	21,533
662,52	20,767
662,71	21,537
662,89	18,967
663,08	20,870
663,27	22,569
663,45	19,921
663,64	21,013
663,83	19,527
664,02	18,434
664,20	21,492
664,39	19,328
664,58	20,024
664,76	20,308
664,95	20,896
665,14	21,318
665,32	20,253
665,51	20,850
665,70	20,476
665,88	21,458
666,07	20,265
666,26	22,365
666,44	22,355
666,63	17,558
666,82	18,876
667,00	20,294
667,19	19,331
667,38	20,656
667,56	20,791
667,75	22,171
667,94	21,981
668,12	20,849
668,31	22,312
668,50	22,047
668,68	23,139
668,87	19,674
669,06	21,322
669,24	21,999
669,43	20,885
669,62	20,926
669,80	18,889
669,99	19,924
670,18	19,560
670,36	19,615
670,55	22,485
670,74	19,169
670,92	18,200
671,11	22,776
671,29	18,441
671,48	20,195
671,67	20,143
671,85	22,177
672,04	20,461
672,23	19,737
672,41	19,663
672,60	20,564
672,78	19,920
672,97	20,474
673,16	21,281
673,34	22,443
673,53	19,194
673,71	20,245
673,90	20,793
674,09	20,426
674,27	21,427
674,46	20,339
674,64	20,004
674,83	21,564
675,02	18,773
675,20	21,401
675,39	20,037
675,57	19,321
675,76	20,764
675,95	23,467
676,13	20,729
676,32	20,545
676,50	19,291
676,69	17,940
676,88	20,971
677,06	18,384
677,25	20,502
677,43	21,510
677,62	22,193
677,80	20,372
677,99	20,298
678,18	21,870
678,36	23,223
678,55	18,567
678,73	18,250
678,92	20,936
679,10	20,856
679,29	20,306
679,48	18,042
679,66	21,507
679,85	20,081
680,03	20,607
680,22	20,348
680,40	18,796
680,59	21,055
680,77	20,569
680,96	20,196
681,15	20,322
681,33	22,569
681,52	20,247
681,70	19,413
681,89	23,584
682,07	19,749
682,26	19,346
682,44	21,463
682,63	20,767
682,81	21,611
683,00	19,919
683,18	18,243
683,37	19,652
683,55	20,414
683,74	21,367
683,92	25,400
684,11	20,879
684,29	19,884
684,48	19,372
684,67	20,474
684,85	20,478
685,04	21,035
685,22	19,796
685,41	19,944
685,59	21,128
685,78	18,731
685,96	19,798
686,15	18,700
686,33	19,295
686,52	20,527
686,70	19,190
686,89	20,296
687,07	19,706
687,26	20,131
687,44	20,834
687,62	19,455
687,81	21,254
687,99	20,934
688,18	21,552
688,36	21,266
688,55	22,685
688,73	20,187
688,92	19,320
689,10	19,842
689,29	20,562
689,47	22,154
689,66	18,710
689,84	19,956
690,03	25,021
690,21	19,301
690,40	19,276
690,58	19,578
690,76	19,323
690,95	20,802
691,13	17,557
691,32	20,475
691,50	20,187
691,69	21,797
691,87	21,048
692,06	20,610
692,24	19,499
692,43	20,704
692,61	20,562
692,79	19,728
692,98	18,977
693,16	21,198
693,35	18,994
693,53	21,381
693,72	20,073
693,90	23,098
694,08	19,477
694,27	20,445
694,45	21,302
694,64	22,481
694,82	19,712
695,01	20,522
695,19	19,322
695,37	20,567
695,56	20,814
695,74	20,893
695,93	21,836
696,11	19,413
696,29	20,729
696,48	22,298
696,66	21,390
696,85	18,390
697,03	19,318
697,21	20,529
697,40	22,793
697,58	20,277
697,77	21,329
697,95	19,979
698,13	19,227
698,32	20,189
698,50	19,890
698,69	19,212
698,87	21,311
699,05	22,877
699,24	18,982
699,42	20,950
699,60	17,486
699,79	19,520
699,97	18,944
700,16	18,812
700,34	23,995
700,52	20,085
700,71	19,671
700,89	18,720
701,07	18,501
701,26	20,517
701,44	18,777
701,63	20,531
701,81	20,787
701,99	20,878
702,18	18,739
702,36	20,483
702,54	21,942
702,73	20,496
702,91	19,260
703,09	18,011
703,28	18,322
703,46	19,721
703,64	21,558
703,83	20,550
704,01	20,028
704,19	19,947
704,38	18,785
704,56	19,957
704,74	20,234
704,93	18,962
705,11	20,191
705,29	19,984
705,48	23,429
705,66	19,289
705,84	21,766
706,03	19,319
706,21	19,199
706,39	19,853
706,58	19,537
706,76	19,954
706,94	19,870
707,12	20,750
707,31	19,313
707,49	19,748
707,67	19,432
707,86	23,515
708,04	20,541
708,22	19,826
708,41	21,135
708,59	19,956
708,77	20,906
708,95	20,454
709,14	21,702
709,32	21,340
709,50	18,959
709,69	21,478
709,87	19,411
710,05	18,403
710,23	18,748
710,42	19,594
710,60	20,985
710,78	21,952
710,97	19,630
711,15	20,338
711,33	20,171
711,51	19,794
711,70	18,819
711,88	20,039
712,06	21,385
712,24	21,726
712,43	21,490
712,61	19,244
712,79	19,127
712,97	20,058
713,16	21,501
713,34	17,994
713,52	22,855
713,70	20,448
713,89	18,809
714,07	20,114
714,25	19,294
714,43	21,585
714,62	18,954
714,80	17,654
714,98	17,257
715,16	18,294
715,35	18,352
715,53	19,413
715,71	22,177
715,89	21,609
716,07	20,235
716,26	20,189
716,44	21,629
716,62	20,373
716,80	19,646
716,99	19,369
717,17	22,352
717,35	20,086
717,53	18,644
717,71	19,353
717,90	21,151
718,08	21,860
718,26	20,295
718,44	20,879
718,62	22,417
718,81	21,285
718,99	18,388
719,17	19,917
719,35	19,907
719,53	19,183
719,72	18,203
719,90	19,148
720,08	20,707
720,26	21,971
720,44	18,735
720,62	19,184
720,81	21,748
720,99	20,300
721,17	19,706
721,35	21,661
721,53	16,997
721,72	22,345
721,90	20,203
722,08	19,261
722,26	20,872
722,44	20,002
722,62	18,115
722,81	19,504
722,99	19,283
723,17	20,746
723,35	20,711
723,53	20,407
723,71	21,346
723,89	23,873
724,08	21,043
724,26	20,093
724,44	21,857
724,62	21,701
724,80	17,803
724,98	19,887
725,16	22,326
725,35	20,613
725,53	20,052
725,71	20,049
725,89	19,328
726,07	24,292
726,25	23,370
726,43	19,534
726,61	21,017
726,80	19,883
726,98	19,955
727,16	18,087
727,34	20,958
727,52	19,986
727,70	19,573
727,88	19,291
728,06	16,250
728,25	18,343
728,43	19,502
728,61	19,280
728,79	19,483
728,97	21,756
729,15	20,790
729,33	22,696
729,51	21,524
729,69	20,813
729,87	20,194
730,06	21,108
730,24	22,304
730,42	22,070
730,60	20,037
730,78	21,155
730,96	21,040
731,14	21,201
731,32	19,984
731,50	19,153
731,68	17,409
731,86	22,154
732,04	19,770
732,22	19,768
732,41	27,849
732,59	19,997
732,77	21,422
732,95	20,177
733,13	21,646
733,31	19,356
733,49	19,126
733,67	21,085
733,85	22,513
734,03	18,709
734,21	19,177
734,39	21,025
734,57	21,177
734,75	21,672
734,93	19,896
735,11	21,573
735,29	17,780
735,47	21,033
735,65	20,356
735,84	18,876
736,02	18,983
736,20	23,521
736,38	18,815
736,56	20,959
736,74	19,980
736,92	20,209
737,10	19,526
737,28	21,879
737,46	18,765
737,64	20,814
737,82	19,378
738,00	22,081
738,18	22,047
738,36	22,209
738,54	20,679
738,72	20,483
738,90	21,360
739,08	20,440
739,26	19,567
739,44	21,182
739,62	23,419
739,80	21,409
739,98	19,535
740,16	20,831
740,34	19,519
740,52	23,025
740,70	19,016
740,88	19,634
741,06	20,549
741,24	20,477
741,42	19,830
741,60	19,682
741,78	21,228
741,96	19,365
742,14	20,399
742,32	20,599
742,50	19,369
742,68	21,594
742,86	20,881
743,04	18,262
743,21	22,528
743,39	20,693
743,57	21,046
743,75	21,636
743,93	19,250
744,11	17,293
744,29	20,975
744,47	19,284
744,65	21,484
744,83	18,413
745,01	18,815
745,19	19,020
745,37	25,593
745,55	20,620
745,73	22,369
745,91	18,058
746,09	19,374
746,27	19,307
746,45	20,358
746,62	19,808
746,80	18,233
746,98	19,099
747,16	16,687
747,34	19,132
747,52	18,897
747,70	21,901
747,88	20,320
748,06	21,226
748,24	20,271
748,42	22,656
748,60	19,862
748,78	17,614
748,95	24,907
749,13	24,610
749,31	19,489
749,49	21,009
749,67	21,378
749,85	21,283
750,03	21,058
750,21	20,103
750,39	21,285
750,57	21,058
750,74	22,154
750,92	19,645
751,10	21,190
751,28	16,726
751,46	21,998
751,64	21,638
751,82	21,530
752,00	20,786
752,17	21,950
752,35	21,850
752,53	22,016
752,71	19,216
752,89	19,756
753,07	19,566
753,25	20,353
753,43	17,861
753,60	21,787
753,78	21,960
753,96	20,819
754,14	22,390
754,32	22,268
754,50	20,997
754,68	22,348
754,85	18,197
755,03	20,799
755,21	22,420
755,39	23,971
755,57	22,287
755,75	21,429
755,92	21,112
756,10	20,871
756,28	20,566
756,46	20,322
756,64	20,020
756,82	22,053
756,99	19,340
757,17	18,465
757,35	18,818
757,53	24,697
757,71	24,473
757,89	18,558
758,06	21,481
758,24	21,254
758,42	22,428
758,60	17,457
758,78	20,732
758,95	21,869
759,13	21,217
759,31	21,188
759,49	19,364
759,67	20,384
759,84	18,652
760,02	23,005
760,20	18,519
760,38	21,245
760,56	18,432
760,73	19,993
760,91	19,017
761,09	23,090
761,27	19,398
761,45	19,577
761,62	17,997
761,80	18,892
761,98	21,156
762,16	22,020
762,33	18,428
762,51	20,329
762,69	18,461
762,87	19,039
763,05	21,778
763,22	20,411
763,40	19,396
763,58	20,548
763,76	19,324
763,93	22,332
764,11	23,430
764,29	21,778
764,47	21,977
764,64	23,603
764,82	22,580
765,00	21,471
765,18	17,919
765,35	20,342
765,53	18,363
765,71	21,964
765,89	20,098
766,06	19,047
766,24	20,703
766,42	20,002
766,60	17,968
766,77	20,129
766,95	20,570
767,13	20,966
767,30	18,801
767,48	18,835
767,66	18,243
767,84	19,258
768,01	19,337
768,19	21,419
768,37	19,324
768,54	18,831
768,72	20,478
768,90	18,715
769,08	18,919
769,25	19,697
769,43	19,867
769,61	18,516
769,78	21,919
769,96	19,632
770,14	21,623
770,31	23,286
770,49	23,826
770,67	19,150
770,85	19,944
771,02	20,770
771,20	19,874
771,38	20,879
771,55	21,367
771,73	16,802
771,91	21,527
772,08	20,879
772,26	18,110
772,44	21,209
772,61	20,398
772,79	19,090
772,97	17,872
773,14	18,657
773,32	21,794
773,50	19,271
773,67	20,672
773,85	22,026
774,03	24,273
774,20	19,754
774,38	19,845
774,56	20,787
774,73	17,516
774,91	18,702
775,09	18,416
775,26	21,262
775,44	21,710
775,61	20,038
775,79	18,213
775,97	22,399
776,14	18,382
776,32	20,345
776,50	20,032
776,67	20,547
776,85	21,748
777,03	17,935
777,20	20,886
777,38	22,925
777,55	22,579
777,73	19,317
777,91	18,671
778,08	18,838
778,26	18,800
778,43	21,240
778,61	18,356
778,79	19,337
778,96	20,675
779,14	19,873
779,32	18,475
779,49	17,713
779,67	24,095
779,84	21,786
780,02	21,121
780,20	19,848
780,37	22,233
780,55	16,002
780,72	19,990
780,90	18,978
781,07	20,811
781,25	23,169
781,43	21,445
781,60	20,348
781,78	20,807
781,95	22,663
782,13	20,105
782,30	21,050
782,48	20,641
782,66	19,233
782,83	19,997
783,01	28,601
783,18	22,136
783,36	22,300
783,53	21,927
783,71	18,183
783,89	20,521
784,06	21,577
784,24	18,597
784,41	19,397
784,59	19,051
784,76	24,689
784,94	19,137
785,11	21,552
785,29	22,839
785,46	21,176
785,64	18,538
785,82	21,594
785,99	22,458
786,17	23,808
786,34	18,071
786,52	23,476
786,69	22,422
786,87	20,891
787,04	19,090
787,22	17,102
787,39	21,412
787,57	22,039
787,74	18,288
787,92	25,657
788,09	22,210
788,27	22,429
788,44	19,863
788,62	24,085
788,79	18,738
788,97	19,867
789,14	21,046
789,32	18,858
789,49	20,369
789,67	22,001
789,84	18,555
790,02	24,050
790,19	16,629
790,37	21,429
790,54	18,860
790,72	25,803
790,89	22,740
791,07	25,562
791,24	17,820
791,42	23,757
791,59	24,951
791,77	20,085
791,94	21,704
792,12	20,707
792,29	23,776
792,47	21,555
792,64	22,488
792,81	23,539
792,99	20,684
793,16	19,777
793,34	20,340
793,51	20,911
793,69	22,511
793,86	20,219
794,04	22,493
794,21	24,003
794,39	20,186
794,56	20,339
794,73	24,299
794,91	25,130
795,08	21,572
795,26	20,225
795,43	18,253
795,61	25,268
795,78	19,833
795,95	22,696
796,13	22,136
796,30	24,774
796,48	17,662
796,65	18,251
796,83	23,907
797,00	22,406
797,17	20,023
797,35	19,890
797,52	21,472
797,70	21,927
797,87	24,436
798,04	25,992
798,22	17,940
798,39	22,587
798,57	19,838
798,74	21,923
798,91	17,299
799,09	22,422
799,26	21,071
799,44	22,975
799,61	19,145
799,78	19,397
799,96	24,321
800,13	19,570
800,31	24,003
800,48	23,622
800,65	26,044
800,83	24,465
801,00	21,451
801,17	20,789
801,35	25,765
801,52	25,438
801,70	24,720
801,87	22,560
802,04	23,197
802,22	15,064
802,39	23,243
802,56	24,757
802,74	23,349
802,91	21,515
803,08	19,811
803,26	22,876
803,43	27,409
803,61	18,248
803,78	19,749
803,95	23,582
804,13	21,762
804,30	18,865
804,47	22,332
804,65	23,971
804,82	22,068
804,99	23,330
805,17	17,974
805,34	29,418
805,51	24,205
805,69	18,897
805,86	25,390
806,03	28,993
806,21	23,681
806,38	24,696
806,55	21,860
806,72	22,987
806,90	25,497
807,07	21,219
807,24	19,546
807,42	20,324
807,59	22,420
807,76	17,569
807,94	23,556
808,11	25,633
808,28	27,317
808,45	20,992
808,63	23,115
808,80	26,373
808,97	20,319
809,15	22,592
809,32	20,935
809,49	23,261
809,67	21,605
809,84	25,688
810,01	29,302
810,18	33,465
810,36	24,232
810,53	19,219
810,70	25,413
810,87	21,893
811,05	24,179
811,22	20,629
811,39	18,763
811,57	22,966
811,74	21,329
811,91	25,523
812,08	21,266
812,26	20,364
812,43	17,458
812,60	28,247
812,77	23,638
812,95	24,194
813,12	21,262
813,29	21,344
813,46	22,985
813,64	27,101
813,81	25,830
813,98	20,081
814,15	25,271
814,32	28,843
814,50	24,188
814,67	21,522
814,84	27,905
815,01	22,046
815,19	19,800
815,36	22,745
815,53	18,974
815,70	19,470
815,87	32,020
816,05	23,760
816,22	25,951
816,39	29,981
816,56	24,387
816,74	29,800
816,91	25,081
817,08	26,530
817,25	31,727
817,42	24,548
817,60	25,375
817,77	27,716
817,94	20,222
818,11	24,098
818,28	17,573
818,45	22,028
818,63	23,626
818,80	26,856
818,97	20,683
819,14	24,496
819,31	27,506
819,49	23,275
819,66	22,405
819,83	27,096
820,00	28,080
820,17	20,382
820,34	23,029
820,52	27,319
820,69	26,995
820,86	23,704
821,03	24,021
821,20	24,925
821,37	31,355
821,55	25,906
821,72	19,633
821,89	29,392
822,06	29,081
822,23	17,387
822,40	26,125
822,57	31,914
822,75	27,738
822,92	14,045
823,09	25,343
823,26	28,675
823,43	26,232
823,60	23,360
823,77	20,943
823,94	31,028
824,12	27,826
824,29	21,105
824,46	25,619
824,63	38,857
824,80	29,538
824,97	26,287
825,14	26,780
825,31	28,936
825,49	22,387
825,66	12,070
825,83	23,687
826,00	23,398
826,17	30,233
826,34	26,263
826,51	21,991
826,68	20,806
826,85	21,637
827,02	18,467
827,20	22,738
827,37	20,851
827,54	25,733
827,71	29,974
827,88	26,729
828,05	31,662
828,22	27,769
828,39	31,656
828,56	27,335
828,73	26,454
828,90	29,316
829,07	21,657
829,25	21,041
829,42	24,193
829,59	16,201
829,76	23,614
829,93	24,594
830,10	23,359
830,27	26,491
830,44	18,865
830,61	14,505
830,78	31,270
830,95	26,482
831,12	24,106
831,29	21,144
831,46	14,859
831,63	22,520
831,80	29,506
831,97	23,202
832,14	29,929
832,31	30,688
832,48	20,587
832,65	31,154
832,83	21,597
833,00	28,037
833,17	21,193
833,34	24,193
833,51	29,679
833,68	28,798
833,85	21,639
834,02	18,987
834,19	30,682
834,36	25,522
834,53	22,884
834,70	25,140
834,87	43,304
835,04	23,666
835,21	21,833
835,38	29,525
835,55	19,031
835,72	44,979
835,89	21,351
836,06	21,909
836,23	36,222
836,40	19,434
836,57	18,164
836,74	25,232
836,91	20,218
837,08	38,454
837,25	29,094
837,42	24,082
837,59	17,270
837,76	30,457
837,93	20,029
838,09	26,455
838,26	22,709
838,43	37,112
838,60	33,938
838,77	28,924
838,94	24,127
839,11	37,223
839,28	32,445
839,45	20,479
839,62	23,670
839,79	20,790
839,96	27,118
840,13	27,166
840,30	20,226
840,47	29,949
840,64	32,876
840,81	27,371
840,98	21,112
841,15	38,483
841,32	26,901
841,48	32,308
841,65	28,945
841,82	23,449
841,99	25,993
842,16	32,509
842,33	25,623
842,50	29,928
842,67	11,632
842,84	21,100
843,01	33,890
843,18	17,113
843,35	30,511
843,52	29,393
843,68	27,688
843,85	24,190
844,02	16,959
844,19	25,381
844,36	24,214
844,53	29,059
844,70	18,448
844,87	43,200
845,04	36,556
845,21	13,149
845,37	35,926
845,54	24,719
845,71	27,845
845,88	46,811
846,05	28,402
846,22	15,354
846,39	36,028
846,56	31,809
846,72	8,813
846,89	25,089
847,06	37,533
847,23	35,694
847,40	16,494
847,57	23,537
847,74	21,793
847,90	33,914
848,07	32,617
848,24	30,803
848,41	39,607
848,58	45,067
848,75	33,431
848,92	18,955
849,08	25,027
849,25	22,841
849,42	20,719
849,59	23,025
849,76	17,873
849,93	34,618
850,09	33,486
850,26	7,348
850,43	34,933
850,60	14,750
850,77	14,861
850,94	27,272
851,10	20,982
851,27	22,341
851,44	32,110
851,61	19,099
851,78	40,810
851,95	41,899
852,11	25,735
852,28	21,919
852,45	38,989
852,62	40,972
852,79	36,888
852,95	20,661
853,12	36,716
853,29	24,994
853,46	24,882
853,63	21,466
853,79	23,351
853,96	33,604
854,13	37,776
854,30	22,480
854,46	44,575
854,63	27,945
854,80	33,676
854,97	24,407
855,14	49,653
855,30	32,545
855,47	36,095
855,64	37,126
855,81	23,331
855,97	48,739
856,14	32,395
856,31	15,191
856,48	38,581
856,65	48,774
856,81	30,914
856,98	20,263
857,15	-2,490
857,32	43,756
857,48	22,579
857,65	43,740
857,82	43,540
857,99	26,483
858,15	47,643
858,32	33,204
858,49	22,174
858,65	55,953
858,82	23,726
858,99	28,012
859,16	38,374
859,32	41,450
859,49	34,441
859,66	43,471
859,83	38,650
859,99	24,525
860,16	28,057
860,33	28,004
860,49	45,390
860,66	29,306
860,83	27,492
861,00	33,629
861,16	48,692
861,33	45,894
861,50	14,698
861,66	42,152
861,83	55,291
862,00	27,796
862,16	24,870
862,33	45,118
862,50	65,019
862,67	36,053
862,83	27,655
863,00	39,282
863,17	51,486
863,33	31,878
863,50	21,311
863,67	43,217
863,83	53,593
864,00	47,555
864,17	33,353
864,33	16,274
864,50	30,433
864,67	50,351
864,83	29,652
865,00	32,873
865,17	21,362
865,33	38,719
865,50	31,441
865,67	30,808
865,83	39,299
866,00	54,272
866,17	41,758
866,33	50,774
866,50	26,131
866,66	34,367
866,83	32,164
867,00	45,763
867,16	59,831
867,33	81,855
867,50	44,558
867,66	36,195
867,83	35,459
868,00	28,887
868,16	25,847
868,33	47,013
868,49	19,997
868,66	65,256
868,83	44,571
868,99	64,423
869,16	81,929
869,32	54,562
869,49	38,344
869,66	22,086
869,82	65,492
869,99	41,646
870,15	28,835
870,32	45,985
870,49	98,534
870,65	70,046
870,82	51,408
870,98	51,417
871,15	72,315
871,32	54,454
871,48	33,244
871,65	34,528
871,81	37,601
871,98	12,336
872,15	27,059
872,31	20,032
872,48	70,973
872,64	50,481
872,81	53,710
872,97	39,201
873,14	91,070
873,31	52,010
873,47	44,451
873,64	65,168
873,80	86,098
873,97	95,750
874,13	50,293
874,30	30,892
874,46	66,683
874,63	50,165
874,80	38,137
874,96	56,464
875,13	72,785
875,29	49,765
875,46	64,556
875,62	20,412
875,79	79,482
875,95	43,335
876,12	6,749
876,28	16,369
876,45	111,537
876,61	28,891
876,78	25,427
876,94	25,498
877,11	77,417
877,27	126,241
877,44	65,658
877,60	34,815
877,77	71,528
877,94	149,392
878,10	45,844
878,27	51,993
878,43	96,280
878,60	47,457
878,76	48,369
878,93	84,780
879,09	21,512
879,26	103,792
879,42	53,896
879,58	16,671
879,75	90,294
879,91	99,738
880,08	34,924
880,24	27,608
880,41	12,315
880,57	63,077
880,74	136,611
880,90	60,486
881,07	105,217
881,23	112,550
881,40	77,029
881,56	57,215
881,73	124,422
881,89	90,770
882,06	47,306
882,22	114,459
882,38	93,913
882,55	130,808
882,71	107,106
882,88	38,935
883,04	80,027
883,21	89,830
883,37	149,160
883,54	61,363
883,70	216,353
883,86	123,746
884,03	113,265
884,19	71,613
884,36	124,690
884,52	142,568
884,69	130,089
884,85	2,312
885,01	63,896
885,18	131,395
885,34	53,245
885,51	26,275
885,67	68,224
>>>>> Data<<<<< Espectral Procesado Extremo
