Fichero De Datos De SpectraSuite
++++++++++++++++++++++++++++++++++++
Fecha: Wed Apr 22 08:48:23 CEST 2009
Usuario: evoflor
Presente Oscuro Del Espectro: Sí
La Referencia de Presente Del Espectro De: Sí
Muestreados de los componentes de Número de espectros: 1
Espectrómetros: USB4F02353
Tiempo de integración (usec): 500000 (USB4F02353)
Promedio de Espectros Hechos un: 5 (USB4F02353)
El Alisar Del Furgón: 0 (USB4F02353)
Párrafo de de Corregir del la del del de Eléctrica del obscuridad: Sí (USB4F02353)
Estrobo/Lámpara Permitido: No (USB4F02353)
Correct for Detector Non-linearity: No (USB4F02353)
Párrafo de de Corregir del la del del de Externa del luz: No (USB4F02353)
Procesado del espectro de Número de pixeles en: 3648
>>>>> Comienza Data<<<<< Espectral Procesado Del EL
177,79	859,695
178,00	859,695
178,22	859,695
178,44	-9023,498
178,66	581,611
178,88	181,431
179,09	3772,237
179,31	140,407
179,53	-7409,185
179,75	422,886
179,96	-65,287
180,18	300,052
180,40	-270,882
180,62	-106,809
180,83	139,512
181,05	-1086,193
181,27	-685,332
181,49	-24,202
181,70	-400,356
181,92	250,259
182,14	176,399
182,36	-2468,746
182,58	212,687
182,79	-925,560
183,01	-10656,360
183,23	273,146
183,45	-117,325
183,66	137,969
183,88	948,467
184,10	810,041
184,32	739,074
184,53	-272,168
184,75	471,834
184,97	-273,475
185,18	1148,360
185,40	193,439
185,62	-1227,080
185,84	2872,363
186,05	3627,953
186,27	-3565,327
186,49	-1000,747
186,71	155,932
186,92	329,526
187,14	1531,225
187,36	295,199
187,58	973,711
187,79	-508,673
188,01	-1143,711
188,23	104,398
188,45	177,992
188,66	-70,132
188,88	279,709
189,10	-422,202
189,31	-177,149
189,53	-225,477
189,75	1034,062
189,97	102,590
190,18	1023,417
190,40	1424,888
190,62	213,146
190,83	464,787
191,05	-188,775
191,27	5742,355
191,49	489,372
191,70	1053,175
191,92	414,515
192,14	399,810
192,35	-1934,945
192,57	-1359,689
192,79	-1641,671
193,01	558,132
193,22	-322,690
193,44	-645,029
193,66	371,795
193,87	982,992
194,09	162,508
194,31	326,739
194,53	-231,085
194,74	277,943
194,96	115,265
195,18	945,450
195,39	-1059,287
195,61	-334,175
195,83	2628,591
196,04	479,545
196,26	129,541
196,48	1315,585
196,70	425,186
196,91	126,830
197,13	149,296
197,35	209,699
197,56	-394,242
197,78	4713,266
198,00	-2,370
198,21	389,364
198,43	832,417
198,65	306,133
198,86	126,740
199,08	485,871
199,30	278,577
199,51	1018,483
199,73	-2458,040
199,95	253,551
200,16	676,393
200,38	110,386
200,60	3484,407
200,81	-564,293
201,03	13222,010
201,25	736,314
201,46	-673,033
201,68	560,644
201,90	499,258
202,11	309,164
202,33	159,876
202,55	112,766
202,76	744,712
202,98	569,546
203,20	375,154
203,41	-1335,958
203,63	441,474
203,85	134,118
204,06	-320,997
204,28	175,433
204,50	-214,729
204,71	531,008
204,93	-153,531
205,15	205,698
205,36	-156,205
205,58	-3020,387
205,80	-2917,465
206,01	-5583,953
206,23	289,935
206,45	514,451
206,66	424,537
206,88	-341,869
207,10	1828,623
207,31	-48221,192
207,53	300,138
207,75	-329,733
207,96	412,831
208,18	285,803
208,39	223,285
208,61	935,339
208,83	8574,166
209,04	75,833
209,26	518,346
209,48	43,835
209,69	-45,546
209,91	1072,106
210,13	27,973
210,34	-84,683
210,56	271,890
210,77	1991,423
210,99	311,723
211,21	-528,035
211,42	145,371
211,64	569,692
211,86	352,443
212,07	182,885
212,29	473,376
212,50	1095,856
212,72	204,524
212,94	452,872
213,15	281,780
213,37	734,744
213,58	121,646
213,80	323,638
214,02	1936,683
214,23	375,197
214,45	286,568
214,67	-0,693
214,88	-126,775
215,10	1533,578
215,31	1075,780
215,53	68,330
215,75	298,738
215,96	484,483
216,18	115,944
216,39	184,282
216,61	438,587
216,83	1052,582
217,04	331,326
217,26	6,322
217,47	395,155
217,69	285,143
217,91	71,100
218,12	1061,327
218,34	79,550
218,55	201,396
218,77	4,524
218,99	131,922
219,20	150,377
219,42	419,795
219,63	108,302
219,85	297,282
220,06	-207,654
220,28	138,423
220,50	99,002
220,71	133,507
220,93	461,549
221,14	394,005
221,36	86,489
221,58	114,144
221,79	15,723
222,01	152,323
222,22	165,824
222,44	41,747
222,65	262,655
222,87	33,723
223,09	66,220
223,30	-48,264
223,52	-23,599
223,73	69,524
223,95	78,548
224,16	22,072
224,38	116,042
224,60	81,894
224,81	66,376
225,03	106,136
225,24	106,407
225,46	8,526
225,67	-10,399
225,89	17,089
226,10	106,833
226,32	74,626
226,54	-43,973
226,75	-5,707
226,97	110,361
227,18	94,404
227,40	79,517
227,61	40,827
227,83	35,020
228,04	82,142
228,26	73,410
228,47	8,038
228,69	73,934
228,91	64,070
229,12	136,544
229,34	30,326
229,55	39,179
229,77	23,919
229,98	29,686
230,20	28,062
230,41	-18,234
230,63	49,454
230,84	23,793
231,06	51,760
231,27	15,719
231,49	38,258
231,71	17,035
231,92	5,343
232,14	-9,646
232,35	37,077
232,57	8,033
232,78	8,659
233,00	19,634
233,21	16,122
233,43	28,485
233,64	5,233
233,86	13,920
234,07	33,386
234,29	0,537
234,50	9,452
234,72	31,356
234,93	17,272
235,15	11,560
235,36	16,569
235,58	43,948
235,79	23,225
236,01	12,488
236,22	12,066
236,44	28,271
236,65	24,788
236,87	14,771
237,08	13,208
237,30	-10,865
237,51	24,128
237,73	18,783
237,94	8,979
238,16	15,177
238,37	10,297
238,59	-1,477
238,80	5,932
239,02	3,462
239,23	23,418
239,45	9,353
239,66	25,075
239,88	25,690
240,09	18,765
240,31	8,812
240,52	-2,148
240,74	14,170
240,95	14,728
241,17	8,156
241,38	9,147
241,60	1,190
241,81	19,165
242,03	-2,894
242,24	11,350
242,46	10,100
242,67	-3,609
242,89	13,849
243,10	10,121
243,32	12,916
243,53	13,117
243,75	7,895
243,96	10,077
244,18	6,930
244,39	13,859
244,60	-1,405
244,82	7,487
245,03	15,650
245,25	9,058
245,46	22,672
245,68	3,005
245,89	25,681
246,11	16,182
246,32	9,229
246,54	9,667
246,75	3,699
246,97	16,862
247,18	16,965
247,39	8,222
247,61	14,095
247,82	14,074
248,04	0,895
248,25	0,985
248,47	6,598
248,68	8,393
248,90	5,360
249,11	6,201
249,33	14,258
249,54	11,384
249,75	9,468
249,97	4,349
250,18	16,334
250,40	11,198
250,61	4,277
250,83	-0,416
251,04	5,106
251,25	16,252
251,47	13,010
251,68	6,625
251,90	6,821
252,11	6,603
252,33	5,239
252,54	5,275
252,76	3,231
252,97	0,080
253,18	6,969
253,40	7,199
253,61	4,176
253,83	6,864
254,04	9,727
254,25	0,665
254,47	0,937
254,68	6,445
254,90	5,752
255,11	0,484
255,33	10,044
255,54	3,989
255,75	2,898
255,97	5,783
256,18	1,622
256,40	8,034
256,61	8,482
256,82	6,334
257,04	8,350
257,25	7,178
257,47	4,206
257,68	11,631
257,89	9,072
258,11	3,794
258,32	10,013
258,54	4,634
258,75	15,588
258,96	8,825
259,18	6,113
259,39	2,398
259,61	8,883
259,82	2,091
260,03	1,850
260,25	6,614
260,46	3,838
260,68	3,057
260,89	4,642
261,10	7,750
261,32	4,629
261,53	-2,221
261,75	6,336
261,96	1,455
262,17	18,597
262,39	10,795
262,60	1,423
262,81	3,556
263,03	9,292
263,24	7,925
263,46	3,306
263,67	6,409
263,88	5,672
264,10	5,616
264,31	5,392
264,52	3,707
264,74	7,658
264,95	5,050
265,17	8,087
265,38	9,677
265,59	9,897
265,81	9,147
266,02	-0,171
266,23	-1,510
266,45	8,510
266,66	8,477
266,87	4,376
267,09	4,724
267,30	7,557
267,52	14,034
267,73	6,397
267,94	2,569
268,16	5,249
268,37	2,415
268,58	6,407
268,80	-1,804
269,01	6,021
269,22	6,852
269,44	7,367
269,65	6,799
269,86	4,704
270,08	6,010
270,29	3,587
270,50	4,778
270,72	9,387
270,93	1,908
271,14	2,209
271,36	2,906
271,57	8,658
271,78	4,236
272,00	3,978
272,21	7,775
272,42	5,962
272,64	9,626
272,85	2,304
273,06	3,053
273,28	5,797
273,49	2,564
273,70	7,487
273,92	5,859
274,13	3,290
274,34	0,141
274,56	8,013
274,77	5,145
274,98	9,602
275,20	7,648
275,41	7,050
275,62	0,926
275,84	7,566
276,05	13,092
276,26	4,115
276,47	2,272
276,69	11,069
276,90	10,282
277,11	5,069
277,33	2,127
277,54	11,711
277,75	6,958
277,97	0,625
278,18	1,108
278,39	9,006
278,61	-0,564
278,82	8,895
279,03	7,726
279,24	1,181
279,46	4,950
279,67	12,882
279,88	2,606
280,10	8,364
280,31	2,922
280,52	1,139
280,73	4,056
280,95	8,339
281,16	5,007
281,37	6,392
281,59	4,537
281,80	8,894
282,01	3,841
282,22	1,784
282,44	4,796
282,65	10,219
282,86	3,564
283,08	2,581
283,29	4,032
283,50	-1,271
283,71	4,931
283,93	4,730
284,14	0,731
284,35	4,643
284,56	5,829
284,78	0,348
284,99	7,215
285,20	11,302
285,42	4,784
285,63	3,588
285,84	1,898
286,05	4,549
286,27	3,625
286,48	6,190
286,69	5,340
286,90	5,900
287,12	3,474
287,33	3,602
287,54	2,648
287,75	9,322
287,97	0,587
288,18	1,422
288,39	4,042
288,60	3,397
288,82	2,501
289,03	3,089
289,24	7,108
289,45	8,680
289,67	4,339
289,88	3,935
290,09	6,789
290,30	3,012
290,52	1,792
290,73	0,180
290,94	2,749
291,15	3,152
291,37	5,515
291,58	4,280
291,79	4,966
292,00	3,957
292,21	2,342
292,43	6,492
292,64	0,571
292,85	3,980
293,06	5,298
293,28	3,813
293,49	2,601
293,70	8,981
293,91	0,985
294,12	4,236
294,34	4,965
294,55	6,714
294,76	7,087
294,97	6,751
295,19	3,913
295,40	3,710
295,61	5,461
295,82	5,212
296,03	4,090
296,25	6,178
296,46	2,888
296,67	2,436
296,88	5,277
297,09	3,929
297,31	1,994
297,52	5,317
297,73	1,382
297,94	3,405
298,15	5,241
298,37	2,629
298,58	2,496
298,79	4,075
299,00	0,844
299,21	3,962
299,43	0,741
299,64	7,775
299,85	3,268
300,06	1,280
300,27	2,118
300,49	8,228
300,70	7,478
300,91	2,858
301,12	4,169
301,33	6,565
301,54	1,671
301,76	4,671
301,97	3,821
302,18	4,958
302,39	7,231
302,60	3,885
302,82	3,173
303,03	8,338
303,24	3,108
303,45	4,993
303,66	6,887
303,87	1,451
304,09	4,645
304,30	1,684
304,51	3,687
304,72	2,008
304,93	5,734
305,14	3,221
305,36	1,926
305,57	0,583
305,78	6,246
305,99	4,773
306,20	4,949
306,41	1,971
306,62	1,836
306,84	2,885
307,05	4,095
307,26	1,872
307,47	9,245
307,68	4,115
307,89	2,662
308,11	5,859
308,32	4,421
308,53	1,795
308,74	1,160
308,95	1,730
309,16	6,699
309,37	3,279
309,59	1,795
309,80	3,004
310,01	4,619
310,22	4,356
310,43	6,233
310,64	4,695
310,85	5,380
311,06	2,404
311,28	5,856
311,49	4,429
311,70	8,359
311,91	3,605
312,12	0,026
312,33	2,319
312,54	3,669
312,75	8,312
312,97	3,163
313,18	7,042
313,39	0,945
313,60	3,355
313,81	3,293
314,02	4,320
314,23	6,788
314,44	2,618
314,65	1,936
314,87	1,781
315,08	2,135
315,29	2,046
315,50	6,650
315,71	10,237
315,92	5,057
316,13	0,149
316,34	4,115
316,55	5,188
316,77	1,384
316,98	3,334
317,19	2,140
317,40	6,704
317,61	7,951
317,82	4,496
318,03	0,279
318,24	5,612
318,45	5,836
318,66	4,856
318,87	2,583
319,09	4,857
319,30	5,924
319,51	5,885
319,72	4,321
319,93	3,611
320,14	4,876
320,35	5,618
320,56	-1,247
320,77	4,321
320,98	7,874
321,19	6,948
321,40	4,251
321,62	4,804
321,83	-0,787
322,04	4,645
322,25	5,383
322,46	7,605
322,67	5,354
322,88	4,126
323,09	3,498
323,30	6,309
323,51	7,935
323,72	4,860
323,93	1,398
324,14	3,258
324,35	-0,262
324,56	2,343
324,77	4,012
324,99	3,729
325,20	1,632
325,41	6,326
325,62	3,231
325,83	-1,766
326,04	2,654
326,25	4,925
326,46	1,391
326,67	4,053
326,88	5,349
327,09	2,052
327,30	3,746
327,51	4,193
327,72	3,820
327,93	1,964
328,14	-0,540
328,35	3,663
328,56	4,845
328,77	4,939
328,98	6,257
329,19	2,818
329,40	4,337
329,61	0,826
329,82	2,009
330,04	5,703
330,25	3,687
330,46	3,719
330,67	2,807
330,88	6,638
331,09	1,873
331,30	5,286
331,51	4,353
331,72	5,986
331,93	5,962
332,14	1,999
332,35	2,546
332,56	3,146
332,77	7,895
332,98	3,201
333,19	3,685
333,40	5,874
333,61	1,820
333,82	6,186
334,03	3,986
334,24	9,991
334,45	4,806
334,66	5,928
334,87	4,524
335,08	2,695
335,29	2,217
335,50	4,998
335,71	0,139
335,92	6,094
336,13	4,008
336,34	3,759
336,55	3,742
336,76	6,682
336,97	2,859
337,18	4,875
337,39	4,888
337,60	6,242
337,81	5,945
338,02	6,789
338,23	3,466
338,44	5,343
338,65	-0,497
338,86	4,201
339,07	5,023
339,28	3,578
339,49	3,741
339,70	0,987
339,91	3,439
340,11	7,728
340,32	5,273
340,53	0,142
340,74	-0,068
340,95	2,129
341,16	4,973
341,37	2,480
341,58	4,275
341,79	1,075
342,00	2,925
342,21	-1,507
342,42	2,940
342,63	7,959
342,84	6,146
343,05	4,360
343,26	7,028
343,47	6,875
343,68	1,558
343,89	0,936
344,10	2,276
344,31	5,727
344,52	6,669
344,73	2,482
344,94	0,977
345,14	3,140
345,35	3,346
345,56	1,744
345,77	2,300
345,98	1,709
346,19	5,845
346,40	5,541
346,61	-0,767
346,82	4,590
347,03	6,554
347,24	0,789
347,45	3,575
347,66	6,386
347,87	1,281
348,08	7,807
348,28	3,201
348,49	0,704
348,70	5,414
348,91	4,299
349,12	3,077
349,33	-2,555
349,54	5,677
349,75	5,488
349,96	3,174
350,17	6,774
350,38	1,755
350,59	3,672
350,80	2,033
351,00	2,990
351,21	11,932
351,42	2,250
351,63	1,605
351,84	4,375
352,05	7,877
352,26	2,527
352,47	4,898
352,68	7,535
352,89	3,633
353,09	1,987
353,30	1,647
353,51	2,113
353,72	9,467
353,93	8,004
354,14	3,778
354,35	3,196
354,56	8,262
354,77	1,516
354,98	3,744
355,18	5,895
355,39	10,626
355,60	1,287
355,81	5,722
356,02	4,339
356,23	1,486
356,44	6,318
356,65	4,679
356,85	6,822
357,06	8,480
357,27	4,105
357,48	2,331
357,69	6,103
357,90	5,404
358,11	-2,403
358,32	3,301
358,52	8,278
358,73	4,920
358,94	3,391
359,15	3,672
359,36	6,412
359,57	3,941
359,78	7,557
359,98	5,938
360,19	0,754
360,40	3,619
360,61	7,407
360,82	2,582
361,03	11,271
361,24	15,183
361,44	2,595
361,65	4,053
361,86	0,730
362,07	5,118
362,28	9,804
362,49	4,476
362,70	7,089
362,90	2,080
363,11	2,137
363,32	0,907
363,53	2,912
363,74	10,769
363,95	7,791
364,15	3,213
364,36	5,806
364,57	2,603
364,78	0,200
364,99	1,619
365,20	6,105
365,40	6,401
365,61	6,158
365,82	4,452
366,03	11,178
366,24	1,491
366,45	-2,415
366,65	0,751
366,86	3,569
367,07	2,646
367,28	1,436
367,49	0,860
367,69	6,818
367,90	1,960
368,11	4,373
368,32	2,947
368,53	7,832
368,73	1,818
368,94	3,732
369,15	6,392
369,36	3,895
369,57	3,262
369,78	3,899
369,98	4,819
370,19	8,054
370,40	2,737
370,61	3,430
370,82	4,991
371,02	8,458
371,23	5,571
371,44	3,612
371,65	1,800
371,85	9,544
372,06	0,378
372,27	5,148
372,48	1,711
372,69	8,418
372,89	5,397
373,10	5,043
373,31	3,976
373,52	4,255
373,73	5,729
373,93	5,275
374,14	5,304
374,35	6,083
374,56	4,734
374,76	5,460
374,97	4,237
375,18	8,986
375,39	3,516
375,60	6,646
375,80	3,529
376,01	2,915
376,22	6,200
376,43	4,048
376,63	4,090
376,84	3,146
377,05	5,372
377,26	2,048
377,46	4,550
377,67	4,141
377,88	1,604
378,09	3,960
378,29	3,738
378,50	5,181
378,71	5,657
378,92	0,917
379,12	1,439
379,33	3,801
379,54	4,229
379,75	7,213
379,95	4,279
380,16	6,516
380,37	4,598
380,58	3,047
380,78	5,534
380,99	0,283
381,20	2,097
381,41	5,668
381,61	3,431
381,82	4,506
382,03	3,715
382,24	5,533
382,44	1,716
382,65	4,878
382,86	9,673
383,06	9,396
383,27	5,977
383,48	2,371
383,69	4,140
383,89	1,146
384,10	0,762
384,31	5,131
384,51	7,359
384,72	6,088
384,93	2,020
385,14	0,347
385,34	3,305
385,55	2,429
385,76	0,254
385,96	8,653
386,17	3,560
386,38	2,082
386,59	8,605
386,79	5,514
387,00	9,768
387,21	8,107
387,41	5,049
387,62	6,600
387,83	8,443
388,03	1,666
388,24	3,138
388,45	4,983
388,66	7,588
388,86	2,001
389,07	3,814
389,28	14,955
389,48	4,200
389,69	5,709
389,90	0,036
390,10	-0,338
390,31	7,501
390,52	3,716
390,72	4,435
390,93	7,180
391,14	5,026
391,34	4,114
391,55	4,214
391,76	7,433
391,96	9,383
392,17	0,745
392,38	3,950
392,58	2,548
392,79	3,861
393,00	1,142
393,20	6,094
393,41	5,651
393,62	7,579
393,82	1,837
394,03	6,888
394,24	2,025
394,44	7,578
394,65	8,124
394,86	3,009
395,06	7,553
395,27	4,855
395,48	2,616
395,68	0,391
395,89	3,850
396,10	8,574
396,30	0,216
396,51	3,045
396,72	5,147
396,92	-0,034
397,13	7,192
397,34	1,569
397,54	5,851
397,75	1,811
397,95	2,291
398,16	2,859
398,37	6,584
398,57	-1,777
398,78	2,398
398,99	5,698
399,19	6,719
399,40	10,098
399,60	2,395
399,81	7,350
400,02	9,405
400,22	5,826
400,43	7,402
400,64	1,125
400,84	0,629
401,05	4,874
401,25	3,980
401,46	1,849
401,67	7,595
401,87	1,271
402,08	0,910
402,29	5,474
402,49	9,766
402,70	6,230
402,90	0,012
403,11	6,887
403,32	-0,160
403,52	0,496
403,73	1,544
403,93	5,834
404,14	9,467
404,35	2,311
404,55	-0,012
404,76	5,335
404,96	3,311
405,17	5,827
405,38	9,478
405,58	5,808
405,79	8,987
405,99	8,352
406,20	3,441
406,40	4,401
406,61	3,760
406,82	4,019
407,02	3,807
407,23	0,528
407,43	3,529
407,64	-1,594
407,85	3,927
408,05	-1,761
408,26	13,203
408,46	11,001
408,67	6,012
408,87	2,786
409,08	0,511
409,29	12,529
409,49	6,478
409,70	5,155
409,90	4,964
410,11	4,794
410,31	7,110
410,52	5,046
410,72	2,098
410,93	8,122
411,14	3,960
411,34	-1,384
411,55	2,239
411,75	7,788
411,96	9,130
412,16	7,751
412,37	4,141
412,57	4,776
412,78	9,900
412,99	0,316
413,19	6,598
413,40	2,935
413,60	3,795
413,81	5,033
414,01	2,026
414,22	3,669
414,42	4,774
414,63	4,080
414,83	3,080
415,04	9,915
415,24	5,865
415,45	4,162
415,65	4,354
415,86	8,559
416,07	2,680
416,27	6,775
416,48	9,019
416,68	12,906
416,89	1,532
417,09	8,719
417,30	12,197
417,50	-0,385
417,71	6,428
417,91	6,260
418,12	5,127
418,32	6,348
418,53	0,754
418,73	5,244
418,94	3,018
419,14	10,520
419,35	2,166
419,55	5,025
419,76	9,619
419,96	7,564
420,17	4,167
420,37	1,783
420,58	7,933
420,78	6,580
420,99	3,873
421,19	6,159
421,40	10,660
421,60	11,124
421,81	2,211
422,01	4,368
422,22	5,873
422,42	7,810
422,63	9,011
422,83	6,942
423,04	12,432
423,24	15,279
423,45	6,112
423,65	6,080
423,86	10,436
424,06	7,894
424,27	3,285
424,47	6,335
424,67	2,634
424,88	8,659
425,08	3,310
425,29	8,223
425,49	1,892
425,70	4,719
425,90	7,326
426,11	5,965
426,31	6,940
426,52	8,038
426,72	5,220
426,93	4,242
427,13	9,602
427,33	3,433
427,54	8,916
427,74	7,619
427,95	12,955
428,15	7,673
428,36	5,383
428,56	4,557
428,77	8,436
428,97	7,537
429,18	5,881
429,38	5,194
429,58	8,212
429,79	10,316
429,99	4,570
430,20	9,407
430,40	10,272
430,61	4,119
430,81	5,902
431,01	10,825
431,22	11,265
431,42	8,354
431,63	3,359
431,83	8,344
432,04	14,243
432,24	9,505
432,44	8,398
432,65	6,793
432,85	7,423
433,06	9,805
433,26	6,459
433,47	5,257
433,67	5,566
433,87	6,722
434,08	7,721
434,28	2,769
434,49	8,260
434,69	16,355
434,89	9,537
435,10	5,942
435,30	11,844
435,51	7,276
435,71	5,201
435,91	6,770
436,12	6,060
436,32	4,271
436,53	8,056
436,73	5,792
436,93	9,657
437,14	6,990
437,34	8,581
437,55	4,294
437,75	9,621
437,95	10,509
438,16	3,690
438,36	7,521
438,57	7,089
438,77	2,072
438,97	10,634
439,18	9,353
439,38	7,834
439,58	6,881
439,79	9,879
439,99	3,120
440,20	10,833
440,40	13,520
440,60	9,745
440,81	6,913
441,01	10,104
441,21	11,269
441,42	8,927
441,62	10,658
441,83	8,867
442,03	6,376
442,23	11,966
442,44	10,941
442,64	10,156
442,84	4,375
443,05	9,632
443,25	8,744
443,45	9,869
443,66	7,751
443,86	7,241
444,06	10,675
444,27	6,577
444,47	10,336
444,67	11,152
444,88	8,477
445,08	9,209
445,28	5,119
445,49	9,416
445,69	8,496
445,90	11,437
446,10	12,572
446,30	6,781
446,51	8,388
446,71	12,529
446,91	10,587
447,12	15,553
447,32	6,496
447,52	10,490
447,72	16,416
447,93	6,266
448,13	7,147
448,33	17,878
448,54	11,805
448,74	6,308
448,94	8,857
449,15	15,269
449,35	6,754
449,55	12,248
449,76	10,829
449,96	9,041
450,16	11,235
450,37	8,430
450,57	9,851
450,77	7,425
450,98	11,772
451,18	13,084
451,38	13,173
451,58	16,704
451,79	7,719
451,99	6,830
452,19	14,832
452,40	19,155
452,60	5,891
452,80	12,568
453,00	12,331
453,21	7,473
453,41	13,777
453,61	10,714
453,82	13,446
454,02	9,557
454,22	20,927
454,42	12,419
454,63	8,984
454,83	7,465
455,03	16,537
455,24	9,814
455,44	10,520
455,64	8,683
455,84	10,618
456,05	5,006
456,25	8,064
456,45	8,365
456,65	10,037
456,86	13,503
457,06	11,575
457,26	12,781
457,47	15,956
457,67	11,538
457,87	8,512
458,07	14,751
458,28	14,295
458,48	18,643
458,68	7,708
458,88	19,006
459,09	8,079
459,29	15,492
459,49	7,060
459,69	14,175
459,90	15,994
460,10	11,910
460,30	16,415
460,50	9,070
460,71	12,915
460,91	7,169
461,11	13,252
461,31	14,081
461,52	13,900
461,72	14,667
461,92	9,087
462,12	17,545
462,32	6,355
462,53	10,436
462,73	10,203
462,93	13,457
463,13	14,581
463,34	9,369
463,54	14,849
463,74	9,555
463,94	10,887
464,14	15,185
464,35	9,300
464,55	14,508
464,75	17,663
464,95	10,823
465,16	8,185
465,36	17,131
465,56	8,972
465,76	11,259
465,96	15,099
466,17	15,722
466,37	10,248
466,57	13,812
466,77	16,610
466,97	8,826
467,18	16,555
467,38	16,607
467,58	20,668
467,78	15,353
467,98	15,455
468,19	12,254
468,39	15,411
468,59	10,260
468,79	14,939
468,99	16,499
469,19	13,853
469,40	10,956
469,60	11,927
469,80	7,999
470,00	13,497
470,20	17,195
470,41	12,880
470,61	15,538
470,81	16,891
471,01	13,831
471,21	13,929
471,41	19,348
471,62	13,614
471,82	11,848
472,02	10,836
472,22	13,680
472,42	10,872
472,62	15,134
472,83	7,201
473,03	15,651
473,23	13,723
473,43	15,962
473,63	15,702
473,83	13,760
474,03	14,148
474,24	15,129
474,44	11,280
474,64	13,069
474,84	9,372
475,04	10,250
475,24	15,249
475,45	13,497
475,65	14,980
475,85	17,438
476,05	8,560
476,25	10,978
476,45	15,161
476,65	17,743
476,85	13,059
477,06	14,773
477,26	10,182
477,46	14,687
477,66	15,915
477,86	13,551
478,06	16,209
478,26	18,779
478,46	11,317
478,67	16,289
478,87	10,658
479,07	13,946
479,27	15,192
479,47	10,795
479,67	9,188
479,87	10,467
480,07	17,487
480,28	14,440
480,48	11,255
480,68	16,438
480,88	18,853
481,08	17,311
481,28	13,455
481,48	15,724
481,68	12,235
481,88	10,466
482,08	12,512
482,29	14,263
482,49	11,569
482,69	14,491
482,89	11,871
483,09	16,568
483,29	10,331
483,49	7,244
483,69	13,612
483,89	12,735
484,09	11,412
484,29	11,585
484,50	13,652
484,70	17,241
484,90	11,537
485,10	15,548
485,30	14,599
485,50	18,938
485,70	15,043
485,90	11,926
486,10	10,206
486,30	11,564
486,50	12,440
486,70	10,971
486,90	12,430
487,10	14,903
487,30	13,998
487,51	12,978
487,71	10,934
487,91	11,942
488,11	15,206
488,31	12,067
488,51	13,028
488,71	11,820
488,91	12,705
489,11	12,807
489,31	12,210
489,51	15,000
489,71	13,548
489,91	13,117
490,11	13,701
490,31	15,902
490,51	15,605
490,71	17,032
490,91	11,545
491,11	14,426
491,31	16,809
491,51	14,821
491,72	13,403
491,92	12,745
492,12	18,171
492,32	15,335
492,52	15,411
492,72	11,459
492,92	12,300
493,12	16,370
493,32	11,871
493,52	12,001
493,72	13,633
493,92	13,947
494,12	13,635
494,32	15,761
494,52	12,074
494,72	12,410
494,92	12,723
495,12	16,097
495,32	19,294
495,52	15,231
495,72	13,713
495,92	14,635
496,12	17,409
496,32	15,756
496,52	13,102
496,72	15,955
496,92	15,349
497,12	16,497
497,32	15,314
497,52	13,743
497,72	15,619
497,92	14,712
498,12	13,240
498,32	15,777
498,52	13,498
498,72	12,877
498,92	14,256
499,12	16,402
499,32	11,390
499,52	16,146
499,72	13,241
499,92	16,307
500,12	13,912
500,32	13,053
500,52	15,442
500,72	17,966
500,91	18,125
501,11	15,233
501,31	14,262
501,51	16,218
501,71	16,730
501,91	13,995
502,11	13,860
502,31	16,672
502,51	15,771
502,71	17,298
502,91	13,844
503,11	17,097
503,31	17,289
503,51	12,896
503,71	14,505
503,91	15,979
504,11	13,517
504,31	16,806
504,51	13,188
504,71	20,377
504,91	14,662
505,10	16,081
505,30	16,498
505,50	16,126
505,70	14,266
505,90	15,483
506,10	12,194
506,30	16,281
506,50	15,289
506,70	18,089
506,90	16,495
507,10	13,755
507,30	13,384
507,50	14,400
507,70	15,838
507,89	17,119
508,09	15,570
508,29	13,702
508,49	12,851
508,69	15,067
508,89	14,658
509,09	15,289
509,29	16,004
509,49	18,749
509,69	17,729
509,89	16,498
510,09	16,130
510,28	16,464
510,48	15,142
510,68	14,393
510,88	16,587
511,08	17,060
511,28	13,778
511,48	14,946
511,68	10,826
511,88	21,849
512,07	14,579
512,27	14,313
512,47	15,935
512,67	15,064
512,87	12,224
513,07	15,330
513,27	14,778
513,47	14,686
513,67	13,177
513,86	15,885
514,06	15,404
514,26	15,688
514,46	17,775
514,66	15,461
514,86	16,812
515,06	20,360
515,26	17,703
515,45	15,945
515,65	12,101
515,85	16,453
516,05	15,009
516,25	15,185
516,45	16,084
516,65	13,282
516,84	13,684
517,04	18,111
517,24	15,464
517,44	15,817
517,64	17,532
517,84	19,434
518,04	17,529
518,23	17,187
518,43	20,254
518,63	16,209
518,83	14,401
519,03	16,798
519,23	15,302
519,42	18,258
519,62	16,018
519,82	15,296
520,02	14,661
520,22	17,106
520,42	15,209
520,61	17,808
520,81	16,962
521,01	17,193
521,21	14,800
521,41	14,245
521,61	19,670
521,80	14,732
522,00	15,208
522,20	20,843
522,40	16,641
522,60	15,882
522,79	15,072
522,99	20,221
523,19	13,574
523,39	14,602
523,59	16,771
523,78	17,185
523,98	15,562
524,18	18,176
524,38	12,905
524,58	15,789
524,77	18,219
524,97	17,612
525,17	15,868
525,37	14,003
525,57	20,805
525,76	18,459
525,96	19,546
526,16	12,998
526,36	16,067
526,56	16,167
526,75	17,773
526,95	17,941
527,15	15,845
527,35	17,796
527,55	15,133
527,74	13,238
527,94	15,171
528,14	12,823
528,34	16,785
528,53	15,607
528,73	19,167
528,93	17,120
529,13	13,362
529,32	16,789
529,52	16,823
529,72	14,049
529,92	15,018
530,12	14,208
530,31	17,324
530,51	19,968
530,71	16,681
530,91	21,431
531,10	11,454
531,30	17,851
531,50	13,851
531,70	16,539
531,89	18,519
532,09	13,131
532,29	16,025
532,49	14,640
532,68	17,296
532,88	13,555
533,08	14,691
533,28	16,898
533,47	17,413
533,67	15,984
533,87	14,813
534,06	23,672
534,26	15,159
534,46	16,332
534,66	15,840
534,85	17,859
535,05	13,656
535,25	14,092
535,45	13,969
535,64	19,217
535,84	17,263
536,04	12,753
536,23	17,548
536,43	19,814
536,63	17,374
536,83	16,069
537,02	16,202
537,22	13,057
537,42	15,285
537,61	16,465
537,81	14,873
538,01	16,844
538,20	17,213
538,40	15,004
538,60	15,520
538,80	14,610
538,99	16,569
539,19	14,944
539,39	14,115
539,58	15,136
539,78	11,692
539,98	13,190
540,17	12,003
540,37	17,192
540,57	11,796
540,76	10,846
540,96	7,900
541,16	12,917
541,36	12,201
541,55	9,837
541,75	9,980
541,95	12,347
542,14	7,482
542,34	7,525
542,54	5,525
542,73	11,602
542,93	8,670
543,13	8,049
543,32	8,195
543,52	11,313
543,72	10,379
543,91	9,745
544,11	8,507
544,31	5,237
544,50	9,573
544,70	10,052
544,89	9,734
545,09	10,847
545,29	9,850
545,48	12,671
545,68	7,788
545,88	11,895
546,07	11,686
546,27	12,577
546,47	14,418
546,66	12,944
546,86	10,521
547,06	13,969
547,25	11,661
547,45	12,928
547,64	15,593
547,84	15,988
548,04	14,258
548,23	18,872
548,43	14,665
548,63	15,727
548,82	17,308
549,02	18,093
549,21	13,245
549,41	15,389
549,61	16,154
549,80	12,957
550,00	15,873
550,20	15,358
550,39	16,432
550,59	17,074
550,78	17,305
550,98	15,791
551,18	16,850
551,37	16,201
551,57	16,272
551,76	16,212
551,96	14,986
552,16	13,068
552,35	16,391
552,55	13,299
552,74	15,718
552,94	19,014
553,14	12,697
553,33	17,084
553,53	17,169
553,72	15,584
553,92	17,244
554,12	16,020
554,31	17,011
554,51	15,055
554,70	13,095
554,90	15,827
555,09	19,068
555,29	13,834
555,49	18,024
555,68	19,043
555,88	15,888
556,07	15,056
556,27	18,933
556,46	16,573
556,66	13,915
556,86	21,874
557,05	15,730
557,25	15,031
557,44	16,268
557,64	15,206
557,83	16,659
558,03	16,233
558,22	13,636
558,42	17,438
558,62	15,544
558,81	17,536
559,01	16,918
559,20	18,435
559,40	17,278
559,59	16,704
559,79	14,752
559,98	16,107
560,18	17,365
560,37	16,726
560,57	16,083
560,76	14,528
560,96	12,611
561,16	15,862
561,35	15,370
561,55	18,276
561,74	17,152
561,94	17,265
562,13	16,527
562,33	16,398
562,52	16,660
562,72	14,930
562,91	16,075
563,11	16,806
563,30	18,912
563,50	16,612
563,69	13,462
563,89	13,677
564,08	16,836
564,28	16,018
564,47	18,522
564,67	15,651
564,86	15,188
565,06	16,176
565,25	14,143
565,45	15,355
565,64	18,566
565,84	15,740
566,03	13,022
566,23	16,748
566,42	16,287
566,62	16,332
566,81	16,550
567,01	14,427
567,20	15,782
567,40	15,457
567,59	16,019
567,79	18,715
567,98	18,739
568,18	14,455
568,37	17,064
568,57	15,832
568,76	16,406
568,96	17,835
569,15	12,970
569,35	15,854
569,54	17,653
569,73	17,547
569,93	15,466
570,12	15,332
570,32	17,185
570,51	15,544
570,71	16,715
570,90	16,856
571,10	14,081
571,29	15,344
571,49	13,995
571,68	16,431
571,87	17,374
572,07	16,542
572,26	11,977
572,46	14,836
572,65	15,199
572,85	14,664
573,04	16,428
573,24	14,921
573,43	17,480
573,62	16,837
573,82	15,678
574,01	14,929
574,21	12,809
574,40	15,042
574,60	13,369
574,79	17,891
574,98	14,360
575,18	14,351
575,37	12,699
575,57	14,507
575,76	15,767
575,96	14,909
576,15	15,040
576,34	15,480
576,54	15,403
576,73	15,385
576,93	15,246
577,12	15,585
577,31	15,811
577,51	13,642
577,70	13,813
577,90	14,458
578,09	15,428
578,28	13,475
578,48	13,913
578,67	14,656
578,87	14,988
579,06	13,399
579,25	15,631
579,45	14,909
579,64	13,603
579,84	14,284
580,03	15,439
580,22	15,859
580,42	14,845
580,61	15,216
580,81	15,748
581,00	14,787
581,19	15,958
581,39	12,668
581,58	13,817
581,77	13,404
581,97	15,982
582,16	14,926
582,35	13,234
582,55	13,928
582,74	16,488
582,94	16,631
583,13	14,947
583,32	14,447
583,52	16,021
583,71	14,569
583,90	13,752
584,10	15,465
584,29	16,340
584,48	12,909
584,68	13,285
584,87	15,204
585,06	14,478
585,26	13,995
585,45	13,626
585,65	15,766
585,84	14,579
586,03	14,306
586,23	13,281
586,42	14,224
586,61	19,589
586,81	15,240
587,00	13,983
587,19	16,173
587,39	17,022
587,58	14,154
587,77	14,260
587,97	13,855
588,16	15,094
588,35	13,665
588,54	14,338
588,74	14,255
588,93	17,350
589,12	15,497
589,32	12,610
589,51	13,606
589,70	13,800
589,90	12,671
590,09	12,886
590,28	16,963
590,48	12,588
590,67	15,552
590,86	14,891
591,06	14,618
591,25	15,999
591,44	14,899
591,63	15,028
591,83	15,740
592,02	15,865
592,21	14,583
592,41	14,846
592,60	15,816
592,79	15,488
592,98	16,575
593,18	14,145
593,37	14,618
593,56	15,097
593,76	15,561
593,95	14,278
594,14	15,071
594,33	16,856
594,53	15,426
594,72	13,034
594,91	16,206
595,10	15,897
595,30	15,234
595,49	14,831
595,68	15,975
595,88	17,581
596,07	15,873
596,26	16,527
596,45	14,301
596,65	13,533
596,84	13,654
597,03	16,218
597,22	14,228
597,42	16,817
597,61	14,305
597,80	16,354
597,99	13,996
598,19	15,884
598,38	15,453
598,57	14,568
598,76	16,584
598,95	15,518
599,15	16,205
599,34	14,494
599,53	14,313
599,72	14,316
599,92	17,011
600,11	15,608
600,30	15,973
600,49	17,917
600,69	15,183
600,88	15,910
601,07	14,822
601,26	14,195
601,45	14,227
601,65	13,803
601,84	16,525
602,03	14,930
602,22	16,126
602,42	16,236
602,61	14,167
602,80	16,155
602,99	14,080
603,18	15,111
603,38	17,339
603,57	14,065
603,76	14,317
603,95	14,168
604,14	16,149
604,34	13,296
604,53	14,247
604,72	16,266
604,91	16,173
605,10	15,368
605,29	16,589
605,49	13,061
605,68	16,274
605,87	18,002
606,06	14,806
606,25	13,904
606,45	15,941
606,64	14,966
606,83	17,069
607,02	13,900
607,21	14,753
607,40	14,572
607,60	14,186
607,79	13,791
607,98	14,148
608,17	14,032
608,36	14,286
608,55	13,371
608,75	15,849
608,94	14,226
609,13	12,172
609,32	10,735
609,51	14,708
609,70	14,269
609,89	11,920
610,09	9,805
610,28	10,727
610,47	10,351
610,66	11,141
610,85	9,647
611,04	12,568
611,23	9,677
611,43	9,618
611,62	10,506
611,81	10,687
612,00	12,063
612,19	11,573
612,38	11,820
612,57	12,966
612,77	12,286
612,96	12,184
613,15	12,682
613,34	12,393
613,53	13,759
613,72	12,484
613,91	11,450
614,10	13,118
614,29	14,607
614,49	12,887
614,68	12,910
614,87	14,767
615,06	17,252
615,25	13,875
615,44	14,604
615,63	15,559
615,82	12,594
616,01	15,783
616,21	13,318
616,40	15,237
616,59	16,265
616,78	14,675
616,97	13,749
617,16	14,978
617,35	15,928
617,54	14,475
617,73	15,194
617,92	14,709
618,11	16,321
618,31	15,731
618,50	16,404
618,69	13,756
618,88	14,670
619,07	11,716
619,26	13,180
619,45	12,599
619,64	13,325
619,83	13,122
620,02	14,769
620,21	15,767
620,40	14,532
620,59	15,346
620,78	13,957
620,97	15,682
621,17	18,948
621,36	13,415
621,55	13,698
621,74	15,794
621,93	16,746
622,12	15,468
622,31	13,906
622,50	15,496
622,69	17,277
622,88	15,674
623,07	17,605
623,26	15,307
623,45	18,196
623,64	15,582
623,83	14,863
624,02	15,531
624,21	15,073
624,40	14,991
624,59	13,183
624,78	14,780
624,97	16,959
625,16	12,779
625,35	13,811
625,54	12,842
625,73	13,887
625,92	16,884
626,12	16,351
626,31	16,180
626,50	16,566
626,69	15,129
626,88	16,156
627,07	15,473
627,26	15,420
627,45	16,901
627,64	14,001
627,83	16,054
628,02	13,733
628,21	15,881
628,40	13,853
628,59	16,623
628,78	13,733
628,97	14,192
629,16	14,292
629,35	15,416
629,54	15,857
629,73	16,646
629,92	14,640
630,10	15,587
630,29	16,318
630,48	14,018
630,67	13,938
630,86	16,832
631,05	14,095
631,24	15,888
631,43	14,134
631,62	14,138
631,81	12,608
632,00	14,612
632,19	12,746
632,38	15,969
632,57	15,836
632,76	11,817
632,95	15,212
633,14	16,694
633,33	16,181
633,52	15,474
633,71	15,674
633,90	12,763
634,09	15,200
634,28	15,825
634,47	15,137
634,66	15,895
634,85	15,738
635,04	17,945
635,22	15,044
635,41	14,688
635,60	17,068
635,79	17,315
635,98	15,465
636,17	15,491
636,36	13,795
636,55	13,698
636,74	13,404
636,93	14,386
637,12	14,748
637,31	14,222
637,50	14,062
637,69	15,654
637,87	17,724
638,06	14,007
638,25	13,628
638,44	14,751
638,63	13,906
638,82	14,433
639,01	14,946
639,20	15,409
639,39	16,375
639,58	15,827
639,77	15,089
639,95	14,274
640,14	16,804
640,33	14,973
640,52	15,131
640,71	17,475
640,90	14,673
641,09	17,187
641,28	14,382
641,47	16,141
641,66	14,370
641,84	17,681
642,03	12,872
642,22	14,660
642,41	17,959
642,60	15,800
642,79	15,623
642,98	15,917
643,17	16,633
643,35	14,050
643,54	14,779
643,73	15,754
643,92	15,309
644,11	16,259
644,30	15,499
644,49	17,028
644,67	15,428
644,86	15,061
645,05	15,525
645,24	13,131
645,43	15,415
645,62	15,391
645,81	13,321
645,99	13,880
646,18	17,439
646,37	15,806
646,56	14,322
646,75	15,802
646,94	15,882
647,13	13,281
647,31	15,404
647,50	13,844
647,69	16,797
647,88	15,169
648,07	15,917
648,26	19,933
648,44	15,241
648,63	16,372
648,82	14,795
649,01	16,201
649,20	13,261
649,38	16,100
649,57	16,146
649,76	14,753
649,95	15,503
650,14	14,576
650,33	15,264
650,51	15,289
650,70	14,426
650,89	15,863
651,08	15,304
651,27	16,885
651,45	14,302
651,64	13,432
651,83	14,717
652,02	12,706
652,21	14,010
652,39	16,010
652,58	15,145
652,77	16,017
652,96	14,173
653,15	15,916
653,33	14,162
653,52	14,434
653,71	15,916
653,90	16,453
654,09	14,304
654,27	14,169
654,46	15,456
654,65	13,909
654,84	14,885
655,02	15,557
655,21	14,638
655,40	15,302
655,59	14,569
655,77	15,855
655,96	14,261
656,15	15,715
656,34	16,414
656,53	14,626
656,71	15,266
656,90	17,111
657,09	15,094
657,28	16,754
657,46	14,977
657,65	15,387
657,84	15,267
658,03	15,011
658,21	16,780
658,40	15,175
658,59	13,799
658,78	15,617
658,96	14,383
659,15	16,517
659,34	14,335
659,52	16,342
659,71	15,962
659,90	15,839
660,09	14,284
660,27	15,631
660,46	17,859
660,65	16,097
660,84	14,829
661,02	16,403
661,21	17,151
661,40	17,763
661,58	16,059
661,77	15,144
661,96	14,135
662,15	17,162
662,33	15,586
662,52	15,842
662,71	15,314
662,89	15,324
663,08	15,287
663,27	16,737
663,45	15,056
663,64	16,577
663,83	15,359
664,02	12,972
664,20	17,365
664,39	15,085
664,58	14,320
664,76	14,557
664,95	16,110
665,14	16,710
665,32	14,410
665,51	16,295
665,70	16,628
665,88	16,815
666,07	15,275
666,26	17,114
666,44	17,534
666,63	12,802
666,82	14,721
667,00	15,590
667,19	13,904
667,38	16,100
667,56	16,728
667,75	16,047
667,94	15,983
668,12	14,360
668,31	16,554
668,50	17,124
668,68	16,993
668,87	15,051
669,06	14,959
669,24	17,639
669,43	15,926
669,62	15,440
669,80	13,963
669,99	14,463
670,18	15,481
670,36	12,826
670,55	17,399
670,74	15,010
670,92	12,866
671,11	17,702
671,29	12,754
671,48	13,992
671,67	15,109
671,85	15,349
672,04	15,311
672,23	15,355
672,41	14,959
672,60	15,022
672,78	15,201
672,97	15,328
673,16	15,482
673,34	17,238
673,53	13,662
673,71	15,728
673,90	16,537
674,09	15,068
674,27	16,422
674,46	15,393
674,64	15,164
674,83	15,807
675,02	13,898
675,20	14,339
675,39	15,031
675,57	15,396
675,76	15,711
675,95	17,727
676,13	15,262
676,32	14,731
676,50	14,923
676,69	13,200
676,88	15,508
677,06	14,085
677,25	16,629
677,43	17,995
677,62	16,579
677,80	15,429
677,99	15,897
678,18	17,646
678,36	17,286
678,55	15,617
678,73	13,232
678,92	14,843
679,10	15,404
679,29	13,917
679,48	14,310
679,66	16,141
679,85	16,207
680,03	14,654
680,22	15,107
680,40	15,022
680,59	16,061
680,77	14,217
680,96	14,787
681,15	14,919
681,33	16,940
681,52	15,387
681,70	14,507
681,89	17,422
682,07	14,918
682,26	14,900
682,44	16,485
682,63	15,525
682,81	16,834
683,00	15,711
683,18	13,678
683,37	15,610
683,55	13,925
683,74	15,191
683,92	20,300
684,11	15,045
684,29	15,445
684,48	15,082
684,67	16,080
684,85	15,710
685,04	17,123
685,22	15,907
685,41	15,607
685,59	14,932
685,78	13,996
685,96	15,131
686,15	14,884
686,33	14,815
686,52	14,339
686,70	15,739
686,89	15,533
687,07	15,653
687,26	15,875
687,44	15,037
687,62	15,227
687,81	15,954
687,99	17,378
688,18	16,155
688,36	15,713
688,55	17,932
688,73	15,384
688,92	15,117
689,10	16,035
689,29	16,957
689,47	16,872
689,66	15,290
689,84	14,855
690,03	18,459
690,21	14,261
690,40	14,197
690,58	14,970
690,76	13,742
690,95	15,758
691,13	14,127
691,32	17,340
691,50	14,508
691,69	16,631
691,87	15,726
692,06	15,821
692,24	15,743
692,43	16,032
692,61	15,671
692,79	14,838
692,98	14,892
693,16	16,952
693,35	13,381
693,53	17,122
693,72	15,965
693,90	18,336
694,08	15,211
694,27	15,763
694,45	16,472
694,64	17,891
694,82	14,634
695,01	15,753
695,19	14,418
695,37	16,548
695,56	15,232
695,74	15,582
695,93	16,481
696,11	15,147
696,29	16,451
696,48	17,473
696,66	17,331
696,85	14,374
697,03	14,910
697,21	15,451
697,40	18,758
697,58	16,027
697,77	16,276
697,95	15,570
698,13	15,048
698,32	14,994
698,50	14,945
698,69	15,197
698,87	17,223
699,05	17,186
699,24	15,175
699,42	16,271
699,60	13,207
699,79	14,505
699,97	14,702
700,16	14,478
700,34	19,205
700,52	15,217
700,71	16,422
700,89	13,330
701,07	13,773
701,26	15,580
701,44	14,709
701,63	16,672
701,81	16,335
701,99	15,866
702,18	15,841
702,36	15,080
702,54	18,227
702,73	15,686
702,91	14,845
703,09	14,817
703,28	13,296
703,46	15,991
703,64	15,240
703,83	15,788
704,01	16,718
704,19	15,105
704,38	14,140
704,56	14,777
704,74	16,009
704,93	14,351
705,11	14,327
705,29	15,485
705,48	18,584
705,66	14,533
705,84	15,252
706,03	13,164
706,21	14,483
706,39	14,853
706,58	14,341
706,76	17,270
706,94	16,607
707,12	14,858
707,31	15,389
707,49	15,568
707,67	14,991
707,86	17,847
708,04	16,429
708,22	16,002
708,41	16,806
708,59	15,050
708,77	16,660
708,95	16,090
709,14	17,240
709,32	15,874
709,50	14,628
709,69	17,162
709,87	15,805
710,05	13,399
710,23	15,375
710,42	15,042
710,60	16,764
710,78	18,621
710,97	15,945
711,15	16,410
711,33	16,388
711,51	15,278
711,70	15,042
711,88	15,041
712,06	18,174
712,24	17,034
712,43	14,979
712,61	14,424
712,79	15,851
712,97	13,379
713,16	16,445
713,34	13,902
713,52	17,262
713,70	15,962
713,89	14,292
714,07	15,048
714,25	16,241
714,43	16,328
714,62	14,326
714,80	15,356
714,98	13,302
715,16	15,411
715,35	13,488
715,53	16,463
715,71	18,716
715,89	18,881
716,07	17,133
716,26	14,992
716,44	17,493
716,62	15,599
716,80	16,125
716,99	15,534
717,17	18,838
717,35	16,121
717,53	14,463
717,71	15,771
717,90	16,965
718,08	16,683
718,26	16,463
718,44	18,425
718,62	18,218
718,81	15,731
718,99	14,156
719,17	14,472
719,35	15,589
719,53	14,366
719,72	14,464
719,90	15,156
720,08	15,741
720,26	17,806
720,44	15,414
720,62	16,062
720,81	19,204
720,99	18,319
721,17	14,923
721,35	16,932
721,53	13,987
721,72	17,717
721,90	15,560
722,08	15,479
722,26	17,428
722,44	16,457
722,62	13,535
722,81	14,351
722,99	15,377
723,17	16,310
723,35	15,971
723,53	17,626
723,71	17,034
723,89	19,561
724,08	16,980
724,26	15,278
724,44	15,968
724,62	18,181
724,80	13,587
724,98	15,081
725,16	18,648
725,35	16,627
725,53	16,213
725,71	16,113
725,89	15,417
726,07	20,142
726,25	18,218
726,43	13,344
726,61	15,667
726,80	17,020
726,98	15,237
727,16	13,929
727,34	15,626
727,52	15,463
727,70	16,174
727,88	15,453
728,06	12,985
728,25	14,635
728,43	14,823
728,61	14,088
728,79	15,251
728,97	18,896
729,15	15,867
729,33	17,651
729,51	17,094
729,69	15,516
729,87	16,157
730,06	17,375
730,24	17,983
730,42	17,609
730,60	14,545
730,78	15,583
730,96	16,282
731,14	18,955
731,32	16,311
731,50	14,322
731,68	15,350
731,86	17,340
732,04	15,595
732,22	15,296
732,41	22,872
732,59	15,200
732,77	17,816
732,95	16,134
733,13	17,895
733,31	16,980
733,49	14,876
733,67	16,494
733,85	18,292
734,03	14,066
734,21	14,846
734,39	15,543
734,57	16,154
734,75	16,906
734,93	14,920
735,11	16,481
735,29	15,008
735,47	16,685
735,65	13,979
735,84	14,457
736,02	15,895
736,20	19,452
736,38	14,670
736,56	16,774
736,74	15,981
736,92	15,110
737,10	13,791
737,28	17,936
737,46	15,123
737,64	16,365
737,82	15,411
738,00	17,148
738,18	16,049
738,36	16,514
738,54	16,096
738,72	17,027
738,90	16,768
739,08	17,113
739,26	15,069
739,44	16,198
739,62	19,139
739,80	16,866
739,98	15,364
740,16	16,868
740,34	16,581
740,52	19,836
740,70	16,353
740,88	15,550
741,06	16,633
741,24	16,761
741,42	16,001
741,60	16,120
741,78	16,984
741,96	17,362
742,14	16,731
742,32	16,792
742,50	14,225
742,68	17,423
742,86	16,026
743,04	14,846
743,21	17,824
743,39	15,768
743,57	16,076
743,75	17,975
743,93	13,203
744,11	13,239
744,29	16,228
744,47	14,561
744,65	17,071
744,83	14,303
745,01	15,759
745,19	15,047
745,37	20,325
745,55	18,209
745,73	16,995
745,91	13,452
746,09	15,548
746,27	15,571
746,45	15,473
746,62	15,750
746,80	15,690
746,98	15,346
747,16	13,789
747,34	14,414
747,52	15,353
747,70	18,009
747,88	16,865
748,06	17,858
748,24	16,290
748,42	18,440
748,60	15,691
748,78	14,477
748,95	20,602
749,13	20,951
749,31	16,282
749,49	15,331
749,67	16,550
749,85	17,599
750,03	16,363
750,21	16,931
750,39	16,894
750,57	13,987
750,74	17,031
750,92	16,001
751,10	17,567
751,28	14,761
751,46	16,665
751,64	15,281
751,82	17,457
752,00	17,824
752,17	17,604
752,35	19,456
752,53	17,921
752,71	16,018
752,89	15,516
753,07	15,503
753,25	15,722
753,43	14,465
753,60	17,670
753,78	16,655
753,96	17,630
754,14	18,321
754,32	19,316
754,50	17,666
754,68	17,122
754,85	15,226
755,03	17,046
755,21	18,405
755,39	18,754
755,57	17,949
755,75	18,519
755,92	16,964
756,10	16,611
756,28	17,936
756,46	14,803
756,64	17,082
756,82	18,268
756,99	16,795
757,17	14,424
757,35	14,870
757,53	21,752
757,71	19,143
757,89	14,311
758,06	17,030
758,24	17,678
758,42	17,513
758,60	14,602
758,78	17,329
758,95	16,980
759,13	17,116
759,31	17,515
759,49	15,756
759,67	16,964
759,84	14,912
760,02	17,453
760,20	15,915
760,38	18,402
760,56	14,271
760,73	15,449
760,91	15,545
761,09	19,010
761,27	15,177
761,45	17,003
761,62	12,570
761,80	14,628
761,98	17,346
762,16	18,190
762,33	15,247
762,51	17,351
762,69	15,191
762,87	16,624
763,05	18,545
763,22	16,620
763,40	16,378
763,58	16,167
763,76	15,642
763,93	18,244
764,11	18,716
764,29	17,629
764,47	19,326
764,64	19,690
764,82	18,797
765,00	16,517
765,18	14,673
765,35	16,342
765,53	14,348
765,71	19,607
765,89	16,849
766,06	15,091
766,24	17,349
766,42	16,211
766,60	15,306
766,77	15,389
766,95	16,202
767,13	17,977
767,30	16,438
767,48	15,603
767,66	15,794
767,84	14,205
768,01	16,298
768,19	17,091
768,37	16,067
768,54	16,241
768,72	17,305
768,90	16,716
769,08	17,491
769,25	15,900
769,43	16,092
769,61	14,292
769,78	17,474
769,96	15,483
770,14	17,394
770,31	19,179
770,49	20,135
770,67	16,323
770,85	14,319
771,02	18,076
771,20	17,388
771,38	17,868
771,55	16,448
771,73	14,428
771,91	17,967
772,08	18,245
772,26	15,895
772,44	18,046
772,61	18,357
772,79	15,330
772,97	16,363
773,14	15,312
773,32	18,294
773,50	15,507
773,67	18,912
773,85	18,275
774,03	19,744
774,20	17,586
774,38	16,350
774,56	17,624
774,73	14,140
774,91	14,870
775,09	15,742
775,26	18,181
775,44	18,009
775,61	17,004
775,79	16,433
775,97	19,494
776,14	17,843
776,32	17,442
776,50	17,720
776,67	17,443
776,85	18,873
777,03	13,531
777,20	18,660
777,38	18,497
777,55	18,576
777,73	17,853
777,91	14,847
778,08	15,534
778,26	14,859
778,43	18,345
778,61	16,350
778,79	16,334
778,96	17,927
779,14	16,723
779,32	16,721
779,49	15,097
779,67	21,620
779,84	18,447
780,02	17,759
780,20	17,092
780,37	18,316
780,55	12,910
780,72	16,514
780,90	15,810
781,07	18,701
781,25	18,315
781,43	16,991
781,60	15,880
781,78	19,355
781,95	19,442
782,13	15,922
782,30	17,554
782,48	18,795
782,66	15,545
782,83	16,724
783,01	24,609
783,18	18,828
783,36	19,480
783,53	17,009
783,71	14,340
783,89	16,795
784,06	18,484
784,24	16,559
784,41	17,401
784,59	15,314
784,76	20,487
784,94	16,855
785,11	18,529
785,29	17,152
785,46	16,312
785,64	15,692
785,82	20,159
785,99	20,957
786,17	21,570
786,34	16,045
786,52	20,784
786,69	20,522
786,87	16,278
787,04	16,598
787,22	14,662
787,39	17,953
787,57	19,337
787,74	15,237
787,92	21,712
788,09	20,152
788,27	18,722
788,44	15,965
788,62	19,936
788,79	16,069
788,97	17,822
789,14	18,843
789,32	17,069
789,49	17,380
789,67	17,274
789,84	16,789
790,02	19,436
790,19	14,881
790,37	18,305
790,54	17,117
790,72	22,239
790,89	18,450
791,07	21,348
791,24	13,847
791,42	19,627
791,59	20,141
791,77	14,919
791,94	19,336
792,12	17,013
792,29	19,207
792,47	18,671
792,64	17,253
792,81	20,157
792,99	17,216
793,16	16,132
793,34	16,220
793,51	17,752
793,69	21,404
793,86	16,013
794,04	20,034
794,21	20,066
794,39	15,611
794,56	17,064
794,73	20,750
794,91	21,391
795,08	16,772
795,26	18,842
795,43	15,695
795,61	19,645
795,78	18,019
795,95	20,423
796,13	21,651
796,30	21,883
796,48	18,023
796,65	16,628
796,83	21,083
797,00	20,230
797,17	17,728
797,35	17,997
797,52	18,573
797,70	18,388
797,87	16,933
798,04	22,537
798,22	14,604
798,39	17,519
798,57	17,085
798,74	19,123
798,91	17,452
799,09	17,920
799,26	21,318
799,44	20,877
799,61	16,294
799,78	15,932
799,96	22,267
800,13	15,664
800,31	22,522
800,48	21,189
800,65	23,218
800,83	20,851
801,00	17,776
801,17	18,757
801,35	21,478
801,52	21,449
801,70	21,428
801,87	19,185
802,04	22,165
802,22	16,044
802,39	20,485
802,56	21,435
802,74	21,240
802,91	16,936
803,08	17,014
803,26	21,333
803,43	26,573
803,61	14,259
803,78	18,528
803,95	20,957
804,13	19,727
804,30	16,959
804,47	20,270
804,65	18,075
804,82	20,520
804,99	21,744
805,17	16,498
805,34	25,689
805,51	20,877
805,69	16,504
805,86	23,094
806,03	23,783
806,21	21,620
806,38	22,696
806,55	17,652
806,72	20,682
806,90	25,456
807,07	18,376
807,24	17,450
807,42	18,436
807,59	21,196
807,76	15,182
807,94	22,495
808,11	25,740
808,28	22,464
808,45	18,493
808,63	18,160
808,80	24,556
808,97	18,911
809,15	20,515
809,32	17,617
809,49	20,754
809,67	20,546
809,84	20,926
810,01	21,973
810,18	27,905
810,36	23,305
810,53	17,620
810,70	21,353
810,87	21,901
811,05	19,965
811,22	20,053
811,39	17,697
811,57	24,350
811,74	18,064
811,91	21,440
812,08	17,007
812,26	18,495
812,43	15,441
812,60	23,300
812,77	18,959
812,95	19,763
813,12	17,300
813,29	19,305
813,46	18,713
813,64	23,290
813,81	23,209
813,98	24,323
814,15	23,403
814,32	26,519
814,50	18,498
814,67	17,710
814,84	26,063
815,01	21,942
815,19	17,872
815,36	19,259
815,53	18,057
815,70	22,214
815,87	26,112
816,05	17,868
816,22	23,279
816,39	19,392
816,56	25,014
816,74	24,560
816,91	25,607
817,08	27,891
817,25	27,082
817,42	18,577
817,60	23,033
817,77	26,359
817,94	21,344
818,11	22,003
818,28	13,785
818,45	22,546
818,63	19,126
818,80	21,147
818,97	17,693
819,14	21,448
819,31	27,032
819,49	23,095
819,66	16,510
819,83	25,876
820,00	23,466
820,17	22,271
820,34	21,181
820,52	22,831
820,69	24,490
820,86	18,543
821,03	22,482
821,20	24,613
821,37	29,932
821,55	23,612
821,72	16,667
821,89	20,412
822,06	25,565
822,23	17,769
822,40	20,546
822,57	26,755
822,75	24,381
822,92	15,511
823,09	24,140
823,26	22,582
823,43	25,600
823,60	18,000
823,77	18,367
823,94	30,273
824,12	25,939
824,29	17,383
824,46	22,969
824,63	31,157
824,80	26,394
824,97	20,930
825,14	20,806
825,31	24,981
825,49	21,351
825,66	8,235
825,83	19,756
826,00	22,540
826,17	30,141
826,34	26,454
826,51	17,612
826,68	17,945
826,85	19,974
827,02	15,421
827,20	19,797
827,37	18,419
827,54	23,986
827,71	28,338
827,88	22,598
828,05	23,733
828,22	25,421
828,39	28,409
828,56	20,583
828,73	23,515
828,90	20,266
829,07	24,583
829,25	19,722
829,42	22,617
829,59	15,465
829,76	17,496
829,93	24,194
830,10	21,753
830,27	24,652
830,44	13,784
830,61	14,095
830,78	29,497
830,95	25,955
831,12	23,718
831,29	14,773
831,46	16,340
831,63	16,797
831,80	22,858
831,97	20,634
832,14	26,300
832,31	27,967
832,48	17,746
832,65	26,929
832,83	22,683
833,00	28,555
833,17	17,607
833,34	25,079
833,51	26,454
833,68	33,735
833,85	14,413
834,02	15,703
834,19	25,947
834,36	25,984
834,53	18,871
834,70	18,140
834,87	37,420
835,04	19,786
835,21	21,943
835,38	27,994
835,55	17,497
835,72	33,001
835,89	22,193
836,06	19,128
836,23	37,405
836,40	24,951
836,57	14,669
836,74	20,085
836,91	22,324
837,08	38,073
837,25	18,847
837,42	22,318
837,59	16,316
837,76	29,854
837,93	21,449
838,09	22,118
838,26	24,797
838,43	36,337
838,60	27,167
838,77	24,490
838,94	21,844
839,11	38,299
839,28	30,133
839,45	22,024
839,62	21,202
839,79	24,604
839,96	25,642
840,13	27,131
840,30	21,273
840,47	22,088
840,64	28,242
840,81	25,705
840,98	22,931
841,15	30,818
841,32	19,726
841,48	28,188
841,65	31,514
841,82	17,435
841,99	23,542
842,16	32,924
842,33	21,534
842,50	32,370
842,67	11,373
842,84	24,201
843,01	32,321
843,18	20,100
843,35	29,513
843,52	23,308
843,68	23,942
843,85	21,559
844,02	13,035
844,19	21,685
844,36	21,170
844,53	17,737
844,70	14,927
844,87	37,841
845,04	29,550
845,21	12,170
845,37	38,343
845,54	19,330
845,71	20,588
845,88	42,725
846,05	19,463
846,22	10,300
846,39	28,291
846,56	33,584
846,72	7,265
846,89	18,887
847,06	33,072
847,23	29,940
847,40	13,021
847,57	18,167
847,74	17,587
847,90	32,919
848,07	25,613
848,24	23,391
848,41	34,787
848,58	41,150
848,75	33,057
848,92	18,507
849,08	23,015
849,25	17,480
849,42	21,788
849,59	18,235
849,76	22,359
849,93	32,595
850,09	30,743
850,26	8,854
850,43	44,422
850,60	19,754
850,77	12,962
850,94	30,378
851,10	18,660
851,27	17,459
851,44	32,405
851,61	21,846
851,78	43,925
851,95	42,859
852,11	22,275
852,28	16,785
852,45	37,479
852,62	41,454
852,79	36,178
852,95	16,910
853,12	37,263
853,29	20,245
853,46	20,126
853,63	26,006
853,79	17,787
853,96	17,824
854,13	38,816
854,30	22,343
854,46	40,395
854,63	16,816
854,80	24,663
854,97	22,178
855,14	48,248
855,30	37,742
855,47	35,009
855,64	32,342
855,81	17,420
855,97	41,629
856,14	30,344
856,31	14,706
856,48	40,160
856,65	49,038
856,81	34,301
856,98	25,065
857,15	10,875
857,32	46,847
857,48	19,645
857,65	33,600
857,82	39,630
857,99	31,298
858,15	41,986
858,32	28,932
858,49	10,442
858,65	56,958
858,82	41,127
858,99	31,692
859,16	31,023
859,32	29,141
859,49	31,386
859,66	35,084
859,83	35,650
859,99	27,547
860,16	27,291
860,33	28,589
860,49	43,990
860,66	28,055
860,83	25,484
861,00	25,888
861,16	53,296
861,33	43,913
861,50	6,918
861,66	35,916
861,83	39,767
862,00	27,829
862,16	29,109
862,33	38,435
862,50	57,939
862,67	42,962
862,83	32,961
863,00	29,561
863,17	43,463
863,33	18,990
863,50	6,023
863,67	39,220
863,83	48,148
864,00	46,050
864,17	23,502
864,33	19,967
864,50	22,743
864,67	41,531
864,83	24,138
865,00	48,009
865,17	17,766
865,33	43,563
865,50	23,128
865,67	29,882
865,83	41,013
866,00	50,247
866,17	39,150
866,33	49,060
866,50	37,679
866,66	24,634
866,83	38,421
867,00	40,168
867,16	52,872
867,33	80,641
867,50	23,385
867,66	38,472
867,83	33,554
868,00	42,340
868,16	35,880
868,33	35,309
868,49	17,148
868,66	59,049
868,83	34,547
868,99	47,204
869,16	68,069
869,32	64,520
869,49	36,734
869,66	35,481
869,82	67,323
869,99	63,396
870,15	5,383
870,32	33,641
870,49	92,320
870,65	75,839
870,82	37,922
870,98	44,245
871,15	69,704
871,32	45,470
871,48	30,328
871,65	20,751
871,81	39,010
871,98	23,284
872,15	17,661
872,31	22,790
872,48	51,263
872,64	46,334
872,81	54,828
872,97	28,261
873,14	71,221
873,31	33,292
873,47	52,048
873,64	73,243
873,80	92,321
873,97	84,446
874,13	47,525
874,30	18,354
874,46	40,470
874,63	53,639
874,80	33,783
874,96	38,725
875,13	72,641
875,29	20,673
875,46	45,048
875,62	26,496
875,79	75,892
875,95	31,565
876,12	9,059
876,28	15,155
876,45	92,593
876,61	29,212
876,78	21,159
876,94	9,749
877,11	55,637
877,27	118,173
877,44	51,387
877,60	43,521
877,77	58,005
877,94	123,151
878,10	27,784
878,27	66,684
878,43	109,008
878,60	22,640
878,76	69,426
878,93	69,383
879,09	43,835
879,26	111,146
879,42	53,226
879,58	43,655
879,75	86,742
879,91	73,665
880,08	31,010
880,24	37,232
880,41	20,692
880,57	46,102
880,74	90,699
880,90	44,931
881,07	37,385
881,23	107,186
881,40	78,448
881,56	45,428
881,73	117,248
881,89	65,149
882,06	56,997
882,22	139,104
882,38	124,222
882,55	147,294
882,71	76,284
882,88	48,902
883,04	57,846
883,21	79,370
883,37	113,734
883,54	69,610
883,70	241,458
883,86	111,827
884,03	117,403
884,19	60,851
884,36	145,727
884,52	128,817
884,69	80,262
884,85	62,320
885,01	65,943
885,18	125,965
885,34	75,129
885,51	29,465
885,67	104,692
>>>>> Data<<<<< Espectral Procesado Extremo
