Fichero De Datos De SpectraSuite
++++++++++++++++++++++++++++++++++++
Fecha: Wed Apr 22 08:30:48 CEST 2009
Usuario: evoflor
Presente Oscuro Del Espectro: Sí
La Referencia de Presente Del Espectro De: Sí
Muestreados de los componentes de Número de espectros: 1
Espectrómetros: USB4F02353
Tiempo de integración (usec): 500000 (USB4F02353)
Promedio de Espectros Hechos un: 5 (USB4F02353)
El Alisar Del Furgón: 0 (USB4F02353)
Párrafo de de Corregir del la del del de Eléctrica del obscuridad: Sí (USB4F02353)
Estrobo/Lámpara Permitido: No (USB4F02353)
Correct for Detector Non-linearity: No (USB4F02353)
Párrafo de de Corregir del la del del de Externa del luz: No (USB4F02353)
Procesado del espectro de Número de pixeles en: 3648
>>>>> Comienza Data<<<<< Espectral Procesado Del EL
177,79	925,647
178,00	925,647
178,22	925,647
178,44	-9229,506
178,66	447,255
178,88	60,092
179,09	1200,771
179,31	185,779
179,53	-6963,375
179,75	386,807
179,96	-18,443
180,18	176,575
180,40	-358,753
180,62	-147,068
180,83	89,551
181,05	-1035,624
181,27	-665,313
181,49	336,941
181,70	-279,575
181,92	327,007
182,14	162,930
182,36	-892,346
182,58	249,529
182,79	-766,350
183,01	-13736,008
183,23	485,979
183,45	-69,502
183,66	132,401
183,88	663,277
184,10	602,332
184,32	1179,482
184,53	-231,003
184,75	462,139
184,97	-269,683
185,18	1011,601
185,40	318,407
185,62	-1056,887
185,84	4228,438
186,05	4381,515
186,27	-4690,126
186,49	-941,482
186,71	196,713
186,92	597,698
187,14	1903,048
187,36	301,987
187,58	1023,051
187,79	-484,185
188,01	-1420,146
188,23	163,320
188,45	173,570
188,66	-254,368
188,88	234,135
189,10	-395,587
189,31	-101,776
189,53	66,015
189,75	982,183
189,97	223,725
190,18	1004,152
190,40	1408,007
190,62	154,683
190,83	476,124
191,05	-71,026
191,27	8539,719
191,49	610,346
191,70	626,694
191,92	472,441
192,14	310,079
192,35	-1624,034
192,57	-1091,818
192,79	-2103,388
193,01	590,474
193,22	-542,489
193,44	-754,270
193,66	416,280
193,87	770,603
194,09	91,885
194,31	273,847
194,53	-346,106
194,74	518,034
194,96	193,172
195,18	852,620
195,39	-1124,004
195,61	-390,936
195,83	2682,845
196,04	360,671
196,26	154,435
196,48	2619,224
196,70	415,491
196,91	174,044
197,13	-105,299
197,35	262,407
197,56	-354,755
197,78	5515,206
198,00	396,556
198,21	392,329
198,43	846,389
198,65	204,415
198,86	154,754
199,08	915,469
199,30	-80,864
199,51	680,257
199,73	-3287,441
199,95	242,749
200,16	618,273
200,38	177,045
200,60	3699,845
200,81	-538,996
201,03	9900,000
201,25	617,776
201,46	-191,291
201,68	646,788
201,90	544,926
202,11	216,971
202,33	206,072
202,55	81,109
202,76	695,986
202,98	552,665
203,20	259,204
203,41	-1323,713
203,63	601,783
203,85	177,149
204,06	-968,795
204,28	202,322
204,50	-267,733
204,71	453,743
204,93	83,298
205,15	229,607
205,36	-177,925
205,58	-507,733
205,80	-3113,810
206,01	-4471,820
206,23	271,757
206,45	400,412
206,66	327,441
206,88	-516,060
207,10	2259,005
207,31	-37662,914
207,53	31,781
207,75	-15,128
207,96	348,508
208,18	377,631
208,39	276,288
208,61	626,297
208,83	8543,703
209,04	336,267
209,26	737,939
209,48	97,419
209,69	-71,009
209,91	1112,598
210,13	19,446
210,34	85,624
210,56	349,568
210,77	1396,256
210,99	234,651
211,21	-103,016
211,42	150,607
211,64	461,954
211,86	294,345
212,07	135,441
212,29	681,724
212,50	1087,327
212,72	200,394
212,94	389,605
213,15	69,729
213,37	666,153
213,58	222,727
213,80	416,870
214,02	2450,023
214,23	313,465
214,45	305,289
214,67	48,766
214,88	-131,203
215,10	1511,972
215,31	-814,747
215,53	17,537
215,75	414,844
215,96	347,330
216,18	175,363
216,39	300,496
216,61	542,934
216,83	1047,694
217,04	387,054
217,26	24,185
217,47	466,083
217,69	257,487
217,91	80,890
218,12	1156,789
218,34	128,348
218,55	204,201
218,77	72,800
218,99	87,909
219,20	179,064
219,42	368,475
219,63	62,375
219,85	259,073
220,06	-138,666
220,28	108,907
220,50	57,230
220,71	155,762
220,93	508,013
221,14	396,258
221,36	53,040
221,58	103,505
221,79	57,949
222,01	135,441
222,22	179,423
222,44	82,117
222,65	151,104
222,87	39,073
223,09	87,432
223,30	80,017
223,52	395,781
223,73	70,383
223,95	158,474
224,16	47,395
224,38	84,822
224,60	107,947
224,81	63,109
225,03	139,311
225,24	82,508
225,46	22,316
225,67	21,383
225,89	60,639
226,10	141,296
226,32	175,985
226,54	3,350
226,75	19,457
226,97	117,360
227,18	109,339
227,40	103,151
227,61	50,135
227,83	26,823
228,04	120,925
228,26	71,260
228,47	30,077
228,69	111,458
228,91	58,768
229,12	145,248
229,34	16,754
229,55	52,792
229,77	40,223
229,98	15,846
230,20	25,200
230,41	-5,925
230,63	47,181
230,84	50,264
231,06	76,458
231,27	10,129
231,49	47,582
231,71	26,594
231,92	27,540
232,14	-9,224
232,35	48,893
232,57	12,436
232,78	19,586
233,00	33,319
233,21	27,664
233,43	24,108
233,64	3,797
233,86	30,319
234,07	47,491
234,29	3,438
234,50	5,237
234,72	32,842
234,93	22,665
235,15	1,945
235,36	25,550
235,58	43,227
235,79	34,892
236,01	19,483
236,22	23,590
236,44	37,223
236,65	22,047
236,87	19,306
237,08	13,494
237,30	4,295
237,51	25,900
237,73	16,597
237,94	12,319
238,16	15,061
238,37	10,011
238,59	10,601
238,80	14,508
239,02	7,840
239,23	29,583
239,45	10,158
239,66	22,780
239,88	22,651
240,09	18,061
240,31	6,866
240,52	6,587
240,74	13,081
240,95	15,403
241,17	13,953
241,38	10,177
241,60	-1,661
241,81	18,287
242,03	6,204
242,24	14,405
242,46	15,063
242,67	1,337
242,89	16,904
243,10	14,422
243,32	15,540
243,53	15,810
243,75	8,312
243,96	13,237
244,18	16,485
244,39	15,492
244,60	0,623
244,82	11,238
245,03	14,652
245,25	7,677
245,46	25,490
245,68	6,973
245,89	28,034
246,11	22,250
246,32	11,427
246,54	13,137
246,75	8,530
246,97	18,086
247,18	19,616
247,39	7,932
247,61	13,964
247,82	16,833
248,04	6,752
248,25	4,903
248,47	10,122
248,68	11,117
248,90	4,703
249,11	12,606
249,33	16,035
249,54	13,597
249,75	9,236
249,97	5,843
250,18	23,194
250,40	15,625
250,61	9,193
250,83	5,266
251,04	9,515
251,25	13,809
251,47	13,087
251,68	8,191
251,90	9,198
252,11	9,157
252,33	11,046
252,54	8,687
252,76	4,728
252,97	0,978
253,18	10,132
253,40	8,872
253,61	5,266
253,83	9,010
254,04	8,562
254,25	6,202
254,47	3,008
254,68	9,746
254,90	5,991
255,11	4,564
255,33	10,114
255,54	10,142
255,75	5,792
255,97	8,861
256,18	6,127
256,40	11,871
256,61	11,156
256,82	4,541
257,04	12,958
257,25	7,133
257,47	10,169
257,68	10,767
257,89	11,141
258,11	8,283
258,32	13,340
258,54	7,463
258,75	19,472
258,96	7,883
259,18	10,229
259,39	6,799
259,61	9,939
259,82	4,262
260,03	6,200
260,25	8,662
260,46	7,813
260,68	6,693
260,89	8,357
261,10	9,277
261,32	7,171
261,53	1,116
261,75	11,196
261,96	7,231
262,17	19,669
262,39	11,824
262,60	3,340
262,81	5,039
263,03	11,448
263,24	9,183
263,46	4,406
263,67	11,243
263,88	9,721
264,10	7,532
264,31	7,932
264,52	8,149
264,74	11,519
264,95	6,160
265,17	10,331
265,38	10,883
265,59	14,079
265,81	11,380
266,02	4,338
266,23	4,704
266,45	12,702
266,66	9,716
266,87	7,312
267,09	6,039
267,30	12,371
267,52	14,019
267,73	7,372
267,94	2,856
268,16	10,391
268,37	3,449
268,58	10,129
268,80	2,170
269,01	11,834
269,22	10,889
269,44	9,294
269,65	9,559
269,86	7,336
270,08	8,995
270,29	6,679
270,50	4,739
270,72	12,057
270,93	4,099
271,14	7,500
271,36	6,636
271,57	10,372
271,78	6,615
272,00	7,978
272,21	11,101
272,42	6,269
272,64	13,778
272,85	5,623
273,06	5,117
273,28	7,380
273,49	2,141
273,70	9,219
273,92	10,377
274,13	9,280
274,34	2,043
274,56	9,810
274,77	5,853
274,98	12,307
275,20	14,120
275,41	7,799
275,62	5,016
275,84	7,410
276,05	16,760
276,26	6,519
276,47	4,614
276,69	11,966
276,90	13,523
277,11	7,920
277,33	3,933
277,54	12,267
277,75	7,062
277,97	3,535
278,18	3,625
278,39	10,921
278,61	5,812
278,82	11,323
279,03	11,265
279,24	6,198
279,46	7,974
279,67	12,753
279,88	7,689
280,10	10,518
280,31	6,563
280,52	5,389
280,73	5,571
280,95	10,094
281,16	8,796
281,37	8,172
281,59	7,275
281,80	12,663
282,01	5,620
282,22	3,792
282,44	7,359
282,65	14,871
282,86	8,935
283,08	3,843
283,29	7,567
283,50	4,127
283,71	8,960
283,93	7,742
284,14	4,428
284,35	8,817
284,56	7,272
284,78	2,632
284,99	8,168
285,20	13,119
285,42	5,896
285,63	5,218
285,84	4,360
286,05	6,968
286,27	5,811
286,48	9,712
286,69	7,607
286,90	6,657
287,12	5,184
287,33	6,142
287,54	6,765
287,75	13,172
287,97	5,491
288,18	5,565
288,39	6,529
288,60	9,148
288,82	5,413
289,03	4,409
289,24	8,153
289,45	10,764
289,67	8,638
289,88	4,698
290,09	10,092
290,30	8,259
290,52	5,127
290,73	3,903
290,94	7,416
291,15	6,171
291,37	7,395
291,58	6,544
291,79	8,405
292,00	4,937
292,21	7,846
292,43	9,010
292,64	2,733
292,85	6,568
293,06	8,421
293,28	5,371
293,49	5,648
293,70	10,786
293,91	3,828
294,12	5,981
294,34	6,324
294,55	8,372
294,76	8,675
294,97	8,096
295,19	7,006
295,40	5,962
295,61	7,550
295,82	7,959
296,03	6,842
296,25	8,312
296,46	3,606
296,67	6,961
296,88	7,848
297,09	3,022
297,31	5,164
297,52	9,155
297,73	5,293
297,94	5,172
298,15	8,156
298,37	6,118
298,58	4,448
298,79	9,118
299,00	1,652
299,21	6,604
299,43	3,013
299,64	10,610
299,85	4,211
300,06	4,255
300,27	3,578
300,49	9,718
300,70	9,441
300,91	4,893
301,12	5,726
301,33	10,026
301,54	6,528
301,76	7,830
301,97	4,271
302,18	8,519
302,39	10,443
302,60	5,534
302,82	6,058
303,03	11,355
303,24	6,147
303,45	7,740
303,66	7,263
303,87	3,867
304,09	8,141
304,30	3,316
304,51	6,198
304,72	4,854
304,93	8,383
305,14	6,441
305,36	7,119
305,57	3,830
305,78	8,849
305,99	5,566
306,20	7,244
306,41	4,281
306,62	3,770
306,84	6,792
307,05	7,654
307,26	5,399
307,47	11,485
307,68	4,818
307,89	6,105
308,11	9,475
308,32	7,130
308,53	4,774
308,74	5,567
308,95	5,505
309,16	10,034
309,37	7,129
309,59	4,252
309,80	6,589
310,01	7,882
310,22	7,019
310,43	7,563
310,64	8,833
310,85	7,359
311,06	4,941
311,28	7,166
311,49	7,075
311,70	9,840
311,91	4,823
312,12	4,004
312,33	5,467
312,54	7,302
312,75	8,828
312,97	5,502
313,18	10,106
313,39	3,593
313,60	6,400
313,81	5,755
314,02	7,263
314,23	9,753
314,44	6,478
314,65	4,375
314,87	5,245
315,08	4,543
315,29	6,498
315,50	7,707
315,71	13,324
315,92	9,157
316,13	5,465
316,34	6,176
316,55	9,205
316,77	4,628
316,98	4,444
317,19	5,078
317,40	8,662
317,61	11,242
317,82	6,229
318,03	3,677
318,24	8,045
318,45	10,474
318,66	5,920
318,87	4,636
319,09	7,459
319,30	9,385
319,51	8,606
319,72	7,956
319,93	8,042
320,14	9,229
320,35	8,987
320,56	3,078
320,77	6,988
320,98	11,128
321,19	11,855
321,40	8,536
321,62	6,056
321,83	2,742
322,04	7,786
322,25	7,783
322,46	11,716
322,67	8,602
322,88	9,756
323,09	5,887
323,30	10,924
323,51	12,512
323,72	6,170
323,93	4,236
324,14	4,818
324,35	1,517
324,56	5,142
324,77	5,059
324,99	5,399
325,20	5,508
325,41	7,917
325,62	6,275
325,83	1,707
326,04	5,498
326,25	7,705
326,46	3,033
326,67	5,204
326,88	7,164
327,09	5,575
327,30	7,658
327,51	6,617
327,72	5,158
327,93	6,586
328,14	4,221
328,35	7,964
328,56	4,593
328,77	8,888
328,98	7,572
329,19	6,235
329,40	7,271
329,61	5,805
329,82	2,928
330,04	9,274
330,25	5,663
330,46	6,916
330,67	5,362
330,88	9,034
331,09	4,785
331,30	6,835
331,51	6,624
331,72	8,021
331,93	7,193
332,14	4,863
332,35	8,157
332,56	6,678
332,77	10,679
332,98	5,962
333,19	7,146
333,40	5,505
333,61	5,986
333,82	6,938
334,03	6,279
334,24	14,168
334,45	7,175
334,66	7,946
334,87	5,562
335,08	6,434
335,29	4,096
335,50	6,639
335,71	3,689
335,92	8,908
336,13	6,277
336,34	4,123
336,55	7,172
336,76	8,570
336,97	4,397
337,18	5,468
337,39	7,816
337,60	6,562
337,81	5,449
338,02	8,301
338,23	5,193
338,44	6,446
338,65	3,679
338,86	6,820
339,07	8,141
339,28	4,695
339,49	6,372
339,70	3,695
339,91	5,418
340,11	9,056
340,32	8,239
340,53	4,711
340,74	2,609
340,95	3,935
341,16	7,252
341,37	7,200
341,58	6,815
341,79	6,059
342,00	3,575
342,21	1,458
342,42	5,230
342,63	9,465
342,84	7,103
343,05	6,505
343,26	12,342
343,47	9,326
343,68	4,781
343,89	4,071
344,10	5,007
344,31	5,410
344,52	6,224
344,73	3,263
344,94	3,481
345,14	6,695
345,35	6,766
345,56	3,306
345,77	3,212
345,98	4,998
346,19	9,152
346,40	8,833
346,61	2,971
346,82	7,150
347,03	8,563
347,24	5,650
347,45	6,969
347,66	7,755
347,87	6,257
348,08	10,705
348,28	5,812
348,49	6,158
348,70	9,328
348,91	6,821
349,12	7,031
349,33	0,059
349,54	9,293
349,75	8,849
349,96	6,142
350,17	8,127
350,38	3,751
350,59	5,692
350,80	6,149
351,00	4,068
351,21	10,650
351,42	3,958
351,63	4,505
351,84	7,663
352,05	9,214
352,26	6,960
352,47	7,822
352,68	8,915
352,89	5,412
353,09	4,452
353,30	5,235
353,51	5,127
353,72	14,001
353,93	9,578
354,14	5,722
354,35	4,713
354,56	9,221
354,77	5,370
354,98	3,504
355,18	8,341
355,39	13,367
355,60	3,443
355,81	7,108
356,02	8,297
356,23	5,555
356,44	7,207
356,65	5,230
356,85	9,898
357,06	9,460
357,27	5,851
357,48	3,886
357,69	11,543
357,90	7,233
358,11	2,011
358,32	5,666
358,52	8,453
358,73	6,363
358,94	7,383
359,15	5,933
359,36	10,082
359,57	5,838
359,78	10,747
359,98	7,505
360,19	2,905
360,40	3,693
360,61	9,833
360,82	6,877
361,03	13,775
361,24	16,972
361,44	4,032
361,65	7,612
361,86	5,855
362,07	5,148
362,28	11,174
362,49	7,018
362,70	9,471
362,90	6,163
363,11	4,735
363,32	3,710
363,53	6,119
363,74	9,585
363,95	9,820
364,15	4,833
364,36	9,142
364,57	6,004
364,78	4,713
364,99	4,973
365,20	10,695
365,40	9,973
365,61	5,971
365,82	9,054
366,03	9,750
366,24	4,988
366,45	2,248
366,65	2,918
366,86	6,873
367,07	6,190
367,28	3,856
367,49	3,416
367,69	9,270
367,90	5,756
368,11	6,662
368,32	6,025
368,53	8,178
368,73	5,268
368,94	6,718
369,15	10,538
369,36	10,443
369,57	6,847
369,78	6,830
369,98	6,128
370,19	7,954
370,40	3,611
370,61	8,828
370,82	7,372
371,02	12,823
371,23	7,102
371,44	7,812
371,65	5,906
371,85	11,497
372,06	5,350
372,27	8,370
372,48	5,945
372,69	11,848
372,89	8,110
373,10	7,748
373,31	7,950
373,52	8,292
373,73	11,772
373,93	6,794
374,14	9,157
374,35	5,159
374,56	9,307
374,76	6,555
374,97	6,404
375,18	11,156
375,39	7,031
375,60	8,538
375,80	6,101
376,01	5,186
376,22	9,909
376,43	7,151
376,63	9,034
376,84	10,403
377,05	6,754
377,26	6,586
377,46	7,095
377,67	7,072
377,88	4,864
378,09	7,107
378,29	9,164
378,50	4,673
378,71	8,267
378,92	4,873
379,12	5,140
379,33	5,817
379,54	8,348
379,75	12,010
379,95	10,001
380,16	6,915
380,37	8,950
380,58	6,930
380,78	8,490
380,99	5,034
381,20	6,822
381,41	10,269
381,61	7,985
381,82	10,579
382,03	8,376
382,24	12,888
382,44	7,770
382,65	7,710
382,86	13,072
383,06	11,809
383,27	11,042
383,48	7,008
383,69	8,347
383,89	7,308
384,10	6,467
384,31	7,401
384,51	12,813
384,72	11,207
384,93	9,188
385,14	6,449
385,34	5,347
385,55	7,366
385,76	4,832
385,96	12,846
386,17	9,576
386,38	8,536
386,59	14,359
386,79	11,163
387,00	15,572
387,21	12,469
387,41	8,417
387,62	10,028
387,83	13,797
388,03	8,029
388,24	9,470
388,45	9,733
388,66	10,441
388,86	6,771
389,07	8,949
389,28	14,472
389,48	11,393
389,69	8,211
389,90	6,368
390,10	7,477
390,31	14,627
390,52	9,967
390,72	9,659
390,93	11,410
391,14	9,591
391,34	10,682
391,55	10,389
391,76	14,610
391,96	19,015
392,17	10,003
392,38	8,685
392,58	11,051
392,79	10,107
393,00	8,353
393,20	11,791
393,41	12,539
393,62	15,296
393,82	9,053
394,03	13,030
394,24	10,181
394,44	15,388
394,65	15,737
394,86	10,074
395,06	16,700
395,27	12,128
395,48	14,822
395,68	9,421
395,89	10,984
396,10	19,210
396,30	9,631
396,51	11,551
396,72	15,731
396,92	8,614
397,13	15,717
397,34	9,409
397,54	13,228
397,75	14,756
397,95	11,419
398,16	13,005
398,37	13,599
398,57	8,145
398,78	12,252
398,99	15,347
399,19	16,359
399,40	19,915
399,60	11,984
399,81	18,655
400,02	22,123
400,22	13,395
400,43	16,270
400,64	13,251
400,84	10,817
401,05	17,694
401,25	16,283
401,46	15,176
401,67	18,831
401,87	15,991
402,08	12,348
402,29	16,312
402,49	20,437
402,70	18,652
402,90	13,747
403,11	17,433
403,32	13,864
403,52	12,380
403,73	15,312
403,93	21,375
404,14	25,888
404,35	15,639
404,55	13,506
404,76	15,964
404,96	16,976
405,17	22,811
405,38	24,540
405,58	18,088
405,79	22,209
405,99	22,805
406,20	20,013
406,40	19,544
406,61	19,088
406,82	17,975
407,02	19,897
407,23	14,403
407,43	17,824
407,64	15,789
407,85	20,713
408,05	17,717
408,26	28,992
408,46	26,575
408,67	19,811
408,87	20,230
409,08	16,515
409,29	27,446
409,49	25,391
409,70	19,447
409,90	23,080
410,11	20,682
410,31	24,016
410,52	22,251
410,72	21,423
410,93	24,554
411,14	22,974
411,34	19,053
411,55	21,573
411,75	25,280
411,96	24,525
412,16	24,486
412,37	20,235
412,57	22,061
412,78	26,903
412,99	20,432
413,19	25,312
413,40	23,219
413,60	22,740
413,81	23,030
414,01	22,214
414,22	25,509
414,42	23,264
414,63	23,446
414,83	23,040
415,04	29,251
415,24	24,905
415,45	24,330
415,65	25,446
415,86	30,238
416,07	25,148
416,27	25,171
416,48	30,470
416,68	32,958
416,89	22,088
417,09	28,082
417,30	31,309
417,50	18,736
417,71	27,067
417,91	28,121
418,12	24,114
418,32	27,686
418,53	22,737
418,73	26,826
418,94	25,819
419,14	29,812
419,35	25,135
419,55	26,998
419,76	26,695
419,96	25,860
420,17	24,622
420,37	23,335
420,58	28,059
420,78	29,280
420,99	24,910
421,19	29,927
421,40	31,435
421,60	31,004
421,81	23,781
422,01	29,650
422,22	28,968
422,42	29,998
422,63	29,160
422,83	28,149
423,04	35,015
423,24	38,829
423,45	25,754
423,65	25,882
423,86	32,273
424,06	31,913
424,27	27,589
424,47	25,955
424,67	22,987
424,88	31,013
425,08	26,704
425,29	31,562
425,49	25,738
425,70	28,382
425,90	28,996
426,11	29,076
426,31	28,842
426,52	30,865
426,72	27,645
426,93	25,292
427,13	32,564
427,33	27,032
427,54	31,159
427,74	30,895
427,95	32,093
428,15	27,829
428,36	25,569
428,56	25,218
428,77	29,395
428,97	31,048
429,18	29,069
429,38	28,424
429,58	28,673
429,79	32,018
429,99	26,320
430,20	29,949
430,40	35,779
430,61	25,647
430,81	30,034
431,01	32,973
431,22	34,687
431,42	32,949
431,63	24,927
431,83	31,574
432,04	34,582
432,24	32,213
432,44	29,446
432,65	30,121
432,85	29,111
433,06	33,752
433,26	29,033
433,47	29,483
433,67	28,142
433,87	30,304
434,08	30,195
434,28	27,835
434,49	30,379
434,69	39,221
434,89	35,634
435,10	30,863
435,30	34,723
435,51	28,866
435,71	29,168
435,91	29,676
436,12	28,504
436,32	30,877
436,53	30,505
436,73	30,606
436,93	33,828
437,14	30,548
437,34	30,330
437,55	28,315
437,75	32,378
437,95	35,946
438,16	27,503
438,36	29,555
438,57	30,292
438,77	28,502
438,97	31,913
439,18	31,318
439,38	31,857
439,58	29,041
439,79	30,277
439,99	24,157
440,20	36,631
440,40	35,495
440,60	31,339
440,81	29,903
441,01	31,682
441,21	33,305
441,42	34,161
441,62	32,235
441,83	33,109
442,03	29,801
442,23	31,638
442,44	32,807
442,64	33,304
442,84	28,326
443,05	34,028
443,25	28,246
443,45	32,635
443,66	31,366
443,86	28,834
444,06	31,835
444,27	30,256
444,47	36,494
444,67	33,138
444,88	31,680
445,08	32,349
445,28	27,536
445,49	30,348
445,69	31,648
445,90	35,920
446,10	35,491
446,30	26,297
446,51	29,822
446,71	35,170
446,91	32,162
447,12	36,984
447,32	30,627
447,52	35,980
447,72	35,484
447,93	28,587
448,13	28,531
448,33	35,235
448,54	35,453
448,74	27,294
448,94	31,003
449,15	31,994
449,35	30,234
449,55	35,681
449,76	31,524
449,96	31,381
450,16	30,326
450,37	26,699
450,57	34,011
450,77	28,655
450,98	28,785
451,18	34,511
451,38	34,283
451,58	35,085
451,79	30,317
451,99	31,973
452,19	34,293
452,40	39,133
452,60	29,033
452,80	35,356
453,00	34,263
453,21	29,395
453,41	34,835
453,61	28,682
453,82	32,587
454,02	26,343
454,22	47,890
454,42	34,605
454,63	30,489
454,83	29,572
455,03	37,571
455,24	31,762
455,44	32,841
455,64	32,096
455,84	29,739
456,05	28,330
456,25	26,960
456,45	29,839
456,65	28,333
456,86	32,157
457,06	33,134
457,26	32,397
457,47	36,642
457,67	27,623
457,87	27,873
458,07	32,742
458,28	31,603
458,48	37,473
458,68	27,780
458,88	38,009
459,09	30,031
459,29	35,585
459,49	27,455
459,69	33,913
459,90	37,525
460,10	32,898
460,30	35,228
460,50	31,414
460,71	34,908
460,91	28,069
461,11	35,410
461,31	32,904
461,52	33,632
461,72	35,662
461,92	29,076
462,12	37,500
462,32	27,338
462,53	29,973
462,73	32,246
462,93	32,882
463,13	36,294
463,34	32,066
463,54	34,765
463,74	31,341
463,94	29,201
464,14	35,665
464,35	28,692
464,55	34,157
464,75	40,069
464,95	30,738
465,16	27,270
465,36	36,481
465,56	29,709
465,76	30,220
465,96	33,022
466,17	31,839
466,37	28,098
466,57	34,937
466,77	32,725
466,97	30,136
467,18	33,856
467,38	35,914
467,58	38,006
467,78	34,670
467,98	33,551
468,19	31,925
468,39	34,728
468,59	28,190
468,79	31,855
468,99	30,610
469,19	29,305
469,40	32,825
469,60	31,283
469,80	32,371
470,00	34,415
470,20	36,508
470,41	29,324
470,61	36,792
470,81	33,831
471,01	31,114
471,21	35,838
471,41	32,857
471,62	32,849
471,82	32,692
472,02	32,317
472,22	30,511
472,42	30,287
472,62	35,163
472,83	28,263
473,03	32,148
473,23	30,555
473,43	37,867
473,63	35,151
473,83	31,912
474,03	33,533
474,24	34,535
474,44	31,094
474,64	30,758
474,84	27,304
475,04	29,723
475,24	33,472
475,45	32,819
475,65	34,304
475,85	34,896
476,05	25,232
476,25	30,955
476,45	33,576
476,65	34,717
476,85	29,989
477,06	31,706
477,26	27,674
477,46	31,561
477,66	32,880
477,86	31,591
478,06	33,302
478,26	37,814
478,46	31,230
478,67	33,729
478,87	30,125
479,07	31,134
479,27	33,953
479,47	30,791
479,67	26,198
479,87	28,467
480,07	34,405
480,28	32,505
480,48	29,992
480,68	34,891
480,88	37,078
481,08	34,888
481,28	33,651
481,48	31,006
481,68	31,101
481,88	27,130
482,08	30,488
482,29	33,712
482,49	30,362
482,69	31,417
482,89	28,365
483,09	36,240
483,29	30,966
483,49	30,943
483,69	32,015
483,89	32,683
484,09	29,763
484,29	29,379
484,50	30,526
484,70	33,095
484,90	29,600
485,10	33,662
485,30	32,537
485,50	36,579
485,70	32,136
485,90	28,588
486,10	28,938
486,30	29,458
486,50	30,431
486,70	28,107
486,90	30,521
487,10	31,994
487,30	31,000
487,51	29,413
487,71	29,443
487,91	29,756
488,11	34,511
488,31	30,790
488,51	29,812
488,71	29,752
488,91	30,996
489,11	29,266
489,31	30,844
489,51	32,710
489,71	28,778
489,91	29,192
490,11	31,624
490,31	33,431
490,51	33,941
490,71	33,838
490,91	29,440
491,11	31,030
491,31	32,729
491,51	29,776
491,72	29,423
491,92	32,075
492,12	35,573
492,32	32,224
492,52	34,319
492,72	29,320
492,92	29,240
493,12	33,121
493,32	30,044
493,52	30,451
493,72	31,407
493,92	31,333
494,12	30,493
494,32	32,260
494,52	30,709
494,72	30,864
494,92	28,827
495,12	34,198
495,32	35,212
495,52	32,528
495,72	29,956
495,92	30,982
496,12	33,189
496,32	32,509
496,52	31,715
496,72	33,449
496,92	31,452
497,12	32,005
497,32	31,712
497,52	31,227
497,72	31,889
497,92	32,462
498,12	32,132
498,32	31,843
498,52	32,009
498,72	30,088
498,92	29,910
499,12	32,980
499,32	28,378
499,52	33,343
499,72	31,008
499,92	35,901
500,12	32,903
500,32	30,382
500,52	32,339
500,72	34,371
500,91	36,443
501,11	31,997
501,31	29,904
501,51	33,884
501,71	32,305
501,91	32,697
502,11	29,498
502,31	31,995
502,51	31,236
502,71	34,049
502,91	29,372
503,11	32,153
503,31	32,469
503,51	26,395
503,71	30,532
503,91	32,480
504,11	29,166
504,31	32,381
504,51	29,730
504,71	36,786
504,91	27,728
505,10	32,889
505,30	32,049
505,50	34,083
505,70	31,556
505,90	32,575
506,10	30,999
506,30	32,753
506,50	31,022
506,70	34,611
506,90	31,618
507,10	29,794
507,30	30,705
507,50	29,234
507,70	34,062
507,89	33,342
508,09	30,142
508,29	30,652
508,49	28,298
508,69	31,278
508,89	31,801
509,09	32,366
509,29	30,741
509,49	33,539
509,69	32,457
509,89	33,955
510,09	31,798
510,28	33,359
510,48	33,132
510,68	32,100
510,88	32,924
511,08	34,184
511,28	31,879
511,48	31,096
511,68	26,645
511,88	37,084
512,07	30,086
512,27	30,823
512,47	30,840
512,67	32,364
512,87	29,072
513,07	32,548
513,27	29,267
513,47	30,066
513,67	26,556
513,86	31,581
514,06	33,454
514,26	33,247
514,46	33,797
514,66	30,661
514,86	32,184
515,06	36,441
515,26	34,230
515,45	31,046
515,65	31,331
515,85	31,725
516,05	30,826
516,25	30,794
516,45	34,670
516,65	30,478
516,84	30,468
517,04	33,320
517,24	31,129
517,44	33,540
517,64	32,924
517,84	35,875
518,04	30,937
518,23	33,768
518,43	34,974
518,63	32,503
518,83	29,193
519,03	32,554
519,23	31,934
519,42	32,523
519,62	32,726
519,82	30,453
520,02	32,180
520,22	34,160
520,42	32,173
520,61	34,968
520,81	31,218
521,01	34,066
521,21	28,880
521,41	31,312
521,61	36,771
521,80	32,002
522,00	31,801
522,20	35,904
522,40	32,871
522,60	31,676
522,79	31,243
522,99	36,028
523,19	28,833
523,39	31,101
523,59	32,076
523,78	33,343
523,98	31,105
524,18	33,964
524,38	29,294
524,58	33,577
524,77	34,574
524,97	32,757
525,17	32,665
525,37	30,832
525,57	37,222
525,76	34,801
525,96	36,965
526,16	30,197
526,36	31,842
526,56	30,866
526,75	33,684
526,95	33,360
527,15	32,097
527,35	33,023
527,55	29,887
527,74	28,846
527,94	30,186
528,14	30,066
528,34	31,846
528,53	30,189
528,73	37,406
528,93	33,008
529,13	32,796
529,32	31,385
529,52	32,949
529,72	32,859
529,92	31,671
530,12	33,498
530,31	33,167
530,51	34,915
530,71	29,944
530,91	36,708
531,10	28,824
531,30	33,575
531,50	30,978
531,70	33,359
531,89	35,560
532,09	29,087
532,29	31,238
532,49	30,681
532,68	30,467
532,88	30,218
533,08	31,130
533,28	32,994
533,47	34,314
533,67	33,488
533,87	32,930
534,06	38,364
534,26	31,492
534,46	31,529
534,66	32,944
534,85	34,671
535,05	29,534
535,25	29,051
535,45	30,307
535,64	34,759
535,84	35,418
536,04	27,998
536,23	33,212
536,43	34,233
536,63	31,324
536,83	33,657
537,02	32,107
537,22	29,195
537,42	32,588
537,61	31,706
537,81	31,881
538,01	32,951
538,20	32,665
538,40	30,596
538,60	31,531
538,80	29,347
538,99	32,628
539,19	32,053
539,39	30,983
539,58	31,280
539,78	30,709
539,98	28,895
540,17	29,312
540,37	32,679
540,57	28,268
540,76	29,762
540,96	25,771
541,16	32,479
541,36	28,850
541,55	27,239
541,75	29,266
541,95	30,248
542,14	27,803
542,34	25,371
542,54	25,237
542,73	28,272
542,93	26,781
543,13	26,353
543,32	26,139
543,52	29,994
543,72	25,655
543,91	29,970
544,11	28,460
544,31	23,863
544,50	27,962
544,70	29,842
544,89	29,550
545,09	30,739
545,29	28,270
545,48	31,346
545,68	26,920
545,88	31,120
546,07	28,501
546,27	29,202
546,47	30,373
546,66	30,981
546,86	29,832
547,06	29,730
547,25	28,579
547,45	30,368
547,64	31,396
547,84	34,471
548,04	32,332
548,23	35,527
548,43	31,657
548,63	31,617
548,82	31,126
549,02	31,431
549,21	29,816
549,41	31,702
549,61	32,506
549,80	30,784
550,00	32,208
550,20	30,565
550,39	33,123
550,59	33,470
550,78	33,724
550,98	32,234
551,18	33,775
551,37	33,485
551,57	31,836
551,76	32,499
551,96	31,902
552,16	32,490
552,35	33,172
552,55	28,746
552,74	31,375
552,94	34,468
553,14	30,600
553,33	32,878
553,53	32,209
553,72	31,763
553,92	33,396
554,12	31,403
554,31	32,758
554,51	32,267
554,70	28,794
554,90	31,784
555,09	35,153
555,29	31,764
555,49	33,222
555,68	34,815
555,88	29,952
556,07	30,922
556,27	34,714
556,46	31,498
556,66	29,827
556,86	37,184
557,05	33,468
557,25	31,074
557,44	31,567
557,64	31,773
557,83	31,119
558,03	32,165
558,22	29,246
558,42	33,032
558,62	31,958
558,81	35,725
559,01	33,615
559,20	33,444
559,40	31,764
559,59	31,376
559,79	28,938
559,98	31,508
560,18	32,377
560,37	31,554
560,57	34,124
560,76	30,555
560,96	26,803
561,16	29,938
561,35	30,229
561,55	34,633
561,74	32,860
561,94	33,501
562,13	32,716
562,33	32,780
562,52	31,793
562,72	29,622
562,91	31,119
563,11	31,408
563,30	33,389
563,50	32,269
563,69	30,114
563,89	29,360
564,08	31,779
564,28	29,639
564,47	32,936
564,67	32,856
564,86	32,399
565,06	30,439
565,25	31,005
565,45	30,573
565,64	34,672
565,84	31,437
566,03	28,386
566,23	31,709
566,42	31,945
566,62	31,309
566,81	31,280
567,01	30,260
567,20	31,271
567,40	32,071
567,59	29,492
567,79	34,884
567,98	35,284
568,18	29,589
568,37	33,934
568,57	32,023
568,76	31,923
568,96	32,383
569,15	30,185
569,35	32,266
569,54	35,836
569,73	33,141
569,93	32,308
570,12	31,541
570,32	34,357
570,51	33,261
570,71	34,117
570,90	32,307
571,10	31,878
571,29	30,785
571,49	31,206
571,68	32,980
571,87	33,640
572,07	33,714
572,26	28,570
572,46	32,210
572,65	31,722
572,85	30,395
573,04	32,307
573,24	30,349
573,43	33,262
573,62	32,440
573,82	32,762
574,01	30,807
574,21	29,399
574,40	30,903
574,60	28,516
574,79	34,813
574,98	30,014
575,18	31,965
575,37	28,633
575,57	30,652
575,76	32,222
575,96	31,403
576,15	32,224
576,34	30,832
576,54	32,057
576,73	31,348
576,93	30,402
577,12	31,954
577,31	31,465
577,51	31,148
577,70	30,423
577,90	32,197
578,09	32,357
578,28	30,908
578,48	30,891
578,67	31,855
578,87	32,264
579,06	30,752
579,25	31,696
579,45	32,213
579,64	30,558
579,84	30,689
580,03	31,383
580,22	32,694
580,42	30,920
580,61	31,958
580,81	31,950
581,00	30,974
581,19	33,223
581,39	30,377
581,58	30,505
581,77	30,734
581,97	33,617
582,16	30,564
582,35	29,788
582,55	30,636
582,74	32,227
582,94	31,803
583,13	31,805
583,32	30,265
583,52	31,277
583,71	31,270
583,90	32,037
584,10	31,448
584,29	33,756
584,48	30,169
584,68	30,345
584,87	32,891
585,06	30,707
585,26	30,350
585,45	30,604
585,65	32,604
585,84	31,410
586,03	30,620
586,23	29,572
586,42	31,324
586,61	34,493
586,81	32,646
587,00	30,210
587,19	31,224
587,39	32,665
587,58	31,259
587,77	30,683
587,97	29,870
588,16	32,182
588,35	30,705
588,54	31,399
588,74	32,617
588,93	33,927
589,12	31,858
589,32	30,895
589,51	29,369
589,70	30,963
589,90	29,433
590,09	28,755
590,28	34,167
590,48	29,036
590,67	32,602
590,86	30,960
591,06	31,797
591,25	32,849
591,44	32,682
591,63	32,726
591,83	31,205
592,02	31,788
592,21	31,292
592,41	32,759
592,60	33,584
592,79	32,159
592,98	32,102
593,18	30,824
593,37	31,409
593,56	31,611
593,76	31,730
593,95	31,309
594,14	30,469
594,33	33,476
594,53	31,193
594,72	29,837
594,91	32,258
595,10	31,362
595,30	31,750
595,49	30,594
595,68	33,782
595,88	34,010
596,07	31,681
596,26	33,529
596,45	31,213
596,65	29,162
596,84	31,209
597,03	32,564
597,22	29,979
597,42	32,937
597,61	29,968
597,80	32,848
597,99	30,255
598,19	32,217
598,38	30,770
598,57	30,288
598,76	33,646
598,95	31,769
599,15	31,970
599,34	30,385
599,53	29,534
599,72	31,050
599,92	33,036
600,11	32,729
600,30	31,954
600,49	34,119
600,69	30,908
600,88	31,293
601,07	30,523
601,26	30,467
601,45	30,919
601,65	29,840
601,84	31,738
602,03	30,335
602,22	31,662
602,42	32,827
602,61	30,395
602,80	31,844
602,99	31,661
603,18	30,457
603,38	33,295
603,57	30,963
603,76	29,362
603,95	30,009
604,14	32,453
604,34	29,709
604,53	30,329
604,72	32,228
604,91	32,930
605,10	31,934
605,29	33,598
605,49	29,406
605,68	31,607
605,87	34,984
606,06	30,859
606,25	30,386
606,45	32,420
606,64	31,161
606,83	32,830
607,02	30,256
607,21	31,891
607,40	31,783
607,60	29,664
607,79	29,468
607,98	30,062
608,17	30,119
608,36	30,771
608,55	30,263
608,75	32,240
608,94	30,558
609,13	28,335
609,32	28,260
609,51	30,962
609,70	30,774
609,89	28,480
610,09	27,697
610,28	28,591
610,47	28,579
610,66	29,555
610,85	26,952
611,04	28,884
611,23	26,904
611,43	27,675
611,62	29,002
611,81	27,761
612,00	30,225
612,19	27,622
612,38	30,162
612,57	28,499
612,77	29,085
612,96	29,205
613,15	30,006
613,34	30,153
613,53	30,302
613,72	30,228
613,91	28,255
614,10	30,511
614,29	31,575
614,49	28,612
614,68	27,858
614,87	30,178
615,06	32,841
615,25	29,985
615,44	30,952
615,63	31,410
615,82	29,756
616,01	31,534
616,21	27,372
616,40	32,477
616,59	32,415
616,78	30,178
616,97	30,418
617,16	29,798
617,35	31,194
617,54	29,607
617,73	30,950
617,92	31,323
618,11	31,153
618,31	31,227
618,50	31,105
618,69	29,867
618,88	31,328
619,07	28,139
619,26	29,134
619,45	29,192
619,64	28,903
619,83	30,085
620,02	31,001
620,21	31,769
620,40	31,820
620,59	29,959
620,78	29,873
620,97	31,012
621,17	33,069
621,36	30,253
621,55	28,516
621,74	31,587
621,93	32,497
622,12	29,869
622,31	28,747
622,50	31,129
622,69	32,250
622,88	31,780
623,07	32,493
623,26	30,978
623,45	32,783
623,64	31,509
623,83	30,124
624,02	31,465
624,21	31,886
624,40	29,769
624,59	28,868
624,78	30,726
624,97	33,530
625,16	28,671
625,35	29,444
625,54	28,609
625,73	28,512
625,92	30,879
626,12	33,154
626,31	32,400
626,50	34,208
626,69	30,545
626,88	30,819
627,07	30,739
627,26	29,970
627,45	32,163
627,64	29,333
627,83	31,540
628,02	28,497
628,21	30,318
628,40	30,415
628,59	32,756
628,78	27,763
628,97	30,676
629,16	29,098
629,35	30,800
629,54	32,509
629,73	31,185
629,92	29,446
630,10	31,392
630,29	30,774
630,48	29,225
630,67	29,410
630,86	31,283
631,05	30,237
631,24	32,059
631,43	28,278
631,62	30,827
631,81	30,292
632,00	30,193
632,19	27,962
632,38	31,853
632,57	31,640
632,76	28,403
632,95	31,833
633,14	32,773
633,33	32,536
633,52	31,400
633,71	30,795
633,90	27,402
634,09	30,568
634,28	30,488
634,47	29,598
634,66	30,991
634,85	29,237
635,04	31,896
635,22	28,929
635,41	30,918
635,60	32,736
635,79	32,287
635,98	30,302
636,17	31,293
636,36	28,076
636,55	28,244
636,74	29,623
636,93	30,643
637,12	29,653
637,31	29,864
637,50	29,504
637,69	31,873
637,87	32,531
638,06	28,242
638,25	28,995
638,44	29,994
638,63	28,032
638,82	29,953
639,01	30,662
639,20	29,961
639,39	32,602
639,58	30,217
639,77	29,119
639,95	29,647
640,14	31,234
640,33	30,061
640,52	29,259
640,71	32,005
640,90	29,851
641,09	31,377
641,28	29,768
641,47	30,687
641,66	31,369
641,84	33,277
642,03	28,684
642,22	29,485
642,41	33,195
642,60	29,828
642,79	31,192
642,98	30,589
643,17	31,679
643,35	29,919
643,54	30,220
643,73	31,232
643,92	31,063
644,11	31,524
644,30	29,239
644,49	31,980
644,67	29,137
644,86	30,739
645,05	30,503
645,24	29,920
645,43	29,402
645,62	30,448
645,81	28,156
645,99	28,964
646,18	32,091
646,37	31,205
646,56	30,236
646,75	30,610
646,94	32,349
647,13	28,890
647,31	29,988
647,50	29,689
647,69	32,657
647,88	30,852
648,07	30,871
648,26	34,097
648,44	30,341
648,63	31,334
648,82	30,064
649,01	31,820
649,20	29,152
649,38	31,190
649,57	30,049
649,76	29,141
649,95	30,191
650,14	29,212
650,33	30,137
650,51	30,884
650,70	29,168
650,89	29,975
651,08	30,157
651,27	31,363
651,45	29,182
651,64	29,344
651,83	29,934
652,02	28,548
652,21	29,902
652,39	32,515
652,58	32,485
652,77	32,755
652,96	29,623
653,15	31,749
653,33	31,173
653,52	30,221
653,71	31,771
653,90	31,348
654,09	30,168
654,27	29,810
654,46	31,207
654,65	31,064
654,84	30,445
655,02	32,417
655,21	30,309
655,40	31,700
655,59	30,376
655,77	31,321
655,96	31,493
656,15	31,950
656,34	31,556
656,53	31,283
656,71	31,104
656,90	31,899
657,09	31,987
657,28	31,826
657,46	30,362
657,65	30,244
657,84	30,653
658,03	30,125
658,21	30,785
658,40	28,909
658,59	29,881
658,78	30,734
658,96	29,231
659,15	31,010
659,34	28,729
659,52	30,835
659,71	31,141
659,90	29,747
660,09	29,358
660,27	30,121
660,46	32,441
660,65	31,045
660,84	28,906
661,02	30,273
661,21	32,340
661,40	32,489
661,58	30,601
661,77	31,053
661,96	27,701
662,15	30,708
662,33	31,132
662,52	30,377
662,71	30,438
662,89	29,882
663,08	29,915
663,27	31,681
663,45	29,827
663,64	31,716
663,83	29,272
664,02	29,027
664,20	31,942
664,39	29,798
664,58	30,877
664,76	29,456
664,95	31,678
665,14	31,822
665,32	29,833
665,51	29,808
665,70	31,025
665,88	31,409
666,07	30,148
666,26	31,675
666,44	31,474
666,63	27,902
666,82	29,644
667,00	30,112
667,19	29,388
667,38	31,796
667,56	30,406
667,75	31,833
667,94	30,315
668,12	29,475
668,31	33,127
668,50	31,626
668,68	31,094
668,87	30,611
669,06	30,993
669,24	31,398
669,43	30,866
669,62	29,533
669,80	28,726
669,99	29,214
670,18	30,607
670,36	29,231
670,55	32,509
670,74	29,098
670,92	29,035
671,11	32,050
671,29	27,922
671,48	28,602
671,67	30,015
671,85	30,072
672,04	31,422
672,23	29,119
672,41	28,989
672,60	30,804
672,78	29,624
672,97	29,792
673,16	31,211
673,34	30,864
673,53	29,146
673,71	30,712
673,90	30,622
674,09	31,127
674,27	32,024
674,46	29,415
674,64	29,861
674,83	29,949
675,02	29,227
675,20	28,706
675,39	28,072
675,57	28,755
675,76	29,329
675,95	32,330
676,13	29,330
676,32	29,098
676,50	29,690
676,69	28,274
676,88	30,175
677,06	27,515
677,25	30,200
677,43	31,928
677,62	30,923
677,80	29,990
677,99	30,083
678,18	31,968
678,36	31,753
678,55	28,087
678,73	28,843
678,92	30,044
679,10	30,689
679,29	30,930
679,48	28,271
679,66	29,405
679,85	31,487
680,03	30,280
680,22	29,823
680,40	29,234
680,59	30,727
680,77	28,998
680,96	29,912
681,15	30,970
681,33	32,161
681,52	30,685
681,70	30,617
681,89	33,038
682,07	29,864
682,26	29,006
682,44	30,819
682,63	28,957
682,81	31,140
683,00	29,861
683,18	28,515
683,37	30,623
683,55	28,279
683,74	31,317
683,92	35,316
684,11	31,271
684,29	29,660
684,48	29,318
684,67	29,493
684,85	29,978
685,04	30,843
685,22	30,328
685,41	29,629
685,59	30,650
685,78	28,280
685,96	29,117
686,15	28,938
686,33	29,192
686,52	29,416
686,70	29,183
686,89	29,662
687,07	29,877
687,26	29,485
687,44	29,434
687,62	29,498
687,81	30,167
687,99	30,822
688,18	30,481
688,36	30,572
688,55	31,584
688,73	29,872
688,92	29,900
689,10	30,173
689,29	30,693
689,47	29,972
689,66	28,522
689,84	30,102
690,03	30,743
690,21	29,347
690,40	28,745
690,58	29,217
690,76	28,278
690,95	30,221
691,13	28,196
691,32	29,972
691,50	30,238
691,69	30,648
691,87	29,817
692,06	28,946
692,24	30,649
692,43	30,585
692,61	30,076
692,79	29,820
692,98	27,610
693,16	30,074
693,35	28,857
693,53	31,559
693,72	30,675
693,90	32,146
694,08	28,667
694,27	29,360
694,45	30,267
694,64	33,440
694,82	29,083
695,01	29,805
695,19	28,664
695,37	29,998
695,56	29,797
695,74	30,451
695,93	30,661
696,11	28,104
696,29	30,692
696,48	30,566
696,66	31,684
696,85	28,143
697,03	29,511
697,21	29,750
697,40	32,299
697,58	29,810
697,77	30,941
697,95	29,998
698,13	28,928
698,32	28,895
698,50	28,436
698,69	28,661
698,87	31,777
699,05	30,908
699,24	29,307
699,42	30,018
699,60	27,363
699,79	28,748
699,97	28,052
700,16	28,353
700,34	34,154
700,52	28,939
700,71	28,995
700,89	27,878
701,07	27,505
701,26	29,730
701,44	29,078
701,63	29,600
701,81	29,567
701,99	29,344
702,18	29,964
702,36	28,809
702,54	30,511
702,73	30,061
702,91	29,083
703,09	27,920
703,28	27,948
703,46	29,643
703,64	30,618
703,83	30,098
704,01	29,346
704,19	29,160
704,38	28,697
704,56	29,584
704,74	30,907
704,93	28,568
705,11	29,447
705,29	29,726
705,48	32,388
705,66	29,106
705,84	28,968
706,03	27,623
706,21	27,899
706,39	29,049
706,58	27,451
706,76	30,022
706,94	30,195
707,12	30,034
707,31	28,763
707,49	29,391
707,67	29,490
707,86	32,320
708,04	30,508
708,22	29,337
708,41	30,010
708,59	28,700
708,77	29,815
708,95	29,619
709,14	32,077
709,32	29,987
709,50	28,141
709,69	29,590
709,87	29,959
710,05	27,127
710,23	28,226
710,42	29,423
710,60	30,677
710,78	31,346
710,97	29,389
711,15	29,573
711,33	29,141
711,51	29,128
711,70	28,168
711,88	29,904
712,06	30,745
712,24	30,766
712,43	28,732
712,61	29,076
712,79	29,405
712,97	27,523
713,16	30,471
713,34	27,121
713,52	31,408
713,70	30,381
713,89	28,711
714,07	28,687
714,25	29,309
714,43	29,840
714,62	27,456
714,80	28,933
714,98	27,605
715,16	27,818
715,35	27,889
715,53	29,844
715,71	32,041
715,89	32,117
716,07	30,945
716,26	29,510
716,44	30,179
716,62	29,623
716,80	31,528
716,99	29,582
717,17	32,095
717,35	29,545
717,53	29,265
717,71	29,535
717,90	30,517
718,08	29,926
718,26	29,985
718,44	32,022
718,62	32,098
718,81	30,460
718,99	28,170
719,17	30,901
719,35	30,308
719,53	29,246
719,72	26,890
719,90	28,320
720,08	29,288
720,26	31,319
720,44	27,081
720,62	28,744
720,81	32,317
720,99	31,640
721,17	29,197
721,35	30,253
721,53	28,912
721,72	31,875
721,90	28,647
722,08	30,014
722,26	29,036
722,44	30,575
722,62	28,130
722,81	27,114
722,99	28,658
723,17	29,145
723,35	29,406
723,53	31,958
723,71	29,857
723,89	34,336
724,08	30,056
724,26	28,537
724,44	30,069
724,62	31,261
724,80	27,174
724,98	28,732
725,16	32,509
725,35	29,974
725,53	29,702
725,71	29,381
725,89	27,947
726,07	34,351
726,25	31,503
726,43	28,161
726,61	30,796
726,80	30,750
726,98	28,903
727,16	26,813
727,34	31,002
727,52	28,569
727,70	27,672
727,88	29,246
728,06	25,084
728,25	27,458
728,43	27,797
728,61	27,299
728,79	28,204
728,97	31,722
729,15	28,897
729,33	31,481
729,51	30,527
729,69	31,054
729,87	29,253
730,06	31,224
730,24	30,645
730,42	32,523
730,60	29,285
730,78	30,754
730,96	30,973
731,14	30,279
731,32	30,591
731,50	29,150
731,68	28,264
731,86	32,086
732,04	30,531
732,22	29,157
732,41	36,017
732,59	28,971
732,77	30,460
732,95	29,776
733,13	31,078
733,31	30,101
733,49	28,965
733,67	29,783
733,85	31,465
734,03	29,089
734,21	27,774
734,39	30,022
734,57	30,623
734,75	30,413
734,93	28,308
735,11	30,794
735,29	27,833
735,47	30,534
735,65	27,426
735,84	27,865
736,02	28,757
736,20	33,003
736,38	27,738
736,56	30,168
736,74	29,168
736,92	28,598
737,10	29,132
737,28	30,419
737,46	30,542
737,64	29,507
737,82	28,607
738,00	30,364
738,18	29,715
738,36	31,076
738,54	28,609
738,72	28,628
738,90	29,595
739,08	28,486
739,26	28,676
739,44	30,699
739,62	32,160
739,80	31,318
739,98	28,540
740,16	30,385
740,34	29,237
740,52	32,027
740,70	30,161
740,88	29,534
741,06	29,583
741,24	29,703
741,42	28,773
741,60	29,568
741,78	30,095
741,96	28,642
742,14	30,289
742,32	29,692
742,50	28,634
742,68	31,060
742,86	30,635
743,04	27,720
743,21	30,581
743,39	28,745
743,57	30,065
743,75	29,704
743,93	27,348
744,11	26,066
744,29	30,385
744,47	29,504
744,65	28,830
744,83	29,536
745,01	28,298
745,19	27,893
745,37	33,324
745,55	30,362
745,73	31,597
745,91	27,151
746,09	29,519
746,27	28,067
746,45	29,045
746,62	30,137
746,80	27,844
746,98	29,331
747,16	27,357
747,34	29,224
747,52	28,462
747,70	30,096
747,88	30,151
748,06	31,276
748,24	29,974
748,42	32,910
748,60	29,137
748,78	26,674
748,95	32,111
749,13	34,074
749,31	29,436
749,49	29,548
749,67	30,910
749,85	30,913
750,03	29,695
750,21	29,274
750,39	31,376
750,57	30,391
750,74	30,887
750,92	29,653
751,10	30,135
751,28	28,249
751,46	29,813
751,64	29,947
751,82	30,599
752,00	32,506
752,17	31,687
752,35	30,825
752,53	31,024
752,71	28,570
752,89	28,797
753,07	28,443
753,25	29,348
753,43	28,211
753,60	32,045
753,78	30,447
753,96	30,903
754,14	30,326
754,32	31,646
754,50	29,765
754,68	30,651
754,85	28,189
755,03	29,935
755,21	32,837
755,39	32,775
755,57	29,965
755,75	31,428
755,92	30,117
756,10	29,542
756,28	30,603
756,46	28,778
756,64	29,992
756,82	30,307
756,99	28,424
757,17	28,360
757,35	28,574
757,53	33,709
757,71	32,287
757,89	27,045
758,06	29,673
758,24	30,502
758,42	31,075
758,60	27,146
758,78	29,628
758,95	31,964
759,13	30,370
759,31	29,274
759,49	28,296
759,67	30,816
759,84	28,849
760,02	30,712
760,20	28,773
760,38	30,197
760,56	26,888
760,73	28,374
760,91	28,404
761,09	31,562
761,27	28,509
761,45	29,445
761,62	26,080
761,80	28,125
761,98	29,578
762,16	30,539
762,33	28,169
762,51	30,193
762,69	27,920
762,87	29,654
763,05	30,593
763,22	29,116
763,40	29,344
763,58	29,761
763,76	29,471
763,93	32,024
764,11	31,897
764,29	30,214
764,47	31,009
764,64	30,923
764,82	32,361
765,00	28,764
765,18	27,998
765,35	29,616
765,53	28,132
765,71	31,791
765,89	29,398
766,06	28,647
766,24	30,282
766,42	29,873
766,60	27,322
766,77	27,778
766,95	29,270
767,13	30,449
767,30	29,460
767,48	28,184
767,66	27,543
767,84	26,840
768,01	28,903
768,19	29,437
768,37	28,176
768,54	28,428
768,72	31,420
768,90	28,589
769,08	30,385
769,25	27,908
769,43	28,777
769,61	28,006
769,78	29,984
769,96	28,332
770,14	31,401
770,31	31,797
770,49	31,882
770,67	28,707
770,85	28,583
771,02	30,811
771,20	30,229
771,38	30,729
771,55	28,613
771,73	26,325
771,91	30,339
772,08	31,389
772,26	31,027
772,44	29,825
772,61	29,301
772,79	28,987
772,97	27,329
773,14	28,436
773,32	33,151
773,50	29,087
773,67	31,031
773,85	32,042
774,03	32,450
774,20	28,822
774,38	30,072
774,56	28,464
774,73	27,001
774,91	27,566
775,09	28,208
775,26	30,444
775,44	31,426
775,61	28,650
775,79	29,547
775,97	31,901
776,14	29,094
776,32	30,908
776,50	29,656
776,67	29,722
776,85	32,075
777,03	26,525
777,20	29,805
777,38	31,903
777,55	30,843
777,73	30,083
777,91	27,993
778,08	28,820
778,26	28,682
778,43	30,025
778,61	30,203
778,79	28,472
778,96	30,178
779,14	29,181
779,32	29,348
779,49	27,127
779,67	33,332
779,84	30,498
780,02	30,195
780,20	29,760
780,37	31,316
780,55	24,534
780,72	29,980
780,90	28,771
781,07	31,493
781,25	32,094
781,43	30,618
781,60	27,425
781,78	32,442
781,95	31,543
782,13	30,885
782,30	31,096
782,48	31,820
782,66	28,930
782,83	30,185
783,01	37,198
783,18	31,770
783,36	34,528
783,53	31,610
783,71	29,064
783,89	29,762
784,06	30,644
784,24	29,852
784,41	30,075
784,59	27,757
784,76	34,385
784,94	28,186
785,11	31,268
785,29	29,123
785,46	29,797
785,64	28,153
785,82	30,969
785,99	33,746
786,17	31,761
786,34	28,752
786,52	33,259
786,69	31,449
786,87	30,449
787,04	30,783
787,22	27,819
787,39	30,430
787,57	33,210
787,74	28,565
787,92	32,500
788,09	31,481
788,27	29,660
788,44	29,120
788,62	33,923
788,79	27,087
788,97	31,473
789,14	31,011
789,32	29,013
789,49	29,728
789,67	30,954
789,84	28,475
790,02	31,598
790,19	25,691
790,37	31,613
790,54	29,072
790,72	36,192
790,89	32,355
791,07	35,894
791,24	27,441
791,42	34,463
791,59	32,196
791,77	28,934
791,94	30,981
792,12	30,449
792,29	32,919
792,47	31,916
792,64	30,583
792,81	32,638
792,99	28,570
793,16	29,598
793,34	30,991
793,51	30,326
793,69	33,514
793,86	27,523
794,04	29,370
794,21	31,847
794,39	27,334
794,56	27,736
794,73	32,239
794,91	35,572
795,08	30,506
795,26	31,156
795,43	26,432
795,61	33,266
795,78	27,884
795,95	32,850
796,13	32,893
796,30	30,841
796,48	28,634
796,65	26,836
796,83	35,146
797,00	32,711
797,17	31,208
797,35	29,464
797,52	30,858
797,70	34,676
797,87	31,531
798,04	33,700
798,22	27,629
798,39	30,103
798,57	30,434
798,74	32,470
798,91	28,955
799,09	30,490
799,26	31,566
799,44	33,433
799,61	28,398
799,78	29,909
799,96	32,890
800,13	26,865
800,31	33,776
800,48	34,130
800,65	35,321
800,83	31,851
801,00	30,863
801,17	30,352
801,35	32,769
801,52	35,112
801,70	34,909
801,87	30,659
802,04	32,450
802,22	28,061
802,39	30,588
802,56	33,017
802,74	34,582
802,91	29,175
803,08	29,383
803,26	31,360
803,43	36,614
803,61	27,484
803,78	32,004
803,95	32,387
804,13	30,569
804,30	26,718
804,47	32,012
804,65	31,083
804,82	30,920
804,99	32,433
805,17	28,990
805,34	38,640
805,51	34,388
805,69	28,782
805,86	33,529
806,03	38,299
806,21	35,079
806,38	35,185
806,55	28,687
806,72	32,820
806,90	36,614
807,07	32,171
807,24	32,346
807,42	29,838
807,59	32,123
807,76	25,197
807,94	31,859
808,11	35,539
808,28	38,981
808,45	31,667
808,63	30,442
808,80	37,237
808,97	31,614
809,15	31,832
809,32	32,681
809,49	32,318
809,67	33,136
809,84	35,046
810,01	36,632
810,18	42,168
810,36	36,663
810,53	29,729
810,70	36,753
810,87	32,935
811,05	36,028
811,22	32,713
811,39	29,855
811,57	36,257
811,74	32,163
811,91	33,375
812,08	30,091
812,26	31,516
812,43	24,778
812,60	35,903
812,77	33,117
812,95	33,912
813,12	31,797
813,29	33,404
813,46	33,999
813,64	34,788
813,81	35,587
813,98	33,922
814,15	34,563
814,32	36,921
814,50	29,445
814,67	33,649
814,84	35,301
815,01	33,143
815,19	29,106
815,36	31,583
815,53	30,782
815,70	31,536
815,87	40,331
816,05	30,988
816,22	36,696
816,39	36,110
816,56	37,541
816,74	38,906
816,91	38,916
817,08	39,258
817,25	38,686
817,42	33,320
817,60	33,321
817,77	39,049
817,94	31,285
818,11	31,988
818,28	28,895
818,45	34,916
818,63	32,762
818,80	33,832
818,97	33,448
819,14	36,192
819,31	37,380
819,49	36,536
819,66	27,770
819,83	38,711
820,00	37,682
820,17	30,576
820,34	32,847
820,52	35,890
820,69	37,966
820,86	33,837
821,03	33,857
821,20	37,359
821,37	37,393
821,55	34,758
821,72	26,951
821,89	35,890
822,06	33,396
822,23	32,194
822,40	32,458
822,57	39,923
822,75	39,103
822,92	27,588
823,09	37,159
823,26	38,199
823,43	37,966
823,60	34,542
823,77	30,336
823,94	40,288
824,12	39,917
824,29	32,226
824,46	37,846
824,63	43,220
824,80	37,085
824,97	33,109
825,14	32,362
825,31	38,206
825,49	35,471
825,66	19,892
825,83	32,519
826,00	33,017
826,17	41,745
826,34	35,341
826,51	28,476
826,68	34,251
826,85	34,136
827,02	26,761
827,20	33,970
827,37	32,318
827,54	31,033
827,71	37,554
827,88	36,909
828,05	40,851
828,22	39,674
828,39	41,242
828,56	36,331
828,73	36,866
828,90	33,162
829,07	35,802
829,25	31,606
829,42	33,668
829,59	28,089
829,76	31,047
829,93	35,285
830,10	38,763
830,27	36,812
830,44	32,288
830,61	24,299
830,78	43,296
830,95	40,519
831,12	37,666
831,29	30,026
831,46	26,585
831,63	29,376
831,80	36,818
831,97	28,836
832,14	39,804
832,31	42,223
832,48	30,716
832,65	35,069
832,83	31,924
833,00	39,263
833,17	32,716
833,34	36,939
833,51	34,044
833,68	45,181
833,85	34,317
834,02	29,096
834,19	41,215
834,36	36,835
834,53	33,889
834,70	36,179
834,87	50,173
835,04	32,442
835,21	41,685
835,38	37,628
835,55	29,666
835,72	50,271
835,89	30,262
836,06	29,818
836,23	48,872
836,40	36,263
836,57	33,194
836,74	38,909
836,91	36,381
837,08	50,018
837,25	35,841
837,42	34,646
837,59	30,739
837,76	48,113
837,93	35,720
838,09	37,011
838,26	38,619
838,43	46,931
838,60	44,575
838,77	37,004
838,94	37,858
839,11	53,778
839,28	41,691
839,45	33,673
839,62	33,491
839,79	38,127
839,96	36,620
840,13	45,070
840,30	36,038
840,47	33,508
840,64	40,666
840,81	37,399
840,98	35,254
841,15	47,789
841,32	32,308
841,48	45,338
841,65	39,409
841,82	36,020
841,99	39,469
842,16	44,936
842,33	33,993
842,50	42,258
842,67	24,566
842,84	33,585
843,01	39,484
843,18	37,345
843,35	42,088
843,52	37,396
843,68	39,310
843,85	33,961
844,02	31,075
844,19	35,651
844,36	38,412
844,53	39,879
844,70	28,688
844,87	48,677
845,04	44,302
845,21	28,147
845,37	47,163
845,54	32,508
845,71	36,561
845,88	56,942
846,05	37,848
846,22	21,205
846,39	43,529
846,56	41,483
846,72	22,436
846,89	42,607
847,06	46,663
847,23	49,322
847,40	29,467
847,57	35,313
847,74	32,698
847,90	53,223
848,07	37,168
848,24	41,342
848,41	47,509
848,58	48,916
848,75	40,585
848,92	36,740
849,08	38,533
849,25	37,752
849,42	32,234
849,59	33,466
849,76	32,948
849,93	48,047
850,09	42,545
850,26	20,664
850,43	53,248
850,60	25,327
850,77	28,454
850,94	39,805
851,10	33,225
851,27	31,252
851,44	44,985
851,61	31,827
851,78	57,832
851,95	52,189
852,11	33,202
852,28	23,961
852,45	52,034
852,62	60,401
852,79	44,639
852,95	29,499
853,12	48,530
853,29	36,606
853,46	31,957
853,63	37,733
853,79	31,488
853,96	30,468
854,13	51,905
854,30	39,893
854,46	57,598
854,63	33,786
854,80	40,903
854,97	28,724
855,14	69,963
855,30	55,513
855,47	54,945
855,64	44,844
855,81	32,792
855,97	56,428
856,14	43,020
856,31	34,859
856,48	51,844
856,65	64,473
856,81	50,925
856,98	25,545
857,15	23,925
857,32	47,960
857,48	41,002
857,65	56,546
857,82	59,461
857,99	42,537
858,15	58,558
858,32	46,249
858,49	33,323
858,65	67,693
858,82	49,491
858,99	59,162
859,16	58,959
859,32	46,950
859,49	44,058
859,66	54,516
859,83	38,152
859,99	36,847
860,16	35,969
860,33	49,756
860,49	54,134
860,66	43,874
860,83	40,474
861,00	37,536
861,16	66,854
861,33	46,252
861,50	22,905
861,66	55,073
861,83	54,501
862,00	41,013
862,16	32,161
862,33	36,548
862,50	90,961
862,67	42,596
862,83	43,131
863,00	45,106
863,17	62,952
863,33	38,989
863,50	28,699
863,67	52,554
863,83	59,603
864,00	61,153
864,17	27,461
864,33	32,174
864,50	26,148
864,67	52,675
864,83	31,953
865,00	56,434
865,17	33,872
865,33	65,307
865,50	47,241
865,67	41,023
865,83	54,834
866,00	64,148
866,17	52,568
866,33	51,793
866,50	38,774
866,66	40,672
866,83	46,412
867,00	49,181
867,16	67,732
867,33	91,872
867,50	52,465
867,66	59,198
867,83	42,325
868,00	52,021
868,16	57,118
868,33	52,850
868,49	47,304
868,66	82,178
868,83	62,600
868,99	60,804
869,16	92,474
869,32	67,471
869,49	59,626
869,66	41,057
869,82	74,975
869,99	54,214
870,15	44,516
870,32	60,065
870,49	99,408
870,65	86,772
870,82	50,876
870,98	52,851
871,15	84,478
871,32	74,438
871,48	38,617
871,65	38,509
871,81	53,731
871,98	31,265
872,15	26,021
872,31	31,694
872,48	71,831
872,64	55,368
872,81	61,232
872,97	42,076
873,14	94,065
873,31	74,912
873,47	55,063
873,64	70,733
873,80	112,280
873,97	99,967
874,13	88,292
874,30	43,667
874,46	49,596
874,63	68,105
874,80	27,980
874,96	64,988
875,13	79,589
875,29	28,353
875,46	75,548
875,62	28,696
875,79	100,437
875,95	46,617
876,12	34,465
876,28	40,126
876,45	109,323
876,61	40,803
876,78	44,661
876,94	30,940
877,11	90,170
877,27	146,855
877,44	44,649
877,60	64,898
877,77	92,227
877,94	145,723
878,10	36,034
878,27	81,838
878,43	100,514
878,60	72,594
878,76	99,632
878,93	107,566
879,09	48,657
879,26	113,595
879,42	77,014
879,58	87,285
879,75	85,961
879,91	101,043
880,08	40,705
880,24	64,913
880,41	29,769
880,57	60,203
880,74	127,459
880,90	69,388
881,07	62,740
881,23	121,464
881,40	81,502
881,56	79,509
881,73	156,598
881,89	99,939
882,06	56,116
882,22	153,671
882,38	120,569
882,55	148,664
882,71	74,077
882,88	55,821
883,04	90,755
883,21	124,216
883,37	172,981
883,54	88,461
883,70	230,695
883,86	117,252
884,03	113,962
884,19	91,860
884,36	131,689
884,52	112,465
884,69	101,233
884,85	29,617
885,01	98,821
885,18	141,489
885,34	72,062
885,51	35,324
885,67	145,337
>>>>> Data<<<<< Espectral Procesado Extremo
