Fichero De Datos De SpectraSuite
++++++++++++++++++++++++++++++++++++
Fecha: Wed Apr 22 10:34:26 CEST 2009
Usuario: evoflor
Presente Oscuro Del Espectro: Sí
La Referencia de Presente Del Espectro De: Sí
Muestreados de los componentes de Número de espectros: 1
Espectrómetros: USB4F02353
Tiempo de integración (usec): 500000 (USB4F02353)
Promedio de Espectros Hechos un: 5 (USB4F02353)
El Alisar Del Furgón: 0 (USB4F02353)
Párrafo de de Corregir del la del del de Eléctrica del obscuridad: Sí (USB4F02353)
Estrobo/Lámpara Permitido: No (USB4F02353)
Correct for Detector Non-linearity: No (USB4F02353)
Párrafo de de Corregir del la del del de Externa del luz: No (USB4F02353)
Procesado del espectro de Número de pixeles en: 3648
>>>>> Comienza Data<<<<< Espectral Procesado Del EL
177,79	207,409
178,00	207,409
178,22	207,409
178,44	368,956
178,66	-38,926
178,88	317,508
179,09	380,319
179,31	129,435
179,53	127,322
179,75	281,099
179,96	470,905
180,18	-356,385
180,40	211,226
180,62	185,477
180,83	-361,880
181,05	398,476
181,27	-26725,000
181,49	-24,837
181,70	116,635
181,92	208,756
182,14	351,581
182,36	108,939
182,58	470,750
182,79	396,540
183,01	18,051
183,23	170,512
183,45	131,000
183,66	-221,792
183,88	-22,794
184,10	-1369,545
184,32	-149,938
184,53	181,684
184,75	-13,998
184,97	113,743
185,18	-16,400
185,40	92,187
185,62	84,209
185,84	146,779
186,05	78,259
186,27	-55,148
186,49	24,038
186,71	9,579
186,92	100,877
187,14	44,488
187,36	97,462
187,58	74,786
187,79	57,865
188,01	140,070
188,23	-265,128
188,45	72,789
188,66	-17,299
188,88	-224,091
189,10	-1113,250
189,31	-116,254
189,53	1,141
189,75	165,057
189,97	54,327
190,18	56,760
190,40	241,912
190,62	-139,861
190,83	23,298
191,05	176,987
191,27	202,357
191,49	202,042
191,70	5,649
191,92	-51,059
192,14	-30,928
192,35	331,101
192,57	-342,143
192,79	57,227
193,01	106,459
193,22	59,966
193,44	-87,073
193,66	61,028
193,87	24,465
194,09	41,431
194,31	123,225
194,53	979,895
194,74	137,460
194,96	91,720
195,18	115,469
195,39	22,098
195,61	15,940
195,83	14,293
196,04	115,463
196,26	-274,497
196,48	-68,111
196,70	40,606
196,91	-68,443
197,13	-53,101
197,35	31,408
197,56	489,551
197,78	797,201
198,00	514,161
198,21	553,519
198,43	-207,703
198,65	91,127
198,86	160,881
199,08	-104,180
199,30	81,427
199,51	170,928
199,73	214,016
199,95	257,735
200,16	376,250
200,38	110,564
200,60	106,170
200,81	105,407
201,03	145,992
201,25	-897,250
201,46	109,488
201,68	129,524
201,90	1323,295
202,11	-404,294
202,33	-34,425
202,55	356,563
202,76	18,850
202,98	287,544
203,20	-85,216
203,41	-401,184
203,63	93,979
203,85	18275,000
204,06	53,654
204,28	28,855
204,50	55,049
204,71	86,970
204,93	-311,800
205,15	75,075
205,36	9,130
205,58	203,311
205,80	-112,209
206,01	20,395
206,23	110,254
206,45	192,162
206,66	76,133
206,88	14,076
207,10	122,102
207,31	242,815
207,53	132,929
207,75	107,327
207,96	515,112
208,18	-153,114
208,39	43,033
208,61	3026,429
208,83	-196,289
209,04	224,893
209,26	-123,157
209,48	230,268
209,69	98,266
209,91	78,125
210,13	46,497
210,34	223,789
210,56	122,947
210,77	-1209,646
210,99	67,651
211,21	3636,765
211,42	-102,080
211,64	13,268
211,86	224,918
212,07	114,053
212,29	96,530
212,50	77,394
212,72	-104,904
212,94	136,099
213,15	125,088
213,37	67,277
213,58	84,424
213,80	-729,464
214,02	5701,471
214,23	273,768
214,45	255,820
214,67	-819,817
214,88	324,077
215,10	-181,734
215,31	-118,504
215,53	-70,170
215,75	160,739
215,96	1647,360
216,18	97,535
216,39	96,001
216,61	260,753
216,83	-165,960
217,04	502,528
217,26	-6,250
217,47	82,580
217,69	233,954
217,91	-108,312
218,12	-61825,000
218,34	99,799
218,55	-26,989
218,77	156,887
218,99	84,494
219,20	-62,199
219,42	236,928
219,63	79,264
219,85	-58,287
220,06	-160,288
220,28	170,240
220,50	74,747
220,71	58,455
220,93	385,377
221,14	-438,250
221,36	88,289
221,58	113,409
221,79	-11,562
222,01	307,974
222,22	258,717
222,44	-1166,011
222,65	87,176
222,87	-45,979
223,09	94,285
223,30	69,353
223,52	195,537
223,73	59,464
223,95	-59,965
224,16	188,711
224,38	127,310
224,60	79,568
224,81	34,861
225,03	93,860
225,24	130,051
225,46	-16,902
225,67	27,080
225,89	77,389
226,10	240,437
226,32	-45,400
226,54	42,457
226,75	34,776
226,97	85,216
227,18	103,294
227,40	30,157
227,61	-12,331
227,83	-5,382
228,04	83,423
228,26	25,157
228,47	12,406
228,69	39,933
228,91	36,370
229,12	13,361
229,34	26,745
229,55	46,801
229,77	-9,281
229,98	14,423
230,20	40,655
230,41	33,173
230,63	33,016
230,84	-8,030
231,06	22,779
231,27	23,059
231,49	17,090
231,71	0,595
231,92	15,429
232,14	19,083
232,35	48,995
232,57	16,163
232,78	13,943
233,00	17,586
233,21	20,202
233,43	8,281
233,64	34,347
233,86	44,933
234,07	2,628
234,29	3,904
234,50	-12,458
234,72	20,058
234,93	-3,760
235,15	30,567
235,36	6,076
235,58	9,336
235,79	28,178
236,01	20,477
236,22	10,017
236,44	28,767
236,65	5,525
236,87	23,024
237,08	4,386
237,30	-11,030
237,51	23,644
237,73	-1,135
237,94	14,247
238,16	8,603
238,37	5,052
238,59	11,789
238,80	7,105
239,02	8,476
239,23	6,046
239,45	-0,892
239,66	18,573
239,88	17,603
240,09	17,348
240,31	1,782
240,52	11,275
240,74	6,562
240,95	3,420
241,17	0,731
241,38	7,975
241,60	14,204
241,81	16,787
242,03	7,016
242,24	8,269
242,46	16,038
242,67	7,512
242,89	6,409
243,10	21,315
243,32	12,074
243,53	8,100
243,75	7,620
243,96	9,785
244,18	7,402
244,39	2,619
244,60	10,133
244,82	9,406
245,03	17,934
245,25	9,568
245,46	18,050
245,68	8,711
245,89	8,024
246,11	9,047
246,32	10,584
246,54	2,591
246,75	8,588
246,97	8,638
247,18	21,943
247,39	4,908
247,61	10,006
247,82	15,541
248,04	9,972
248,25	8,664
248,47	15,479
248,68	9,497
248,90	6,459
249,11	7,112
249,33	12,285
249,54	4,615
249,75	9,216
249,97	4,020
250,18	8,696
250,40	15,998
250,61	2,553
250,83	5,686
251,04	8,859
251,25	5,872
251,47	1,594
251,68	8,054
251,90	8,766
252,11	10,214
252,33	8,030
252,54	9,766
252,76	6,161
252,97	3,176
253,18	2,220
253,40	7,839
253,61	4,451
253,83	10,334
254,04	8,568
254,25	9,078
254,47	3,676
254,68	3,738
254,90	3,715
255,11	11,227
255,33	6,653
255,54	6,274
255,75	3,879
255,97	6,940
256,18	4,390
256,40	7,672
256,61	8,485
256,82	4,523
257,04	5,361
257,25	5,247
257,47	7,025
257,68	3,856
257,89	9,453
258,11	8,399
258,32	5,631
258,54	4,973
258,75	9,634
258,96	8,959
259,18	9,217
259,39	6,473
259,61	7,086
259,82	3,532
260,03	7,955
260,25	6,787
260,46	3,200
260,68	7,827
260,89	7,748
261,10	4,765
261,32	9,061
261,53	8,615
261,75	7,699
261,96	1,235
262,17	7,872
262,39	9,914
262,60	6,375
262,81	-0,054
263,03	9,188
263,24	7,104
263,46	3,965
263,67	5,268
263,88	4,606
264,10	5,980
264,31	-0,013
264,52	6,120
264,74	9,573
264,95	4,882
265,17	7,140
265,38	3,686
265,59	13,294
265,81	8,864
266,02	4,886
266,23	4,898
266,45	6,077
266,66	6,239
266,87	8,378
267,09	5,278
267,30	8,788
267,52	7,159
267,73	4,979
267,94	7,721
268,16	6,892
268,37	10,172
268,58	5,777
268,80	4,871
269,01	5,421
269,22	7,414
269,44	7,226
269,65	4,088
269,86	2,384
270,08	11,388
270,29	2,714
270,50	6,482
270,72	6,879
270,93	6,832
271,14	4,737
271,36	6,445
271,57	9,642
271,78	5,986
272,00	7,223
272,21	7,005
272,42	3,293
272,64	4,655
272,85	3,911
273,06	4,412
273,28	6,233
273,49	9,211
273,70	7,795
273,92	9,867
274,13	9,182
274,34	7,046
274,56	8,800
274,77	6,041
274,98	5,008
275,20	5,194
275,41	6,695
275,62	6,733
275,84	8,411
276,05	10,141
276,26	4,291
276,47	2,606
276,69	9,532
276,90	4,907
277,11	7,433
277,33	5,435
277,54	7,021
277,75	7,238
277,97	5,410
278,18	6,014
278,39	7,720
278,61	8,090
278,82	7,184
279,03	7,191
279,24	6,509
279,46	5,043
279,67	10,784
279,88	6,989
280,10	7,985
280,31	5,107
280,52	7,702
280,73	1,275
280,95	2,771
281,16	5,899
281,37	6,376
281,59	10,721
281,80	11,856
282,01	5,683
282,22	6,159
282,44	5,149
282,65	6,702
282,86	9,883
283,08	5,528
283,29	6,254
283,50	6,463
283,71	8,029
283,93	5,250
284,14	8,547
284,35	1,787
284,56	6,709
284,78	2,896
284,99	7,806
285,20	6,666
285,42	4,640
285,63	5,352
285,84	6,268
286,05	4,463
286,27	5,371
286,48	2,341
286,69	6,481
286,90	3,913
287,12	3,862
287,33	4,377
287,54	4,676
287,75	4,507
287,97	5,778
288,18	5,476
288,39	4,970
288,60	6,204
288,82	3,487
289,03	4,904
289,24	8,051
289,45	6,966
289,67	5,500
289,88	3,144
290,09	7,730
290,30	9,147
290,52	6,032
290,73	2,899
290,94	4,498
291,15	5,001
291,37	6,747
291,58	8,037
291,79	5,463
292,00	8,918
292,21	9,631
292,43	4,180
292,64	5,104
292,85	4,679
293,06	7,424
293,28	5,355
293,49	5,482
293,70	7,699
293,91	3,973
294,12	4,822
294,34	4,407
294,55	6,043
294,76	4,730
294,97	8,788
295,19	4,769
295,40	7,445
295,61	6,250
295,82	2,544
296,03	6,013
296,25	5,403
296,46	4,006
296,67	4,326
296,88	2,852
297,09	7,757
297,31	6,825
297,52	6,052
297,73	7,013
297,94	7,991
298,15	5,882
298,37	6,726
298,58	10,383
298,79	5,814
299,00	5,059
299,21	6,399
299,43	5,658
299,64	6,603
299,85	5,479
300,06	6,031
300,27	5,559
300,49	9,898
300,70	6,024
300,91	4,502
301,12	5,436
301,33	4,413
301,54	6,520
301,76	5,143
301,97	5,966
302,18	5,440
302,39	8,207
302,60	6,551
302,82	8,048
303,03	9,123
303,24	5,688
303,45	6,579
303,66	5,480
303,87	5,313
304,09	8,771
304,30	6,797
304,51	4,242
304,72	4,174
304,93	10,635
305,14	6,094
305,36	2,432
305,57	4,118
305,78	6,098
305,99	5,445
306,20	6,456
306,41	4,679
306,62	4,694
306,84	2,803
307,05	4,667
307,26	6,882
307,47	6,671
307,68	6,455
307,89	6,635
308,11	6,795
308,32	3,443
308,53	5,962
308,74	3,538
308,95	8,129
309,16	6,199
309,37	9,318
309,59	3,812
309,80	6,178
310,01	7,132
310,22	7,698
310,43	3,598
310,64	6,677
310,85	5,248
311,06	5,532
311,28	6,702
311,49	4,786
311,70	7,899
311,91	2,277
312,12	6,390
312,33	6,518
312,54	5,099
312,75	2,720
312,97	5,904
313,18	6,892
313,39	4,593
313,60	6,565
313,81	7,336
314,02	6,375
314,23	6,358
314,44	4,258
314,65	5,141
314,87	3,954
315,08	5,906
315,29	7,108
315,50	4,121
315,71	7,549
315,92	6,904
316,13	7,170
316,34	8,057
316,55	8,057
316,77	2,212
316,98	4,366
317,19	4,488
317,40	6,405
317,61	7,117
317,82	4,738
318,03	3,989
318,24	4,852
318,45	6,190
318,66	6,360
318,87	4,171
319,09	7,793
319,30	5,723
319,51	5,104
319,72	6,456
319,93	6,751
320,14	6,463
320,35	7,324
320,56	3,667
320,77	2,749
320,98	9,252
321,19	4,599
321,40	6,693
321,62	10,542
321,83	5,626
322,04	6,166
322,25	5,737
322,46	9,028
322,67	7,280
322,88	5,228
323,09	5,096
323,30	6,815
323,51	6,683
323,72	7,983
323,93	3,971
324,14	4,156
324,35	5,765
324,56	4,896
324,77	3,932
324,99	4,964
325,20	5,205
325,41	5,949
325,62	5,316
325,83	3,432
326,04	7,413
326,25	7,100
326,46	3,541
326,67	7,963
326,88	6,053
327,09	5,813
327,30	5,879
327,51	6,339
327,72	6,414
327,93	7,076
328,14	1,973
328,35	4,578
328,56	6,221
328,77	6,202
328,98	7,773
329,19	7,264
329,40	5,943
329,61	4,202
329,82	2,341
330,04	4,288
330,25	4,907
330,46	7,419
330,67	5,322
330,88	3,958
331,09	6,426
331,30	5,562
331,51	4,756
331,72	3,713
331,93	7,301
332,14	6,626
332,35	8,716
332,56	4,437
332,77	4,594
332,98	3,932
333,19	5,590
333,40	5,650
333,61	5,727
333,82	8,676
334,03	7,518
334,24	6,694
334,45	6,212
334,66	8,792
334,87	6,726
335,08	5,000
335,29	3,756
335,50	5,614
335,71	5,341
335,92	6,288
336,13	6,957
336,34	3,831
336,55	5,771
336,76	6,705
336,97	5,539
337,18	6,425
337,39	4,172
337,60	5,141
337,81	2,803
338,02	6,700
338,23	5,731
338,44	5,297
338,65	5,391
338,86	7,390
339,07	4,384
339,28	5,230
339,49	3,905
339,70	3,713
339,91	5,373
340,11	7,002
340,32	6,152
340,53	3,261
340,74	4,270
340,95	3,216
341,16	8,024
341,37	5,208
341,58	4,365
341,79	3,837
342,00	6,751
342,21	6,339
342,42	7,856
342,63	3,915
342,84	2,341
343,05	5,279
343,26	4,768
343,47	3,746
343,68	2,727
343,89	4,871
344,10	6,723
344,31	5,683
344,52	1,663
344,73	5,175
344,94	5,623
345,14	6,443
345,35	7,659
345,56	5,738
345,77	5,267
345,98	4,436
346,19	4,976
346,40	5,778
346,61	5,926
346,82	5,089
347,03	4,102
347,24	5,965
347,45	4,108
347,66	7,324
347,87	2,344
348,08	4,549
348,28	2,700
348,49	6,042
348,70	5,879
348,91	6,286
349,12	3,585
349,33	19,666
349,54	6,265
349,75	8,466
349,96	5,126
350,17	5,738
350,38	3,967
350,59	4,481
350,80	5,085
351,00	6,414
351,21	8,238
351,42	4,707
351,63	5,907
351,84	7,318
352,05	7,989
352,26	4,839
352,47	6,736
352,68	6,201
352,89	6,421
353,09	9,860
353,30	6,160
353,51	5,743
353,72	5,849
353,93	8,524
354,14	3,103
354,35	4,198
354,56	5,390
354,77	3,217
354,98	5,105
355,18	5,633
355,39	10,080
355,60	5,245
355,81	5,506
356,02	5,075
356,23	5,264
356,44	4,579
356,65	6,301
356,85	9,465
357,06	8,002
357,27	7,897
357,48	5,628
357,69	6,652
357,90	5,816
358,11	3,154
358,32	5,421
358,52	6,449
358,73	3,359
358,94	4,449
359,15	7,813
359,36	7,980
359,57	3,996
359,78	4,830
359,98	4,674
360,19	2,672
360,40	6,572
360,61	6,373
360,82	4,030
361,03	8,682
361,24	5,936
361,44	4,347
361,65	8,287
361,86	3,368
362,07	7,615
362,28	5,618
362,49	4,189
362,70	5,797
362,90	8,621
363,11	4,767
363,32	3,812
363,53	3,833
363,74	4,260
363,95	9,228
364,15	4,293
364,36	7,648
364,57	8,299
364,78	7,272
364,99	5,001
365,20	6,450
365,40	5,594
365,61	4,879
365,82	9,309
366,03	5,912
366,24	10,489
366,45	6,258
366,65	6,668
366,86	7,058
367,07	6,644
367,28	5,444
367,49	5,336
367,69	9,173
367,90	3,291
368,11	5,062
368,32	2,256
368,53	7,713
368,73	10,018
368,94	4,221
369,15	3,527
369,36	7,476
369,57	7,715
369,78	6,016
369,98	7,496
370,19	11,360
370,40	7,959
370,61	7,169
370,82	7,438
371,02	5,957
371,23	8,998
371,44	4,126
371,65	9,170
371,85	8,652
372,06	5,959
372,27	5,964
372,48	7,327
372,69	5,590
372,89	5,432
373,10	7,375
373,31	6,528
373,52	3,554
373,73	10,366
373,93	6,008
374,14	5,346
374,35	8,385
374,56	9,331
374,76	6,025
374,97	7,221
375,18	5,962
375,39	6,519
375,60	7,062
375,80	9,288
376,01	4,951
376,22	5,964
376,43	7,081
376,63	6,986
376,84	5,524
377,05	9,953
377,26	6,290
377,46	6,510
377,67	5,058
377,88	8,513
378,09	6,709
378,29	2,754
378,50	7,464
378,71	7,725
378,92	5,060
379,12	6,577
379,33	8,303
379,54	8,334
379,75	8,397
379,95	6,328
380,16	8,503
380,37	12,068
380,58	5,267
380,78	8,181
380,99	6,179
381,20	5,918
381,41	10,007
381,61	8,175
381,82	5,254
382,03	4,469
382,24	8,545
382,44	10,380
382,65	7,648
382,86	6,719
383,06	7,779
383,27	7,932
383,48	6,953
383,69	8,312
383,89	9,913
384,10	12,131
384,31	6,569
384,51	11,090
384,72	9,490
384,93	8,737
385,14	6,031
385,34	8,011
385,55	5,555
385,76	8,404
385,96	9,646
386,17	8,868
386,38	9,531
386,59	8,457
386,79	8,255
387,00	10,340
387,21	12,106
387,41	11,005
387,62	9,360
387,83	11,937
388,03	8,356
388,24	3,488
388,45	9,337
388,66	11,759
388,86	12,037
389,07	8,755
389,28	14,631
389,48	9,240
389,69	9,467
389,90	13,625
390,10	10,812
390,31	13,890
390,52	5,168
390,72	8,343
390,93	12,785
391,14	10,244
391,34	13,348
391,55	12,076
391,76	13,935
391,96	8,976
392,17	9,709
392,38	13,967
392,58	10,106
392,79	12,966
393,00	10,437
393,20	8,262
393,41	13,477
393,62	12,044
393,82	10,379
394,03	14,810
394,24	13,230
394,44	15,303
394,65	11,858
394,86	13,752
395,06	13,768
395,27	11,876
395,48	14,796
395,68	13,712
395,89	16,636
396,10	12,730
396,30	11,960
396,51	13,541
396,72	15,280
396,92	11,461
397,13	15,835
397,34	12,815
397,54	14,891
397,75	14,603
397,95	13,941
398,16	17,729
398,37	13,811
398,57	14,103
398,78	18,689
398,99	17,495
399,19	14,117
399,40	15,476
399,60	15,796
399,81	18,961
400,02	14,512
400,22	16,412
400,43	15,163
400,64	16,468
400,84	19,400
401,05	18,232
401,25	20,380
401,46	19,489
401,67	15,671
401,87	13,631
402,08	14,167
402,29	14,057
402,49	16,938
402,70	20,184
402,90	15,450
403,11	16,806
403,32	18,127
403,52	18,422
403,73	24,051
403,93	19,263
404,14	20,923
404,35	17,521
404,55	16,639
404,76	17,194
404,96	21,198
405,17	19,224
405,38	22,061
405,58	18,286
405,79	20,921
405,99	20,165
406,20	20,415
406,40	18,101
406,61	22,432
406,82	18,653
407,02	22,984
407,23	21,569
407,43	17,635
407,64	19,780
407,85	21,180
408,05	16,147
408,26	28,094
408,46	24,224
408,67	19,451
408,87	20,874
409,08	23,977
409,29	23,355
409,49	19,472
409,70	20,769
409,90	22,421
410,11	24,661
410,31	25,050
410,52	24,894
410,72	20,454
410,93	24,921
411,14	23,022
411,34	20,535
411,55	26,156
411,75	23,958
411,96	21,332
412,16	21,941
412,37	23,938
412,57	23,877
412,78	22,130
412,99	23,759
413,19	23,829
413,40	28,407
413,60	21,643
413,81	23,682
414,01	25,976
414,22	23,996
414,42	25,759
414,63	24,263
414,83	24,428
415,04	28,166
415,24	25,572
415,45	24,844
415,65	24,164
415,86	31,164
416,07	27,565
416,27	23,195
416,48	26,093
416,68	29,661
416,89	23,450
417,09	26,797
417,30	27,056
417,50	29,363
417,71	28,275
417,91	28,781
418,12	22,852
418,32	26,538
418,53	28,280
418,73	28,175
418,94	25,471
419,14	28,784
419,35	24,863
419,55	26,223
419,76	27,321
419,96	24,881
420,17	26,837
420,37	27,498
420,58	28,063
420,78	26,290
420,99	29,537
421,19	28,333
421,40	27,571
421,60	29,523
421,81	27,987
422,01	29,246
422,22	23,861
422,42	23,405
422,63	28,265
422,83	25,200
423,04	30,749
423,24	32,441
423,45	27,273
423,65	28,518
423,86	33,264
424,06	30,424
424,27	27,730
424,47	28,103
424,67	26,242
424,88	31,088
425,08	27,382
425,29	31,619
425,49	29,404
425,70	27,508
425,90	33,033
426,11	29,895
426,31	29,323
426,52	30,867
426,72	29,517
426,93	29,663
427,13	31,260
427,33	29,879
427,54	31,470
427,74	30,965
427,95	33,359
428,15	30,720
428,36	27,218
428,56	27,699
428,77	28,884
428,97	30,069
429,18	33,978
429,38	30,570
429,58	32,867
429,79	28,718
429,99	31,688
430,20	23,126
430,40	31,461
430,61	26,298
430,81	24,999
431,01	34,298
431,22	33,507
431,42	29,177
431,63	28,226
431,83	31,828
432,04	33,877
432,24	36,964
432,44	29,895
432,65	29,439
432,85	27,784
433,06	31,313
433,26	30,920
433,47	29,634
433,67	29,901
433,87	30,037
434,08	28,796
434,28	29,665
434,49	27,340
434,69	32,327
434,89	26,855
435,10	29,994
435,30	32,665
435,51	28,485
435,71	30,612
435,91	26,485
436,12	29,763
436,32	33,357
436,53	30,236
436,73	34,164
436,93	29,616
437,14	33,091
437,34	28,715
437,55	29,266
437,75	31,083
437,95	33,178
438,16	30,403
438,36	31,324
438,57	29,363
438,77	31,066
438,97	31,871
439,18	34,716
439,38	31,871
439,58	28,235
439,79	35,029
439,99	32,709
440,20	33,238
440,40	34,403
440,60	33,691
440,81	36,153
441,01	33,901
441,21	29,494
441,42	31,229
441,62	37,666
441,83	29,612
442,03	33,693
442,23	33,264
442,44	32,993
442,64	29,909
442,84	32,011
443,05	28,354
443,25	31,907
443,45	30,640
443,66	32,264
443,86	30,414
444,06	29,643
444,27	30,380
444,47	33,890
444,67	33,638
444,88	30,402
445,08	33,372
445,28	31,442
445,49	30,495
445,69	30,915
445,90	33,173
446,10	34,464
446,30	30,378
446,51	33,608
446,71	38,936
446,91	33,372
447,12	35,104
447,32	32,975
447,52	36,265
447,72	35,461
447,93	33,551
448,13	34,581
448,33	33,205
448,54	37,683
448,74	32,466
448,94	34,004
449,15	37,974
449,35	30,139
449,55	30,684
449,76	35,555
449,96	34,689
450,16	33,731
450,37	30,762
450,57	34,205
450,77	28,197
450,98	37,077
451,18	34,388
451,38	34,809
451,58	36,473
451,79	40,191
451,99	35,431
452,19	34,772
452,40	34,995
452,60	34,335
452,80	33,248
453,00	33,770
453,21	34,232
453,41	34,987
453,61	32,337
453,82	34,068
454,02	31,666
454,22	34,686
454,42	34,362
454,63	32,095
454,83	33,259
455,03	37,953
455,24	37,992
455,44	33,492
455,64	33,712
455,84	30,849
456,05	35,575
456,25	30,275
456,45	36,316
456,65	35,595
456,86	33,724
457,06	38,898
457,26	41,276
457,47	34,558
457,67	35,512
457,87	36,002
458,07	34,333
458,28	34,230
458,48	35,231
458,68	32,005
458,88	37,784
459,09	33,916
459,29	40,636
459,49	36,965
459,69	34,817
459,90	37,159
460,10	32,240
460,30	36,725
460,50	34,327
460,71	36,888
460,91	33,478
461,11	38,032
461,31	34,705
461,52	39,836
461,72	34,346
461,92	38,432
462,12	42,087
462,32	35,912
462,53	37,718
462,73	37,594
462,93	39,203
463,13	36,119
463,34	36,697
463,54	34,232
463,74	38,622
463,94	38,566
464,14	39,654
464,35	34,536
464,55	39,484
464,75	40,434
464,95	37,636
465,16	36,708
465,36	40,906
465,56	36,449
465,76	38,724
465,96	39,484
466,17	35,608
466,37	36,549
466,57	36,383
466,77	35,907
466,97	34,888
467,18	38,547
467,38	37,182
467,58	38,348
467,78	39,824
467,98	36,733
468,19	41,209
468,39	38,877
468,59	37,898
468,79	42,374
468,99	41,821
469,19	39,637
469,40	44,125
469,60	39,982
469,80	37,735
470,00	41,143
470,20	41,411
470,41	38,556
470,61	40,132
470,81	39,397
471,01	36,244
471,21	43,222
471,41	37,495
471,62	36,320
471,82	37,876
472,02	39,827
472,22	38,932
472,42	38,331
472,62	40,012
472,83	41,868
473,03	43,259
473,23	37,692
473,43	40,430
473,63	42,206
473,83	42,523
474,03	37,774
474,24	45,791
474,44	39,059
474,64	43,359
474,84	38,183
475,04	41,674
475,24	40,081
475,45	40,392
475,65	39,805
475,85	42,589
476,05	39,232
476,25	40,689
476,45	39,464
476,65	46,804
476,85	41,987
477,06	40,997
477,26	38,166
477,46	43,105
477,66	39,405
477,86	41,850
478,06	42,543
478,26	44,047
478,46	39,974
478,67	44,554
478,87	44,893
479,07	43,255
479,27	41,445
479,47	40,943
479,67	39,496
479,87	41,526
480,07	41,331
480,28	37,897
480,48	36,046
480,68	43,594
480,88	44,504
481,08	41,941
481,28	41,065
481,48	42,454
481,68	41,064
481,88	38,160
482,08	40,134
482,29	44,833
482,49	39,758
482,69	43,744
482,89	42,040
483,09	43,214
483,29	41,469
483,49	42,430
483,69	44,074
483,89	42,488
484,09	41,651
484,29	39,173
484,50	38,923
484,70	43,229
484,90	43,607
485,10	42,645
485,30	42,965
485,50	42,532
485,70	43,505
485,90	42,284
486,10	38,289
486,30	41,442
486,50	43,270
486,70	43,292
486,90	42,124
487,10	44,608
487,30	41,300
487,51	43,289
487,71	40,034
487,91	41,602
488,11	41,380
488,31	41,232
488,51	45,204
488,71	43,815
488,91	45,366
489,11	42,152
489,31	43,363
489,51	40,341
489,71	41,915
489,91	43,766
490,11	43,187
490,31	44,116
490,51	41,686
490,71	41,804
490,91	43,724
491,11	44,981
491,31	44,918
491,51	43,429
491,72	46,544
491,92	44,449
492,12	47,388
492,32	43,648
492,52	48,923
492,72	43,253
492,92	45,844
493,12	45,414
493,32	40,368
493,52	42,546
493,72	45,302
493,92	46,892
494,12	44,674
494,32	45,669
494,52	44,305
494,72	44,131
494,92	44,228
495,12	45,060
495,32	45,559
495,52	45,381
495,72	50,628
495,92	49,084
496,12	47,773
496,32	45,381
496,52	46,889
496,72	43,390
496,92	46,019
497,12	47,646
497,32	46,491
497,52	47,118
497,72	47,991
497,92	46,037
498,12	43,810
498,32	46,100
498,52	48,285
498,72	43,492
498,92	45,342
499,12	47,334
499,32	46,826
499,52	45,226
499,72	48,614
499,92	48,397
500,12	47,821
500,32	49,843
500,52	46,464
500,72	49,903
500,91	52,250
501,11	49,379
501,31	46,282
501,51	46,375
501,71	51,969
501,91	48,931
502,11	48,461
502,31	46,894
502,51	49,547
502,71	46,535
502,91	49,495
503,11	46,342
503,31	45,533
503,51	44,611
503,71	48,764
503,91	48,366
504,11	49,649
504,31	47,247
504,51	48,233
504,71	47,799
504,91	50,276
505,10	49,426
505,30	47,742
505,50	47,598
505,70	48,534
505,90	50,336
506,10	46,286
506,30	46,511
506,50	49,328
506,70	50,640
506,90	48,409
507,10	52,466
507,30	48,713
507,50	51,334
507,70	49,578
507,89	50,399
508,09	45,879
508,29	48,772
508,49	48,951
508,69	48,393
508,89	46,756
509,09	50,506
509,29	51,076
509,49	48,848
509,69	50,564
509,89	50,076
510,09	48,316
510,28	48,614
510,48	45,760
510,68	48,798
510,88	48,046
511,08	45,884
511,28	48,221
511,48	48,892
511,68	48,581
511,88	45,509
512,07	47,529
512,27	48,623
512,47	50,383
512,67	46,195
512,87	47,559
513,07	49,922
513,27	46,848
513,47	48,416
513,67	47,184
513,86	48,219
514,06	48,490
514,26	47,916
514,46	51,816
514,66	45,904
514,86	49,626
515,06	51,023
515,26	49,592
515,45	48,480
515,65	48,679
515,85	45,184
516,05	51,103
516,25	49,117
516,45	52,283
516,65	47,945
516,84	49,465
517,04	50,468
517,24	49,508
517,44	48,011
517,64	49,718
517,84	51,872
518,04	49,016
518,23	50,152
518,43	50,560
518,63	46,979
518,83	47,585
519,03	50,226
519,23	52,508
519,42	50,903
519,62	49,719
519,82	48,560
520,02	49,136
520,22	49,905
520,42	45,794
520,61	50,426
520,81	49,796
521,01	52,981
521,21	47,355
521,41	47,768
521,61	48,625
521,80	47,491
522,00	47,860
522,20	48,315
522,40	51,230
522,60	47,650
522,79	48,464
522,99	50,296
523,19	48,709
523,39	47,265
523,59	51,039
523,78	53,190
523,98	48,371
524,18	47,705
524,38	48,966
524,58	50,515
524,77	49,859
524,97	48,806
525,17	50,482
525,37	49,273
525,57	52,390
525,76	48,109
525,96	51,535
526,16	48,533
526,36	48,488
526,56	46,691
526,75	47,099
526,95	49,894
527,15	50,042
527,35	50,254
527,55	49,577
527,74	51,412
527,94	46,521
528,14	49,097
528,34	46,526
528,53	49,044
528,73	48,961
528,93	50,128
529,13	49,098
529,32	49,608
529,52	49,200
529,72	49,124
529,92	50,018
530,12	47,626
530,31	45,135
530,51	50,242
530,71	51,314
530,91	48,910
531,10	47,114
531,30	48,708
531,50	48,958
531,70	51,255
531,89	50,437
532,09	46,478
532,29	46,731
532,49	49,140
532,68	47,916
532,88	46,790
533,08	46,056
533,28	48,478
533,47	49,223
533,67	51,234
533,87	47,962
534,06	52,308
534,26	48,346
534,46	48,716
534,66	47,045
534,85	47,795
535,05	45,708
535,25	46,813
535,45	48,308
535,64	46,728
535,84	45,041
536,04	47,101
536,23	49,048
536,43	48,311
536,63	47,058
536,83	47,498
537,02	46,133
537,22	48,217
537,42	47,225
537,61	47,518
537,81	48,892
538,01	50,214
538,20	49,317
538,40	45,631
538,60	49,262
538,80	47,658
538,99	47,200
539,19	45,221
539,39	44,118
539,58	45,958
539,78	43,130
539,98	44,746
540,17	46,255
540,37	44,516
540,57	43,954
540,76	43,932
540,96	42,260
541,16	43,657
541,36	41,896
541,55	40,378
541,75	39,296
541,95	39,932
542,14	40,465
542,34	40,355
542,54	41,095
542,73	40,664
542,93	41,255
543,13	38,867
543,32	40,242
543,52	39,021
543,72	39,258
543,91	40,355
544,11	39,367
544,31	40,687
544,50	41,032
544,70	40,740
544,89	40,414
545,09	40,008
545,29	40,806
545,48	40,816
545,68	42,164
545,88	40,449
546,07	41,179
546,27	41,110
546,47	43,793
546,66	44,510
546,86	43,784
547,06	43,289
547,25	44,930
547,45	46,214
547,64	45,026
547,84	44,798
548,04	44,571
548,23	46,207
548,43	44,172
548,63	46,428
548,82	46,880
549,02	44,324
549,21	45,163
549,41	45,723
549,61	49,366
549,80	47,604
550,00	47,143
550,20	46,304
550,39	46,488
550,59	45,060
550,78	45,429
550,98	45,534
551,18	48,956
551,37	49,499
551,57	47,478
551,76	46,984
551,96	47,795
552,16	47,512
552,35	46,761
552,55	48,021
552,74	47,435
552,94	47,324
553,14	46,685
553,33	46,572
553,53	48,696
553,72	48,794
553,92	48,607
554,12	47,826
554,31	47,991
554,51	48,034
554,70	48,701
554,90	46,825
555,09	51,064
555,29	48,344
555,49	49,599
555,68	50,005
555,88	46,048
556,07	49,984
556,27	50,903
556,46	46,708
556,66	48,238
556,86	51,402
557,05	48,004
557,25	46,582
557,44	46,865
557,64	48,478
557,83	48,611
558,03	49,308
558,22	48,068
558,42	47,274
558,62	50,737
558,81	48,469
559,01	48,015
559,20	46,625
559,40	47,868
559,59	47,946
559,79	47,999
559,98	50,362
560,18	50,275
560,37	50,220
560,57	47,297
560,76	47,432
560,96	47,575
561,16	47,387
561,35	46,912
561,55	52,038
561,74	47,438
561,94	49,316
562,13	49,105
562,33	51,697
562,52	48,232
562,72	49,779
562,91	48,524
563,11	49,070
563,30	51,879
563,50	45,988
563,69	45,751
563,89	48,723
564,08	49,908
564,28	48,618
564,47	49,641
564,67	48,761
564,86	48,098
565,06	48,503
565,25	47,657
565,45	48,065
565,64	50,208
565,84	48,009
566,03	47,181
566,23	47,601
566,42	48,663
566,62	49,842
566,81	48,713
567,01	49,627
567,20	48,280
567,40	49,342
567,59	49,795
567,79	51,060
567,98	50,726
568,18	50,338
568,37	49,675
568,57	49,763
568,76	52,129
568,96	47,940
569,15	48,662
569,35	47,804
569,54	49,772
569,73	48,929
569,93	48,150
570,12	48,305
570,32	50,070
570,51	49,296
570,71	49,866
570,90	49,318
571,10	48,245
571,29	49,957
571,49	47,030
571,68	48,632
571,87	47,417
572,07	48,364
572,26	47,734
572,46	49,198
572,65	48,848
572,85	47,045
573,04	48,236
573,24	48,451
573,43	50,483
573,62	48,547
573,82	48,914
574,01	47,196
574,21	48,571
574,40	48,344
574,60	49,448
574,79	48,437
574,98	49,106
575,18	49,499
575,37	48,270
575,57	47,511
575,76	48,245
575,96	48,269
576,15	48,305
576,34	49,112
576,54	49,921
576,73	49,922
576,93	47,924
577,12	48,188
577,31	48,991
577,51	48,551
577,70	47,842
577,90	49,346
578,09	46,170
578,28	47,736
578,48	48,969
578,67	48,864
578,87	47,449
579,06	47,452
579,25	49,547
579,45	48,135
579,64	47,777
579,84	47,339
580,03	47,524
580,22	48,748
580,42	46,280
580,61	47,453
580,81	47,083
581,00	47,050
581,19	47,537
581,39	48,096
581,58	47,134
581,77	47,831
581,97	49,613
582,16	46,595
582,35	46,716
582,55	46,628
582,74	47,188
582,94	47,970
583,13	47,123
583,32	45,991
583,52	46,349
583,71	46,288
583,90	47,778
584,10	47,327
584,29	49,470
584,48	46,143
584,68	48,498
584,87	49,260
585,06	46,358
585,26	46,575
585,45	45,916
585,65	47,247
585,84	46,208
586,03	46,972
586,23	45,723
586,42	46,365
586,61	47,015
586,81	47,657
587,00	46,196
587,19	44,754
587,39	47,481
587,58	47,709
587,77	47,007
587,97	46,546
588,16	45,743
588,35	47,529
588,54	48,319
588,74	46,245
588,93	47,820
589,12	48,568
589,32	47,237
589,51	47,140
589,70	45,111
589,90	48,045
590,09	47,173
590,28	52,198
590,48	47,703
590,67	47,332
590,86	47,554
591,06	46,199
591,25	48,210
591,44	46,679
591,63	47,402
591,83	49,178
592,02	47,497
592,21	47,190
592,41	48,102
592,60	47,501
592,79	48,014
592,98	46,984
593,18	49,140
593,37	46,997
593,56	47,826
593,76	47,343
593,95	48,123
594,14	45,311
594,33	47,243
594,53	46,833
594,72	46,383
594,91	50,192
595,10	48,187
595,30	47,716
595,49	47,384
595,68	48,641
595,88	47,818
596,07	47,860
596,26	46,610
596,45	49,284
596,65	45,933
596,84	46,971
597,03	47,617
597,22	50,187
597,42	48,100
597,61	47,429
597,80	48,614
597,99	47,631
598,19	46,935
598,38	49,289
598,57	48,426
598,76	48,305
598,95	48,391
599,15	48,964
599,34	46,466
599,53	47,987
599,72	48,873
599,92	48,871
600,11	46,866
600,30	48,008
600,49	49,269
600,69	47,397
600,88	47,693
601,07	47,462
601,26	48,224
601,45	46,676
601,65	47,906
601,84	48,626
602,03	48,146
602,22	50,187
602,42	47,471
602,61	47,913
602,80	49,528
602,99	49,097
603,18	46,394
603,38	48,224
603,57	47,701
603,76	48,535
603,95	47,656
604,14	47,733
604,34	47,919
604,53	47,701
604,72	47,787
604,91	47,501
605,10	48,568
605,29	47,609
605,49	46,972
605,68	47,953
605,87	48,059
606,06	46,948
606,25	46,311
606,45	47,810
606,64	47,286
606,83	48,764
607,02	46,199
607,21	46,993
607,40	47,088
607,60	45,920
607,79	46,315
607,98	44,632
608,17	43,897
608,36	45,610
608,55	45,119
608,75	46,721
608,94	43,586
609,13	42,301
609,32	41,205
609,51	41,813
609,70	43,714
609,89	43,629
610,09	42,606
610,28	43,938
610,47	42,357
610,66	41,327
610,85	40,919
611,04	43,099
611,23	43,117
611,43	42,317
611,62	41,895
611,81	42,243
612,00	43,944
612,19	41,985
612,38	42,326
612,57	43,640
612,77	42,459
612,96	43,432
613,15	41,894
613,34	43,498
613,53	43,280
613,72	44,264
613,91	43,639
614,10	43,970
614,29	44,958
614,49	44,002
614,68	45,255
614,87	46,968
615,06	46,408
615,25	44,499
615,44	47,382
615,63	43,954
615,82	46,206
616,01	44,043
616,21	44,251
616,40	46,939
616,59	46,476
616,78	45,446
616,97	46,427
617,16	46,981
617,35	46,984
617,54	47,555
617,73	47,416
617,92	45,847
618,11	45,731
618,31	44,356
618,50	46,574
618,69	46,290
618,88	47,236
619,07	45,604
619,26	46,228
619,45	46,010
619,64	46,518
619,83	46,102
620,02	46,059
620,21	47,507
620,40	47,310
620,59	43,838
620,78	45,499
620,97	47,852
621,17	46,904
621,36	46,496
621,55	45,870
621,74	46,727
621,93	45,461
622,12	45,331
622,31	44,609
622,50	45,680
622,69	45,056
622,88	45,368
623,07	46,471
623,26	46,946
623,45	46,274
623,64	46,936
623,83	44,853
624,02	44,816
624,21	48,374
624,40	46,049
624,59	46,491
624,78	47,031
624,97	47,133
625,16	44,478
625,35	45,051
625,54	44,318
625,73	47,603
625,92	46,327
626,12	47,313
626,31	48,939
626,50	47,505
626,69	46,139
626,88	46,221
627,07	47,778
627,26	46,148
627,45	45,559
627,64	45,751
627,83	45,716
628,02	45,032
628,21	45,085
628,40	45,918
628,59	46,494
628,78	44,294
628,97	43,999
629,16	44,806
629,35	44,133
629,54	46,640
629,73	45,903
629,92	44,907
630,10	46,161
630,29	45,481
630,48	46,628
630,67	44,871
630,86	46,853
631,05	47,360
631,24	46,271
631,43	44,926
631,62	45,398
631,81	45,079
632,00	45,476
632,19	43,633
632,38	46,342
632,57	46,194
632,76	47,385
632,95	47,536
633,14	48,460
633,33	45,134
633,52	46,844
633,71	47,528
633,90	46,351
634,09	47,614
634,28	46,229
634,47	44,589
634,66	47,350
634,85	46,406
635,04	47,577
635,22	46,445
635,41	45,958
635,60	47,612
635,79	48,307
635,98	44,607
636,17	47,590
636,36	46,339
636,55	46,453
636,74	46,726
636,93	47,429
637,12	47,052
637,31	46,015
637,50	46,119
637,69	48,921
637,87	47,782
638,06	45,400
638,25	46,050
638,44	47,927
638,63	44,832
638,82	46,364
639,01	44,481
639,20	45,945
639,39	47,187
639,58	47,059
639,77	46,777
639,95	45,984
640,14	48,227
640,33	44,806
640,52	45,960
640,71	48,022
640,90	46,260
641,09	47,399
641,28	45,810
641,47	45,895
641,66	45,865
641,84	45,854
642,03	45,450
642,22	48,103
642,41	49,216
642,60	46,750
642,79	46,753
642,98	43,924
643,17	44,853
643,35	46,508
643,54	46,508
643,73	46,968
643,92	46,193
644,11	47,059
644,30	45,745
644,49	47,769
644,67	45,557
644,86	44,894
645,05	48,985
645,24	45,090
645,43	47,358
645,62	45,276
645,81	47,820
645,99	48,612
646,18	45,569
646,37	46,874
646,56	47,274
646,75	49,224
646,94	47,996
647,13	45,752
647,31	45,170
647,50	46,985
647,69	46,774
647,88	46,695
648,07	46,058
648,26	49,685
648,44	46,164
648,63	44,757
648,82	47,528
649,01	47,948
649,20	44,561
649,38	46,189
649,57	46,858
649,76	44,356
649,95	46,666
650,14	43,353
650,33	44,490
650,51	46,515
650,70	47,262
650,89	46,563
651,08	45,554
651,27	46,664
651,45	46,186
651,64	44,785
651,83	47,969
652,02	47,471
652,21	48,427
652,39	47,529
652,58	47,624
652,77	47,001
652,96	47,553
653,15	46,239
653,33	46,468
653,52	47,113
653,71	48,352
653,90	46,340
654,09	47,234
654,27	47,564
654,46	48,198
654,65	47,672
654,84	48,251
655,02	48,002
655,21	47,408
655,40	48,996
655,59	46,128
655,77	47,553
655,96	46,849
656,15	46,356
656,34	48,091
656,53	46,515
656,71	45,189
656,90	46,573
657,09	45,685
657,28	46,329
657,46	47,018
657,65	47,394
657,84	47,282
658,03	47,592
658,21	48,526
658,40	46,895
658,59	45,389
658,78	48,476
658,96	45,561
659,15	47,106
659,34	46,745
659,52	44,004
659,71	46,686
659,90	46,699
660,09	47,478
660,27	47,200
660,46	47,076
660,65	45,849
660,84	45,079
661,02	47,032
661,21	46,427
661,40	46,290
661,58	47,751
661,77	45,643
661,96	44,320
662,15	45,597
662,33	45,572
662,52	44,615
662,71	46,873
662,89	43,956
663,08	45,531
663,27	44,300
663,45	45,966
663,64	46,828
663,83	44,338
664,02	46,552
664,20	45,640
664,39	46,206
664,58	45,399
664,76	46,502
664,95	46,803
665,14	44,411
665,32	44,418
665,51	45,888
665,70	45,500
665,88	45,148
666,07	45,678
666,26	45,961
666,44	45,337
666,63	45,465
666,82	45,054
667,00	46,626
667,19	44,126
667,38	46,048
667,56	46,003
667,75	46,376
667,94	46,778
668,12	44,483
668,31	44,977
668,50	46,096
668,68	46,671
668,87	45,416
669,06	45,577
669,24	46,297
669,43	46,950
669,62	44,981
669,80	44,811
669,99	45,257
670,18	45,296
670,36	44,305
670,55	46,693
670,74	46,580
670,92	45,785
671,11	45,751
671,29	45,358
671,48	46,235
671,67	45,599
671,85	47,376
672,04	47,170
672,23	44,344
672,41	43,700
672,60	46,269
672,78	44,812
672,97	45,398
673,16	45,350
673,34	44,983
673,53	45,562
673,71	45,483
673,90	47,417
674,09	46,673
674,27	45,781
674,46	45,689
674,64	44,853
674,83	45,671
675,02	43,114
675,20	44,732
675,39	44,392
675,57	45,794
675,76	44,979
675,95	48,266
676,13	47,135
676,32	46,722
676,50	45,191
676,69	43,136
676,88	44,279
677,06	44,714
677,25	45,168
677,43	48,344
677,62	46,038
677,80	44,851
677,99	45,349
678,18	44,831
678,36	45,278
678,55	44,269
678,73	44,002
678,92	46,557
679,10	45,249
679,29	44,921
679,48	43,719
679,66	45,222
679,85	44,593
680,03	46,079
680,22	46,789
680,40	45,275
680,59	46,509
680,77	44,756
680,96	46,480
681,15	44,919
681,33	46,035
681,52	43,629
681,70	46,334
681,89	46,649
682,07	46,306
682,26	45,709
682,44	46,185
682,63	46,400
682,81	45,561
683,00	46,178
683,18	45,677
683,37	45,986
683,55	45,838
683,74	46,442
683,92	45,772
684,11	45,008
684,29	46,364
684,48	44,267
684,67	44,531
684,85	45,509
685,04	45,297
685,22	45,804
685,41	45,348
685,59	46,480
685,78	44,047
685,96	43,403
686,15	44,525
686,33	44,745
686,52	46,393
686,70	44,746
686,89	45,506
687,07	47,617
687,26	46,221
687,44	44,903
687,62	43,067
687,81	45,352
687,99	45,894
688,18	44,879
688,36	44,984
688,55	45,997
688,73	45,268
688,92	43,354
689,10	45,454
689,29	44,907
689,47	46,484
689,66	45,148
689,84	44,987
690,03	42,302
690,21	43,308
690,40	45,454
690,58	44,030
690,76	45,069
690,95	46,767
691,13	45,487
691,32	45,675
691,50	46,537
691,69	44,783
691,87	43,951
692,06	45,539
692,24	43,170
692,43	44,570
692,61	42,707
692,79	45,554
692,98	43,646
693,16	47,400
693,35	44,285
693,53	45,648
693,72	46,151
693,90	43,774
694,08	44,644
694,27	42,816
694,45	47,272
694,64	46,949
694,82	44,044
695,01	43,869
695,19	45,033
695,37	44,628
695,56	44,502
695,74	45,303
695,93	43,863
696,11	42,949
696,29	45,685
696,48	45,690
696,66	44,967
696,85	46,859
697,03	43,436
697,21	45,616
697,40	44,296
697,58	44,584
697,77	44,740
697,95	45,418
698,13	46,306
698,32	44,805
698,50	43,616
698,69	43,695
698,87	44,359
699,05	43,713
699,24	43,631
699,42	44,516
699,60	42,214
699,79	45,195
699,97	43,405
700,16	43,471
700,34	44,656
700,52	44,892
700,71	46,235
700,89	43,739
701,07	44,772
701,26	44,404
701,44	44,736
701,63	43,817
701,81	44,758
701,99	44,583
702,18	44,598
702,36	42,872
702,54	42,724
702,73	43,113
702,91	44,886
703,09	44,342
703,28	45,004
703,46	43,452
703,64	42,834
703,83	45,830
704,01	44,702
704,19	43,498
704,38	42,515
704,56	42,251
704,74	43,714
704,93	43,033
705,11	43,868
705,29	44,938
705,48	47,146
705,66	45,682
705,84	44,076
706,03	42,532
706,21	44,154
706,39	43,934
706,58	43,451
706,76	41,817
706,94	45,384
707,12	44,704
707,31	43,819
707,49	42,094
707,67	43,981
707,86	44,872
708,04	44,031
708,22	41,999
708,41	42,219
708,59	44,400
708,77	43,420
708,95	44,957
709,14	45,452
709,32	45,075
709,50	43,519
709,69	45,130
709,87	43,718
710,05	45,242
710,23	44,151
710,42	43,563
710,60	42,415
710,78	44,495
710,97	43,173
711,15	44,363
711,33	44,997
711,51	42,728
711,70	43,209
711,88	41,801
712,06	45,940
712,24	43,047
712,43	41,655
712,61	42,256
712,79	45,459
712,97	42,804
713,16	45,888
713,34	43,579
713,52	44,574
713,70	44,109
713,89	43,517
714,07	42,575
714,25	45,038
714,43	44,139
714,62	44,515
714,80	43,458
714,98	41,452
715,16	42,971
715,35	42,208
715,53	44,185
715,71	45,880
715,89	44,942
716,07	42,505
716,26	47,462
716,44	46,272
716,62	44,058
716,80	43,675
716,99	43,106
717,17	43,696
717,35	44,131
717,53	43,797
717,71	44,071
717,90	43,392
718,08	42,980
718,26	42,154
718,44	43,088
718,62	43,878
718,81	44,298
718,99	42,046
719,17	44,101
719,35	43,509
719,53	43,544
719,72	43,159
719,90	42,515
720,08	42,933
720,26	44,924
720,44	43,117
720,62	43,863
720,81	43,877
720,99	45,513
721,17	44,588
721,35	44,354
721,53	45,403
721,72	45,566
721,90	43,183
722,08	43,264
722,26	44,494
722,44	43,182
722,62	45,234
722,81	42,019
722,99	45,292
723,17	42,007
723,35	43,978
723,53	42,820
723,71	46,509
723,89	43,281
724,08	42,481
724,26	44,057
724,44	42,298
724,62	44,919
724,80	42,328
724,98	44,586
725,16	44,523
725,35	44,553
725,53	42,742
725,71	44,119
725,89	46,405
726,07	44,134
726,25	46,062
726,43	42,571
726,61	43,174
726,80	42,244
726,98	43,452
727,16	43,440
727,34	44,956
727,52	41,993
727,70	42,767
727,88	43,259
728,06	41,864
728,25	40,940
728,43	42,691
728,61	42,549
728,79	41,852
728,97	43,083
729,15	43,448
729,33	43,550
729,51	44,557
729,69	44,254
729,87	45,441
730,06	42,892
730,24	42,869
730,42	46,398
730,60	41,936
730,78	43,566
730,96	42,824
731,14	43,743
731,32	43,747
731,50	40,059
731,68	42,113
731,86	43,207
732,04	44,940
732,22	42,653
732,41	46,368
732,59	43,319
732,77	44,685
732,95	43,033
733,13	43,523
733,31	43,635
733,49	42,006
733,67	45,850
733,85	44,329
734,03	44,109
734,21	42,545
734,39	44,498
734,57	43,003
734,75	45,883
734,93	43,137
735,11	42,182
735,29	42,227
735,47	44,161
735,65	43,497
735,84	42,783
736,02	45,679
736,20	44,459
736,38	44,986
736,56	41,957
736,74	43,718
736,92	45,722
737,10	43,232
737,28	44,831
737,46	44,097
737,64	43,776
737,82	43,967
738,00	44,066
738,18	43,199
738,36	43,233
738,54	43,584
738,72	43,612
738,90	44,009
739,08	46,106
739,26	40,553
739,44	43,658
739,62	42,792
739,80	43,655
739,98	43,250
740,16	42,895
740,34	43,936
740,52	45,250
740,70	43,693
740,88	43,659
741,06	41,505
741,24	43,059
741,42	43,390
741,60	41,605
741,78	45,765
741,96	42,566
742,14	43,742
742,32	42,473
742,50	45,813
742,68	43,893
742,86	42,865
743,04	42,111
743,21	43,128
743,39	44,658
743,57	44,370
743,75	41,611
743,93	42,726
744,11	41,936
744,29	42,841
744,47	44,548
744,65	42,306
744,83	43,215
745,01	43,717
745,19	42,661
745,37	43,044
745,55	44,607
745,73	43,881
745,91	42,410
746,09	42,372
746,27	43,481
746,45	42,507
746,62	41,813
746,80	42,001
746,98	42,308
747,16	41,853
747,34	45,057
747,52	43,291
747,70	42,148
747,88	44,208
748,06	42,068
748,24	44,562
748,42	44,293
748,60	42,430
748,78	43,333
748,95	43,414
749,13	44,997
749,31	43,277
749,49	42,203
749,67	43,960
749,85	44,778
750,03	45,311
750,21	44,601
750,39	43,683
750,57	43,427
750,74	43,383
750,92	42,312
751,10	44,875
751,28	43,123
751,46	41,204
751,64	45,468
751,82	43,126
752,00	43,822
752,17	45,069
752,35	42,698
752,53	42,093
752,71	42,044
752,89	43,649
753,07	43,915
753,25	46,028
753,43	43,528
753,60	44,362
753,78	43,396
753,96	42,688
754,14	42,961
754,32	42,604
754,50	43,753
754,68	44,660
754,85	44,907
755,03	45,378
755,21	44,664
755,39	46,351
755,57	44,007
755,75	43,194
755,92	42,124
756,10	43,562
756,28	44,927
756,46	44,370
756,64	44,431
756,82	45,062
756,99	44,827
757,17	43,213
757,35	42,140
757,53	44,959
757,71	43,160
757,89	42,435
758,06	43,698
758,24	42,013
758,42	42,736
758,60	43,218
758,78	42,534
758,95	43,779
759,13	43,218
759,31	44,519
759,49	42,194
759,67	42,038
759,84	42,234
760,02	43,052
760,20	42,161
760,38	43,904
760,56	43,269
760,73	45,010
760,91	43,319
761,09	42,892
761,27	42,083
761,45	43,765
761,62	44,544
761,80	44,153
761,98	43,325
762,16	44,031
762,33	43,263
762,51	43,849
762,69	43,535
762,87	42,695
763,05	42,024
763,22	41,521
763,40	42,952
763,58	42,196
763,76	43,223
763,93	44,148
764,11	43,320
764,29	41,096
764,47	43,808
764,64	43,896
764,82	44,641
765,00	43,783
765,18	40,926
765,35	41,359
765,53	42,798
765,71	45,036
765,89	42,236
766,06	42,129
766,24	44,406
766,42	44,399
766,60	40,699
766,77	43,570
766,95	42,049
767,13	42,807
767,30	40,547
767,48	42,230
767,66	42,850
767,84	42,420
768,01	41,776
768,19	42,711
768,37	43,112
768,54	43,966
768,72	44,581
768,90	43,758
769,08	42,063
769,25	42,314
769,43	42,863
769,61	41,116
769,78	42,786
769,96	42,658
770,14	44,158
770,31	42,380
770,49	42,699
770,67	43,859
770,85	43,981
771,02	43,403
771,20	45,206
771,38	42,909
771,55	42,543
771,73	42,047
771,91	44,012
772,08	45,166
772,26	42,630
772,44	44,222
772,61	43,654
772,79	40,686
772,97	43,310
773,14	41,529
773,32	41,828
773,50	42,354
773,67	41,339
773,85	45,277
774,03	43,882
774,20	41,790
774,38	45,304
774,56	42,056
774,73	42,995
774,91	43,810
775,09	41,374
775,26	41,382
775,44	41,306
775,61	42,928
775,79	42,747
775,97	42,495
776,14	41,327
776,32	41,551
776,50	42,191
776,67	45,820
776,85	43,961
777,03	43,012
777,20	44,294
777,38	43,976
777,55	42,167
777,73	42,234
777,91	40,899
778,08	44,010
778,26	41,614
778,43	43,872
778,61	40,789
778,79	42,363
778,96	40,673
779,14	41,374
779,32	44,220
779,49	44,423
779,67	43,571
779,84	43,985
780,02	44,410
780,20	41,462
780,37	43,353
780,55	36,343
780,72	43,361
780,90	42,694
781,07	42,870
781,25	44,675
781,43	42,458
781,60	42,600
781,78	45,384
781,95	43,936
782,13	42,055
782,30	45,990
782,48	41,966
782,66	42,234
782,83	41,711
783,01	48,513
783,18	41,790
783,36	44,375
783,53	47,420
783,71	41,311
783,89	43,936
784,06	43,252
784,24	43,589
784,41	43,575
784,59	43,412
784,76	43,337
784,94	42,685
785,11	42,191
785,29	42,861
785,46	42,074
785,64	42,295
785,82	42,270
785,99	41,377
786,17	42,646
786,34	42,528
786,52	39,169
786,69	46,434
786,87	43,224
787,04	43,664
787,22	43,635
787,39	42,427
787,57	44,413
787,74	43,606
787,92	41,734
788,09	43,326
788,27	44,199
788,44	42,133
788,62	46,750
788,79	42,940
788,97	46,003
789,14	45,295
789,32	43,874
789,49	45,791
789,67	44,505
789,84	45,176
790,02	44,703
790,19	42,094
790,37	44,895
790,54	44,130
790,72	46,482
790,89	48,204
791,07	46,753
791,24	42,691
791,42	42,638
791,59	44,414
791,77	44,922
791,94	42,682
792,12	42,502
792,29	46,736
792,47	45,308
792,64	44,526
792,81	43,907
792,99	42,833
793,16	44,520
793,34	43,017
793,51	43,397
793,69	44,174
793,86	44,084
794,04	42,960
794,21	44,285
794,39	42,254
794,56	44,040
794,73	44,570
794,91	41,567
795,08	40,932
795,26	42,888
795,43	42,820
795,61	46,863
795,78	45,614
795,95	48,564
796,13	44,127
796,30	46,559
796,48	43,635
796,65	44,663
796,83	46,290
797,00	47,008
797,17	40,549
797,35	46,104
797,52	46,790
797,70	48,494
797,87	42,866
798,04	42,233
798,22	47,183
798,39	43,010
798,57	44,083
798,74	42,187
798,91	44,555
799,09	42,151
799,26	47,700
799,44	46,408
799,61	45,673
799,78	43,194
799,96	46,469
800,13	44,536
800,31	44,823
800,48	46,254
800,65	46,976
800,83	45,614
801,00	42,075
801,17	45,331
801,35	44,396
801,52	43,548
801,70	44,534
801,87	45,902
802,04	44,543
802,22	43,465
802,39	43,728
802,56	48,008
802,74	45,594
802,91	43,086
803,08	38,615
803,26	46,432
803,43	46,581
803,61	46,029
803,78	41,610
803,95	43,600
804,13	47,505
804,30	44,436
804,47	45,491
804,65	39,338
804,82	44,639
804,99	47,756
805,17	45,870
805,34	47,895
805,51	48,480
805,69	40,266
805,86	43,025
806,03	46,686
806,21	50,515
806,38	45,610
806,55	43,761
806,72	47,649
806,90	48,558
807,07	43,319
807,24	42,566
807,42	42,410
807,59	46,470
807,76	39,559
807,94	44,998
808,11	43,691
808,28	46,038
808,45	46,690
808,63	45,561
808,80	47,892
808,97	43,064
809,15	44,701
809,32	46,546
809,49	44,134
809,67	45,817
809,84	44,866
810,01	43,148
810,18	47,817
810,36	46,717
810,53	46,838
810,70	47,127
810,87	45,925
811,05	41,350
811,22	45,632
811,39	43,020
811,57	50,389
811,74	43,480
811,91	43,656
812,08	44,629
812,26	46,628
812,43	46,813
812,60	45,528
812,77	45,653
812,95	46,716
813,12	48,178
813,29	39,619
813,46	47,421
813,64	45,343
813,81	42,492
813,98	45,154
814,15	46,675
814,32	47,069
814,50	46,278
814,67	44,046
814,84	43,458
815,01	46,042
815,19	39,893
815,36	41,271
815,53	47,775
815,70	43,903
815,87	46,624
816,05	40,368
816,22	47,957
816,39	51,335
816,56	48,530
816,74	47,776
816,91	47,747
817,08	47,788
817,25	47,846
817,42	47,173
817,60	43,633
817,77	42,974
817,94	46,829
818,11	48,837
818,28	48,609
818,45	44,683
818,63	47,217
818,80	45,208
818,97	51,280
819,14	48,603
819,31	48,514
819,49	50,250
819,66	44,032
819,83	44,857
820,00	47,909
820,17	42,803
820,34	47,554
820,52	52,285
820,69	50,584
820,86	46,139
821,03	44,644
821,20	49,068
821,37	46,827
821,55	44,355
821,72	46,623
821,89	49,474
822,06	49,921
822,23	45,992
822,40	48,852
822,57	50,062
822,75	51,544
822,92	41,854
823,09	49,122
823,26	46,593
823,43	47,583
823,60	40,765
823,77	49,669
823,94	46,300
824,12	55,075
824,29	44,010
824,46	41,836
824,63	46,878
824,80	45,411
824,97	47,655
825,14	48,798
825,31	46,902
825,49	46,645
825,66	45,499
825,83	44,540
826,00	46,703
826,17	53,849
826,34	49,543
826,51	44,932
826,68	45,798
826,85	53,522
827,02	48,174
827,20	42,342
827,37	46,634
827,54	48,124
827,71	50,473
827,88	49,937
828,05	45,223
828,22	46,129
828,39	51,292
828,56	55,520
828,73	45,861
828,90	46,595
829,07	50,613
829,25	49,121
829,42	50,152
829,59	44,656
829,76	45,253
829,93	48,545
830,10	49,589
830,27	44,515
830,44	53,550
830,61	48,954
830,78	60,953
830,95	50,661
831,12	48,745
831,29	47,101
831,46	47,025
831,63	46,287
831,80	43,017
831,97	50,247
832,14	51,546
832,31	53,709
832,48	51,323
832,65	44,664
832,83	50,441
833,00	50,015
833,17	42,841
833,34	44,776
833,51	51,829
833,68	49,224
833,85	56,994
834,02	39,663
834,19	41,279
834,36	48,931
834,53	41,734
834,70	49,371
834,87	48,648
835,04	44,884
835,21	50,836
835,38	44,491
835,55	48,322
835,72	59,079
835,89	48,298
836,06	53,835
836,23	52,134
836,40	47,678
836,57	48,697
836,74	53,360
836,91	48,541
837,08	50,596
837,25	58,552
837,42	45,638
837,59	49,647
837,76	53,292
837,93	42,969
838,09	45,467
838,26	52,582
838,43	58,668
838,60	51,433
838,77	48,662
838,94	53,954
839,11	55,810
839,28	44,021
839,45	47,712
839,62	50,516
839,79	47,781
839,96	49,101
840,13	52,949
840,30	47,515
840,47	47,850
840,64	47,017
840,81	51,361
840,98	48,445
841,15	60,136
841,32	46,447
841,48	51,545
841,65	56,695
841,82	47,258
841,99	52,369
842,16	44,847
842,33	50,475
842,50	46,256
842,67	47,053
842,84	50,140
843,01	49,722
843,18	55,309
843,35	53,313
843,52	50,508
843,68	56,434
843,85	41,653
844,02	41,299
844,19	45,323
844,36	61,878
844,53	54,575
844,70	46,751
844,87	55,145
845,04	58,550
845,21	44,425
845,37	56,119
845,54	53,981
845,71	36,381
845,88	67,139
846,05	48,591
846,22	40,649
846,39	48,092
846,56	55,425
846,72	50,934
846,89	47,039
847,06	56,381
847,23	57,998
847,40	48,693
847,57	47,491
847,74	51,829
847,90	61,447
848,07	50,747
848,24	53,237
848,41	48,586
848,58	52,167
848,75	57,873
848,92	44,990
849,08	55,624
849,25	52,084
849,42	44,054
849,59	50,885
849,76	50,551
849,93	52,375
850,09	51,404
850,26	41,460
850,43	51,150
850,60	38,914
850,77	49,457
850,94	51,133
851,10	55,806
851,27	46,445
851,44	52,753
851,61	41,984
851,78	52,811
851,95	58,306
852,11	54,132
852,28	41,291
852,45	44,476
852,62	52,946
852,79	52,917
852,95	54,996
853,12	54,257
853,29	40,243
853,46	53,917
853,63	63,024
853,79	49,772
853,96	48,888
854,13	66,377
854,30	56,896
854,46	65,322
854,63	52,254
854,80	45,942
854,97	48,578
855,14	57,023
855,30	54,469
855,47	45,876
855,64	63,063
855,81	53,861
855,97	60,480
856,14	60,111
856,31	50,636
856,48	56,873
856,65	67,141
856,81	54,409
856,98	49,566
857,15	48,363
857,32	52,033
857,48	42,917
857,65	56,924
857,82	50,848
857,99	70,654
858,15	56,647
858,32	50,282
858,49	57,131
858,65	72,787
858,82	57,361
858,99	45,482
859,16	58,123
859,32	67,433
859,49	42,499
859,66	58,232
859,83	56,156
859,99	48,384
860,16	49,917
860,33	49,015
860,49	55,364
860,66	54,688
860,83	51,032
861,00	48,454
861,16	67,541
861,33	65,002
861,50	37,241
861,66	44,684
861,83	57,039
862,00	59,433
862,16	60,475
862,33	56,018
862,50	77,722
862,67	39,991
862,83	51,836
863,00	58,298
863,17	77,164
863,33	38,714
863,50	31,353
863,67	48,161
863,83	60,803
864,00	69,207
864,17	35,467
864,33	41,225
864,50	73,734
864,67	41,073
864,83	53,913
865,00	45,193
865,17	35,235
865,33	59,210
865,50	47,865
865,67	62,742
865,83	58,321
866,00	70,197
866,17	56,533
866,33	58,604
866,50	93,807
866,66	62,282
866,83	59,628
867,00	48,723
867,16	68,447
867,33	74,559
867,50	27,334
867,66	61,715
867,83	69,361
868,00	65,316
868,16	58,359
868,33	55,714
868,49	49,832
868,66	57,698
868,83	49,952
868,99	46,220
869,16	71,771
869,32	70,939
869,49	52,818
869,66	40,305
869,82	63,202
869,99	84,190
870,15	54,749
870,32	65,953
870,49	73,085
870,65	79,806
870,82	72,977
870,98	50,576
871,15	89,407
871,32	78,957
871,48	41,324
871,65	42,383
871,81	51,622
871,98	34,319
872,15	44,437
872,31	40,257
872,48	71,796
872,64	50,853
872,81	23,944
872,97	50,815
873,14	73,037
873,31	54,289
873,47	29,584
873,64	53,745
873,80	105,157
873,97	63,811
874,13	56,905
874,30	36,740
874,46	61,873
874,63	61,361
874,80	34,733
874,96	34,707
875,13	79,522
875,29	49,794
875,46	83,576
875,62	32,796
875,79	81,051
875,95	31,991
876,12	31,792
876,28	69,644
876,45	87,438
876,61	58,989
876,78	28,952
876,94	48,189
877,11	57,903
877,27	56,515
877,44	57,332
877,60	49,310
877,77	98,117
877,94	80,932
878,10	14,832
878,27	78,452
878,43	97,708
878,60	48,262
878,76	67,051
878,93	49,557
879,09	100,931
879,26	81,402
879,42	75,309
879,58	78,738
879,75	102,589
879,91	118,466
880,08	18,029
880,24	31,057
880,41	76,685
880,57	102,713
880,74	44,177
880,90	94,969
881,07	29,208
881,23	76,252
881,40	65,984
881,56	110,922
881,73	80,042
881,89	72,784
882,06	28,579
882,22	152,257
882,38	130,108
882,55	107,424
882,71	73,648
882,88	59,512
883,04	112,949
883,21	44,017
883,37	103,552
883,54	73,850
883,70	113,177
883,86	88,752
884,03	47,099
884,19	29,008
884,36	94,820
884,52	120,024
884,69	110,545
884,85	62,217
885,01	232,207
885,18	128,564
885,34	28,008
885,51	-15,645
885,67	61,508
>>>>> Data<<<<< Espectral Procesado Extremo
