Fichero De Datos De SpectraSuite
++++++++++++++++++++++++++++++++++++
Fecha: Wed Apr 22 08:38:31 CEST 2009
Usuario: evoflor
Presente Oscuro Del Espectro: Sí
La Referencia de Presente Del Espectro De: Sí
Muestreados de los componentes de Número de espectros: 1
Espectrómetros: USB4F02353
Tiempo de integración (usec): 500000 (USB4F02353)
Promedio de Espectros Hechos un: 5 (USB4F02353)
El Alisar Del Furgón: 0 (USB4F02353)
Párrafo de de Corregir del la del del de Eléctrica del obscuridad: Sí (USB4F02353)
Estrobo/Lámpara Permitido: No (USB4F02353)
Correct for Detector Non-linearity: No (USB4F02353)
Párrafo de de Corregir del la del del de Externa del luz: No (USB4F02353)
Procesado del espectro de Número de pixeles en: 3648
>>>>> Comienza Data<<<<< Espectral Procesado Del EL
177,79	804,845
178,00	804,845
178,22	804,845
178,44	-10883,712
178,66	563,160
178,88	-58,258
179,09	514,396
179,31	167,907
179,53	-7462,801
179,75	310,735
179,96	-484,806
180,18	314,338
180,40	-329,823
180,62	-199,503
180,83	293,542
181,05	-868,578
181,27	-740,477
181,49	153,511
181,70	-348,251
181,92	446,516
182,14	181,141
182,36	-1761,942
182,58	208,106
182,79	-943,909
183,01	-12121,526
183,23	424,496
183,45	-60,383
183,66	132,661
183,88	796,465
184,10	903,953
184,32	1015,451
184,53	-310,579
184,75	458,252
184,97	-149,054
185,18	1210,829
185,40	365,107
185,62	-612,934
185,84	2021,495
186,05	5731,380
186,27	-6594,834
186,49	-628,496
186,71	230,202
186,92	290,112
187,14	1502,400
187,36	343,197
187,58	928,784
187,79	-734,444
188,01	-1420,791
188,23	174,581
188,45	17,394
188,66	61,261
188,88	236,934
189,10	-295,593
189,31	-143,149
189,53	157,760
189,75	1173,944
189,97	127,375
190,18	1128,727
190,40	1111,079
190,62	235,611
190,83	463,097
191,05	-233,624
191,27	7469,420
191,49	543,623
191,70	833,744
191,92	489,063
192,14	422,556
192,35	-1614,303
192,57	-919,996
192,79	-2064,427
193,01	646,152
193,22	372,030
193,44	-540,996
193,66	325,600
193,87	925,696
194,09	141,948
194,31	290,290
194,53	-327,569
194,74	296,974
194,96	121,161
195,18	1011,306
195,39	-1242,158
195,61	-356,898
195,83	3371,069
196,04	391,792
196,26	200,748
196,48	1867,859
196,70	661,809
196,91	187,447
197,13	-55,515
197,35	280,633
197,56	-392,968
197,78	5210,318
198,00	154,340
198,21	164,275
198,43	850,465
198,65	260,606
198,86	144,373
199,08	1046,442
199,30	180,610
199,51	1007,115
199,73	-2485,347
199,95	207,488
200,16	577,930
200,38	133,474
200,60	2501,241
200,81	-645,148
201,03	9655,981
201,25	685,735
201,46	-781,882
201,68	524,329
201,90	401,237
202,11	54,632
202,33	211,721
202,55	122,593
202,76	707,565
202,98	411,683
203,20	272,182
203,41	-1293,855
203,63	703,606
203,85	215,943
204,06	-302,517
204,28	210,423
204,50	-197,664
204,71	450,455
204,93	167,036
205,15	311,811
205,36	-106,221
205,58	383,304
205,80	-2502,112
206,01	-3773,190
206,23	234,404
206,45	399,288
206,66	424,082
206,88	-430,026
207,10	3046,756
207,31	-51510,596
207,53	433,636
207,75	99,780
207,96	393,040
208,18	454,834
208,39	161,355
208,61	620,930
208,83	7229,386
209,04	463,271
209,26	478,534
209,48	103,650
209,69	-151,200
209,91	636,639
210,13	3,215
210,34	177,661
210,56	357,423
210,77	1802,655
210,99	379,261
211,21	-250,053
211,42	149,184
211,64	491,371
211,86	366,907
212,07	138,667
212,29	639,486
212,50	1462,535
212,72	190,446
212,94	6,901
213,15	296,066
213,37	526,121
213,58	229,698
213,80	605,711
214,02	2352,718
214,23	263,168
214,45	265,737
214,67	53,535
214,88	-200,800
215,10	974,035
215,31	-1063,402
215,53	99,964
215,75	413,750
215,96	567,345
216,18	175,508
216,39	353,773
216,61	624,602
216,83	827,449
217,04	296,476
217,26	0,113
217,47	708,587
217,69	270,772
217,91	72,263
218,12	1306,325
218,34	102,766
218,55	243,111
218,77	12,567
218,99	163,984
219,20	201,832
219,42	401,959
219,63	111,736
219,85	209,416
220,06	131,801
220,28	122,486
220,50	68,906
220,71	103,362
220,93	471,188
221,14	454,858
221,36	89,358
221,58	104,211
221,79	34,726
222,01	244,615
222,22	126,494
222,44	80,255
222,65	238,644
222,87	-44,010
223,09	108,551
223,30	85,932
223,52	129,769
223,73	105,390
223,95	122,405
224,16	29,225
224,38	63,920
224,60	62,415
224,81	103,955
225,03	105,377
225,24	93,289
225,46	11,401
225,67	27,001
225,89	58,175
226,10	127,577
226,32	156,843
226,54	-21,666
226,75	11,482
226,97	138,783
227,18	98,244
227,40	84,487
227,61	37,383
227,83	28,417
228,04	105,128
228,26	70,171
228,47	46,949
228,69	100,200
228,91	53,396
229,12	88,466
229,34	50,939
229,55	66,341
229,77	23,014
229,98	5,630
230,20	29,028
230,41	-15,160
230,63	53,324
230,84	31,805
231,06	82,036
231,27	-7,276
231,49	42,983
231,71	25,822
231,92	13,173
232,14	-14,584
232,35	30,199
232,57	-2,009
232,78	13,167
233,00	26,056
233,21	23,378
233,43	21,393
233,64	8,845
233,86	30,342
234,07	42,863
234,29	19,013
234,50	5,867
234,72	25,730
234,93	19,367
235,15	2,610
235,36	7,493
235,58	45,909
235,79	27,894
236,01	9,706
236,22	20,666
236,44	30,090
236,65	14,738
236,87	14,165
237,08	14,674
237,30	-4,688
237,51	23,228
237,73	13,550
237,94	3,951
238,16	16,624
238,37	11,466
238,59	1,523
238,80	11,405
239,02	6,599
239,23	24,867
239,45	5,379
239,66	29,021
239,88	23,382
240,09	19,287
240,31	6,100
240,52	4,763
240,74	7,356
240,95	12,284
241,17	10,807
241,38	11,511
241,60	1,941
241,81	18,595
242,03	6,578
242,24	10,521
242,46	12,552
242,67	-0,568
242,89	14,793
243,10	12,522
243,32	15,278
243,53	13,006
243,75	3,234
243,96	10,687
244,18	9,764
244,39	14,103
244,60	-0,263
244,82	3,737
245,03	15,760
245,25	6,623
245,46	27,021
245,68	5,609
245,89	29,247
246,11	21,978
246,32	6,587
246,54	8,896
246,75	2,509
246,97	18,202
247,18	16,255
247,39	5,447
247,61	12,797
247,82	10,451
248,04	1,063
248,25	3,799
248,47	9,251
248,68	6,811
248,90	6,194
249,11	8,466
249,33	12,799
249,54	11,573
249,75	9,489
249,97	2,856
250,18	18,049
250,40	11,914
250,61	4,601
250,83	1,871
251,04	4,762
251,25	11,756
251,47	11,373
251,68	4,117
251,90	6,084
252,11	6,591
252,33	8,487
252,54	6,576
252,76	1,735
252,97	-0,691
253,18	3,527
253,40	9,330
253,61	5,181
253,83	8,714
254,04	6,919
254,25	1,096
254,47	0,956
254,68	9,396
254,90	4,888
255,11	3,047
255,33	8,558
255,54	4,368
255,75	5,003
255,97	7,375
256,18	3,812
256,40	7,200
256,61	7,366
256,82	5,594
257,04	8,782
257,25	2,816
257,47	9,167
257,68	10,913
257,89	8,374
258,11	5,701
258,32	8,332
258,54	3,806
258,75	13,626
258,96	10,048
259,18	6,729
259,39	5,476
259,61	9,542
259,82	1,277
260,03	2,867
260,25	8,178
260,46	7,957
260,68	2,023
260,89	1,310
261,10	6,067
261,32	4,646
261,53	0,003
261,75	5,602
261,96	2,352
262,17	18,242
262,39	10,234
262,60	-0,604
262,81	5,616
263,03	9,566
263,24	6,072
263,46	3,641
263,67	6,105
263,88	5,430
264,10	3,892
264,31	7,351
264,52	2,930
264,74	10,076
264,95	3,298
265,17	7,505
265,38	6,870
265,59	9,461
265,81	5,531
266,02	2,199
266,23	0,404
266,45	10,161
266,66	10,504
266,87	8,401
267,09	2,877
267,30	8,956
267,52	12,247
267,73	5,891
267,94	-0,491
268,16	6,888
268,37	0,770
268,58	8,002
268,80	-0,675
269,01	8,873
269,22	8,777
269,44	6,916
269,65	5,477
269,86	3,803
270,08	5,644
270,29	2,929
270,50	3,825
270,72	7,112
270,93	0,756
271,14	3,714
271,36	1,036
271,57	7,325
271,78	4,534
272,00	4,816
272,21	8,428
272,42	3,286
272,64	7,708
272,85	2,955
273,06	2,133
273,28	6,979
273,49	1,508
273,70	7,477
273,92	5,601
274,13	5,157
274,34	-1,990
274,56	6,291
274,77	5,185
274,98	9,889
275,20	8,030
275,41	7,311
275,62	1,701
275,84	5,141
276,05	13,632
276,26	4,203
276,47	4,127
276,69	8,596
276,90	11,309
277,11	6,095
277,33	2,289
277,54	9,423
277,75	7,137
277,97	1,606
278,18	3,775
278,39	9,298
278,61	0,675
278,82	9,428
279,03	6,758
279,24	0,885
279,46	4,130
279,67	11,854
279,88	4,053
280,10	8,941
280,31	1,950
280,52	1,130
280,73	3,153
280,95	8,609
281,16	5,727
281,37	3,892
281,59	3,352
281,80	9,061
282,01	1,346
282,22	1,706
282,44	3,758
282,65	9,652
282,86	6,423
283,08	0,348
283,29	4,195
283,50	-0,280
283,71	6,598
283,93	3,284
284,14	1,639
284,35	6,547
284,56	4,907
284,78	-1,261
284,99	4,662
285,20	8,307
285,42	3,524
285,63	3,664
285,84	0,925
286,05	5,736
286,27	5,014
286,48	5,071
286,69	4,091
286,90	3,180
287,12	2,545
287,33	4,798
287,54	1,654
287,75	8,811
287,97	2,689
288,18	2,646
288,39	3,956
288,60	4,499
288,82	1,964
289,03	2,853
289,24	5,164
289,45	6,653
289,67	3,840
289,88	3,739
290,09	7,677
290,30	5,074
290,52	3,549
290,73	-0,017
290,94	2,704
291,15	2,637
291,37	5,690
291,58	4,180
291,79	5,412
292,00	4,849
292,21	3,853
292,43	6,930
292,64	0,564
292,85	6,040
293,06	6,501
293,28	3,553
293,49	2,612
293,70	7,071
293,91	1,032
294,12	3,405
294,34	5,030
294,55	4,952
294,76	4,305
294,97	4,989
295,19	4,621
295,40	4,817
295,61	5,101
295,82	5,360
296,03	5,664
296,25	5,854
296,46	2,187
296,67	2,996
296,88	5,566
297,09	2,420
297,31	1,495
297,52	9,072
297,73	2,640
297,94	4,198
298,15	6,739
298,37	2,301
298,58	3,277
298,79	5,004
299,00	-1,494
299,21	3,937
299,43	1,971
299,64	7,436
299,85	2,411
300,06	1,494
300,27	1,938
300,49	6,385
300,70	5,903
300,91	3,026
301,12	3,556
301,33	7,094
301,54	1,070
301,76	5,444
301,97	2,929
302,18	5,763
302,39	8,717
302,60	3,005
302,82	2,846
303,03	8,849
303,24	4,406
303,45	5,630
303,66	5,370
303,87	-0,507
304,09	6,492
304,30	1,880
304,51	3,647
304,72	1,648
304,93	5,088
305,14	2,555
305,36	2,637
305,57	1,689
305,78	6,138
305,99	3,880
306,20	5,357
306,41	1,571
306,62	1,563
306,84	4,349
307,05	4,638
307,26	2,279
307,47	9,579
307,68	2,429
307,89	3,098
308,11	6,709
308,32	3,644
308,53	3,692
308,74	2,371
308,95	0,931
309,16	7,415
309,37	4,199
309,59	0,699
309,80	3,152
310,01	2,150
310,22	5,113
310,43	5,156
310,64	6,099
310,85	6,376
311,06	1,554
311,28	3,727
311,49	3,582
311,70	7,878
311,91	3,479
312,12	1,512
312,33	3,060
312,54	4,710
312,75	7,236
312,97	4,062
313,18	6,651
313,39	1,590
313,60	3,262
313,81	2,474
314,02	4,766
314,23	7,895
314,44	2,594
314,65	2,433
314,87	1,120
315,08	2,574
315,29	3,235
315,50	4,252
315,71	9,160
315,92	6,761
316,13	0,997
316,34	3,684
316,55	7,353
316,77	1,025
316,98	1,800
317,19	1,800
317,40	5,817
317,61	7,806
317,82	6,232
318,03	0,508
318,24	4,580
318,45	7,691
318,66	4,799
318,87	1,417
319,09	4,952
319,30	5,900
319,51	6,483
319,72	4,571
319,93	6,314
320,14	6,259
320,35	6,203
320,56	0,834
320,77	4,853
320,98	7,217
321,19	7,280
321,40	4,729
321,62	5,729
321,83	-0,647
322,04	5,275
322,25	5,155
322,46	11,181
322,67	6,616
322,88	6,838
323,09	3,745
323,30	6,859
323,51	9,632
323,72	4,354
323,93	0,248
324,14	3,611
324,35	-1,046
324,56	0,459
324,77	3,260
324,99	1,871
325,20	3,905
325,41	5,053
325,62	3,811
325,83	-0,718
326,04	1,272
326,25	4,104
326,46	2,396
326,67	4,709
326,88	5,409
327,09	3,811
327,30	5,180
327,51	4,453
327,72	2,598
327,93	3,227
328,14	3,538
328,35	5,145
328,56	3,387
328,77	6,738
328,98	6,032
329,19	1,935
329,40	5,335
329,61	1,991
329,82	0,038
330,04	6,806
330,25	2,724
330,46	3,998
330,67	3,679
330,88	6,415
331,09	1,719
331,30	4,082
331,51	3,598
331,72	4,830
331,93	5,231
332,14	1,365
332,35	4,601
332,56	2,271
332,77	8,642
332,98	3,175
333,19	3,769
333,40	4,306
333,61	1,868
333,82	4,728
334,03	4,368
334,24	11,109
334,45	3,599
334,66	5,336
334,87	2,830
335,08	1,066
335,29	2,098
335,50	2,331
335,71	1,300
335,92	8,987
336,13	3,758
336,34	-0,466
336,55	4,302
336,76	4,794
336,97	3,253
337,18	3,368
337,39	4,641
337,60	5,392
337,81	4,257
338,02	4,794
338,23	4,298
338,44	3,509
338,65	1,241
338,86	4,029
339,07	4,940
339,28	0,829
339,49	3,586
339,70	1,726
339,91	3,261
340,11	7,776
340,32	4,305
340,53	2,433
340,74	-1,980
340,95	1,914
341,16	3,677
341,37	4,087
341,58	3,525
341,79	1,416
342,00	1,907
342,21	-0,717
342,42	3,955
342,63	6,262
342,84	5,345
343,05	3,666
343,26	7,443
343,47	4,714
343,68	2,293
343,89	0,967
344,10	2,725
344,31	3,979
344,52	2,938
344,73	1,296
344,94	1,801
345,14	5,655
345,35	4,201
345,56	1,457
345,77	0,785
345,98	1,623
346,19	3,827
346,40	6,150
346,61	0,381
346,82	4,723
347,03	5,536
347,24	1,702
347,45	2,893
347,66	6,357
347,87	3,464
348,08	7,973
348,28	2,723
348,49	1,508
348,70	5,091
348,91	5,363
349,12	4,534
349,33	-2,643
349,54	4,527
349,75	5,948
349,96	1,624
350,17	7,824
350,38	0,773
350,59	3,402
350,80	1,919
351,00	2,331
351,21	10,285
351,42	3,402
351,63	1,639
351,84	4,941
352,05	6,725
352,26	3,940
352,47	6,655
352,68	8,394
352,89	3,729
353,09	1,646
353,30	1,966
353,51	0,843
353,72	8,561
353,93	6,574
354,14	2,894
354,35	3,931
354,56	6,115
354,77	1,427
354,98	2,636
355,18	4,710
355,39	9,449
355,60	1,639
355,81	5,920
356,02	3,133
356,23	1,306
356,44	5,283
356,65	2,503
356,85	8,184
357,06	9,277
357,27	5,319
357,48	1,463
357,69	8,671
357,90	6,594
358,11	-2,539
358,32	1,403
358,52	6,679
358,73	3,782
358,94	2,586
359,15	4,800
359,36	8,308
359,57	5,710
359,78	9,191
359,98	4,999
360,19	0,767
360,40	3,588
360,61	6,432
360,82	2,030
361,03	11,092
361,24	14,306
361,44	0,906
361,65	2,740
361,86	2,136
362,07	2,879
362,28	8,518
362,49	4,301
362,70	4,919
362,90	5,385
363,11	2,086
363,32	1,154
363,53	3,645
363,74	8,588
363,95	7,266
364,15	3,720
364,36	7,300
364,57	2,278
364,78	2,107
364,99	1,117
365,20	6,629
365,40	6,097
365,61	4,558
365,82	5,137
366,03	9,076
366,24	2,349
366,45	0,774
366,65	0,383
366,86	5,633
367,07	4,094
367,28	-0,165
367,49	1,592
367,69	6,893
367,90	3,111
368,11	4,978
368,32	2,166
368,53	7,740
368,73	3,159
368,94	4,577
369,15	7,791
369,36	5,505
369,57	5,204
369,78	5,051
369,98	5,049
370,19	7,432
370,40	2,108
370,61	5,434
370,82	6,414
371,02	9,813
371,23	2,981
371,44	4,498
371,65	4,529
371,85	8,288
372,06	2,419
372,27	5,161
372,48	3,937
372,69	8,983
372,89	5,920
373,10	5,124
373,31	4,342
373,52	5,524
373,73	7,460
373,93	4,866
374,14	4,000
374,35	2,605
374,56	3,505
374,76	4,122
374,97	3,294
375,18	8,271
375,39	6,990
375,60	5,498
375,80	3,455
376,01	3,239
376,22	7,488
376,43	4,785
376,63	6,187
376,84	5,749
377,05	4,775
377,26	3,188
377,46	3,718
377,67	1,654
377,88	-0,334
378,09	4,281
378,29	3,296
378,50	2,824
378,71	7,204
378,92	1,965
379,12	1,452
379,33	2,799
379,54	4,823
379,75	7,269
379,95	5,270
380,16	6,073
380,37	5,786
380,58	3,400
380,78	5,316
380,99	-0,765
381,20	3,197
381,41	8,099
381,61	2,702
381,82	5,597
382,03	6,228
382,24	6,355
382,44	2,266
382,65	3,560
382,86	9,433
383,06	7,144
383,27	3,148
383,48	3,704
383,69	6,311
383,89	0,327
384,10	-0,489
384,31	5,963
384,51	8,514
384,72	8,748
384,93	2,814
385,14	2,081
385,34	2,478
385,55	2,348
385,76	1,259
385,96	10,092
386,17	3,574
386,38	2,707
386,59	8,785
386,79	6,494
387,00	9,504
387,21	8,519
387,41	4,893
387,62	4,683
387,83	7,881
388,03	3,734
388,24	3,413
388,45	3,309
388,66	4,874
388,86	4,928
389,07	3,299
389,28	11,492
389,48	4,448
389,69	4,228
389,90	1,631
390,10	2,153
390,31	7,049
390,52	3,078
390,72	3,168
390,93	3,973
391,14	4,215
391,34	4,800
391,55	4,364
391,76	7,055
391,96	10,288
392,17	4,719
392,38	4,195
392,58	4,787
392,79	2,831
393,00	2,003
393,20	4,378
393,41	5,431
393,62	7,292
393,82	1,991
394,03	4,555
394,24	2,201
394,44	8,014
394,65	4,925
394,86	2,268
395,06	9,117
395,27	5,762
395,48	5,713
395,68	0,760
395,89	4,415
396,10	7,908
396,30	1,725
396,51	2,500
396,72	8,396
396,92	-0,159
397,13	7,897
397,34	0,993
397,54	5,614
397,75	1,301
397,95	3,125
398,16	4,585
398,37	5,479
398,57	-1,386
398,78	3,037
398,99	5,573
399,19	6,222
399,40	12,592
399,60	1,895
399,81	7,173
400,02	7,676
400,22	6,055
400,43	8,245
400,64	3,485
400,84	0,121
401,05	5,545
401,25	5,942
401,46	0,958
401,67	7,019
401,87	3,027
402,08	-0,588
402,29	2,770
402,49	9,876
402,70	5,094
402,90	1,834
403,11	7,208
403,32	-2,982
403,52	1,696
403,73	2,020
403,93	6,716
404,14	10,000
404,35	3,536
404,55	-1,254
404,76	1,669
404,96	3,859
405,17	9,192
405,38	8,029
405,58	0,154
405,79	6,195
405,99	9,375
406,20	4,490
406,40	4,116
406,61	5,888
406,82	4,237
407,02	5,153
407,23	0,665
407,43	3,518
407,64	-1,630
407,85	2,580
408,05	-2,785
408,26	11,202
408,46	10,438
408,67	3,734
408,87	4,271
409,08	1,379
409,29	10,585
409,49	8,041
409,70	4,512
409,90	3,546
410,11	6,772
410,31	7,910
410,52	4,837
410,72	2,483
410,93	5,958
411,14	2,089
411,34	0,841
411,55	3,917
411,75	5,721
411,96	5,157
412,16	4,895
412,37	2,268
412,57	7,431
412,78	6,336
412,99	0,458
413,19	5,742
413,40	4,449
413,60	-0,048
413,81	0,944
414,01	0,946
414,22	2,840
414,42	2,486
414,63	0,795
414,83	0,865
415,04	6,411
415,24	2,006
415,45	1,301
415,65	6,319
415,86	8,726
416,07	1,545
416,27	6,000
416,48	6,683
416,68	11,544
416,89	1,110
417,09	4,978
417,30	8,521
417,50	-2,259
417,71	8,999
417,91	6,169
418,12	3,763
418,32	6,082
418,53	0,400
418,73	3,412
418,94	1,633
419,14	4,301
419,35	-0,047
419,55	2,918
419,76	7,092
419,96	5,310
420,17	1,129
420,37	1,571
420,58	6,344
420,78	4,769
420,99	0,329
421,19	5,020
421,40	10,020
421,60	7,085
421,81	-1,207
422,01	3,787
422,22	2,413
422,42	4,028
422,63	6,084
422,83	5,858
423,04	11,338
423,24	14,768
423,45	5,597
423,65	2,455
423,86	8,235
424,06	7,310
424,27	1,638
424,47	4,398
424,67	1,352
424,88	3,753
425,08	0,724
425,29	6,911
425,49	-1,516
425,70	2,494
425,90	2,305
426,11	3,240
426,31	3,880
426,52	5,638
426,72	2,946
426,93	-0,330
427,13	6,232
427,33	0,652
427,54	6,717
427,74	5,140
427,95	10,569
428,15	0,452
428,36	0,530
428,56	1,811
428,77	5,018
428,97	4,668
429,18	3,206
429,38	3,635
429,58	3,593
429,79	5,331
429,99	-0,314
430,20	2,521
430,40	7,647
430,61	1,289
430,81	1,475
431,01	5,275
431,22	8,044
431,42	2,832
431,63	-1,810
431,83	4,496
432,04	5,945
432,24	4,310
432,44	4,520
432,65	2,351
432,85	2,816
433,06	4,760
433,26	2,045
433,47	1,314
433,67	1,017
433,87	4,314
434,08	2,995
434,28	-3,455
434,49	1,673
434,69	11,971
434,89	3,445
435,10	2,471
435,30	7,335
435,51	2,786
435,71	1,021
435,91	0,411
436,12	2,188
436,32	3,029
436,53	1,386
436,73	2,371
436,93	1,392
437,14	3,342
437,34	3,404
437,55	0,854
437,75	7,233
437,95	7,848
438,16	-1,557
438,36	3,194
438,57	3,246
438,77	-0,726
438,97	4,710
439,18	4,512
439,38	4,026
439,58	0,816
439,79	3,552
439,99	-2,179
440,20	7,540
440,40	6,495
440,60	3,911
440,81	3,251
441,01	5,469
441,21	4,812
441,42	3,335
441,62	5,287
441,83	4,071
442,03	3,085
442,23	5,916
442,44	3,714
442,64	5,787
442,84	1,156
443,05	5,675
443,25	1,518
443,45	5,912
443,66	1,301
443,86	0,741
444,06	7,987
444,27	1,192
444,47	8,527
444,67	5,484
444,88	7,709
445,08	5,177
445,28	-1,501
445,49	4,477
445,69	1,541
445,90	4,293
446,10	8,116
446,30	3,760
446,51	2,943
446,71	5,597
446,91	4,394
447,12	12,090
447,32	0,607
447,52	4,057
447,72	7,716
447,93	-0,743
448,13	0,513
448,33	9,143
448,54	5,427
448,74	2,918
448,94	1,606
449,15	9,505
449,35	2,473
449,55	6,874
449,76	2,924
449,96	0,377
450,16	3,797
450,37	1,507
450,57	6,701
450,77	3,023
450,98	1,989
451,18	5,478
451,38	5,030
451,58	6,388
451,79	-0,386
451,99	4,935
452,19	4,661
452,40	10,371
452,60	1,953
452,80	6,961
453,00	7,941
453,21	2,480
453,41	4,794
453,61	3,419
453,82	6,196
454,02	2,287
454,22	17,676
454,42	4,761
454,63	3,335
454,83	0,089
455,03	8,064
455,24	3,817
455,44	2,771
455,64	5,545
455,84	1,383
456,05	0,429
456,25	0,482
456,45	2,356
456,65	4,063
456,86	5,185
457,06	5,319
457,26	7,581
457,47	8,389
457,67	5,307
457,87	1,898
458,07	8,044
458,28	9,445
458,48	10,745
458,68	-0,739
458,88	10,772
459,09	4,258
459,29	10,122
459,49	-1,918
459,69	4,505
459,90	8,689
460,10	3,398
460,30	6,396
460,50	1,992
460,71	6,481
460,91	-1,226
461,11	7,198
461,31	4,323
461,52	6,029
461,72	3,459
461,92	2,056
462,12	12,763
462,32	0,442
462,53	2,885
462,73	4,341
462,93	5,259
463,13	7,760
463,34	3,043
463,54	7,474
463,74	4,454
463,94	2,496
464,14	5,844
464,35	2,370
464,55	7,703
464,75	14,215
464,95	4,511
465,16	2,552
465,36	10,810
465,56	3,979
465,76	2,019
465,96	4,809
466,17	6,639
466,37	1,782
466,57	8,075
466,77	6,444
466,97	1,787
467,18	7,602
467,38	8,083
467,58	12,179
467,78	9,212
467,98	6,983
468,19	0,934
468,39	6,964
468,59	2,976
468,79	5,916
468,99	7,188
469,19	3,449
469,40	5,448
469,60	4,994
469,80	2,882
470,00	7,584
470,20	8,122
470,41	3,200
470,61	6,724
470,81	9,408
471,01	3,561
471,21	8,291
471,41	8,960
471,62	5,271
471,82	3,300
472,02	3,868
472,22	4,306
472,42	4,824
472,62	9,580
472,83	2,342
473,03	7,472
473,23	7,086
473,43	9,339
473,63	7,593
473,83	5,688
474,03	7,105
474,24	9,534
474,44	5,255
474,64	7,406
474,84	-0,066
475,04	2,641
475,24	8,710
475,45	8,473
475,65	5,336
475,85	10,062
476,05	-1,277
476,25	4,835
476,45	6,941
476,65	8,737
476,85	5,466
477,06	8,983
477,26	3,659
477,46	6,397
477,66	8,609
477,86	6,377
478,06	8,912
478,26	14,374
478,46	3,360
478,67	9,819
478,87	5,206
479,07	8,062
479,27	8,386
479,47	5,232
479,67	0,898
479,87	2,925
480,07	10,877
480,28	7,443
480,48	1,764
480,68	10,243
480,88	12,969
481,08	10,586
481,28	7,319
481,48	7,131
481,68	6,048
481,88	2,616
482,08	5,690
482,29	7,944
482,49	4,615
482,69	8,091
482,89	4,556
483,09	11,605
483,29	5,645
483,49	6,892
483,69	7,714
483,89	7,150
484,09	3,315
484,29	3,877
484,50	6,162
484,70	7,884
484,90	5,101
485,10	8,405
485,30	9,395
485,50	11,461
485,70	8,345
485,90	5,112
486,10	2,867
486,30	4,968
486,50	6,715
486,70	4,447
486,90	7,100
487,10	8,477
487,30	5,795
487,51	7,983
487,71	4,282
487,91	7,131
488,11	10,179
488,31	5,878
488,51	7,981
488,71	6,064
488,91	7,042
489,11	4,582
489,31	6,656
489,51	9,656
489,71	5,844
489,91	6,195
490,11	6,424
490,31	9,821
490,51	11,420
490,71	10,205
490,91	6,979
491,11	7,690
491,31	9,671
491,51	8,308
491,72	6,140
491,92	7,230
492,12	11,022
492,32	9,256
492,52	8,318
492,72	6,285
492,92	7,770
493,12	10,948
493,32	6,763
493,52	6,150
493,72	7,704
493,92	8,458
494,12	7,873
494,32	9,261
494,52	9,274
494,72	7,878
494,92	4,951
495,12	13,219
495,32	12,408
495,52	10,074
495,72	10,145
495,92	10,623
496,12	11,531
496,32	10,762
496,52	7,451
496,72	13,973
496,92	9,801
497,12	11,895
497,32	10,028
497,52	10,547
497,72	11,122
497,92	9,402
498,12	10,746
498,32	8,918
498,52	7,492
498,72	8,216
498,92	8,886
499,12	9,617
499,32	6,761
499,52	13,266
499,72	9,270
499,92	12,602
500,12	10,647
500,32	10,000
500,52	10,509
500,72	15,844
500,91	15,245
501,11	10,860
501,31	10,943
501,51	12,502
501,71	13,139
501,91	11,911
502,11	9,056
502,31	12,473
502,51	12,654
502,71	12,490
502,91	7,177
503,11	12,408
503,31	14,121
503,51	6,239
503,71	11,434
503,91	12,940
504,11	10,863
504,31	13,423
504,51	10,003
504,71	16,274
504,91	9,374
505,10	15,806
505,30	11,999
505,50	11,968
505,70	11,234
505,90	11,727
506,10	9,145
506,30	13,126
506,50	12,173
506,70	15,018
506,90	12,816
507,10	8,475
507,30	9,983
507,50	13,101
507,70	14,810
507,89	16,281
508,09	14,322
508,29	10,595
508,49	9,731
508,69	13,915
508,89	10,092
509,09	12,565
509,29	11,886
509,49	14,981
509,69	13,772
509,89	14,720
510,09	14,003
510,28	13,429
510,48	10,752
510,68	12,935
510,88	13,426
511,08	13,233
511,28	13,688
511,48	11,561
511,68	8,497
511,88	18,511
512,07	10,817
512,27	12,092
512,47	11,818
512,67	10,663
512,87	10,477
513,07	13,400
513,27	10,359
513,47	12,307
513,67	10,090
513,86	14,105
514,06	15,897
514,26	14,280
514,46	15,040
514,66	12,072
514,86	13,362
515,06	18,675
515,26	16,366
515,45	12,973
515,65	10,828
515,85	14,526
516,05	12,095
516,25	13,866
516,45	15,834
516,65	8,868
516,84	13,830
517,04	16,620
517,24	13,860
517,44	14,307
517,64	14,421
517,84	16,200
518,04	11,705
518,23	15,922
518,43	17,567
518,63	13,085
518,83	10,102
519,03	14,108
519,23	12,874
519,42	16,737
519,62	12,463
519,82	14,218
520,02	13,921
520,22	15,695
520,42	12,613
520,61	17,189
520,81	15,164
521,01	18,196
521,21	12,464
521,41	13,171
521,61	17,864
521,80	13,379
522,00	12,480
522,20	16,735
522,40	15,968
522,60	12,269
522,79	11,505
522,99	19,012
523,19	11,599
523,39	13,836
523,59	14,287
523,78	14,451
523,98	10,252
524,18	17,141
524,38	9,639
524,58	14,705
524,77	16,790
524,97	16,433
525,17	12,774
525,37	11,938
525,57	19,394
525,76	14,675
525,96	18,672
526,16	13,505
526,36	14,503
526,56	14,370
526,75	13,619
526,95	17,209
527,15	13,056
527,35	14,295
527,55	13,244
527,74	13,442
527,94	13,995
528,14	11,013
528,34	15,495
528,53	11,730
528,73	19,884
528,93	17,061
529,13	11,627
529,32	15,224
529,52	15,027
529,72	15,145
529,92	13,187
530,12	13,874
530,31	13,460
530,51	15,922
530,71	13,732
530,91	20,295
531,10	11,695
531,30	15,487
531,50	11,560
531,70	14,782
531,89	16,103
532,09	11,610
532,29	14,464
532,49	15,285
532,68	15,195
532,88	13,189
533,08	11,768
533,28	16,090
533,47	14,443
533,67	16,395
533,87	11,923
534,06	21,412
534,26	13,844
534,46	13,597
534,66	15,176
534,85	17,388
535,05	12,876
535,25	11,718
535,45	13,216
535,64	17,734
535,84	16,825
536,04	11,268
536,23	13,971
536,43	17,787
536,63	13,223
536,83	15,375
537,02	15,309
537,22	11,133
537,42	14,869
537,61	13,833
537,81	12,847
538,01	15,711
538,20	14,107
538,40	11,555
538,60	13,272
538,80	10,630
538,99	14,308
539,19	11,371
539,39	12,620
539,58	13,794
539,78	12,962
539,98	10,148
540,17	7,955
540,37	12,046
540,57	8,290
540,76	9,296
540,96	6,949
541,16	8,793
541,36	8,162
541,55	5,293
541,75	5,650
541,95	7,102
542,14	4,389
542,34	3,384
542,54	3,237
542,73	7,155
542,93	5,186
543,13	5,153
543,32	4,049
543,52	8,016
543,72	3,016
543,91	7,407
544,11	5,098
544,31	1,765
544,50	5,578
544,70	9,131
544,89	6,439
545,09	8,877
545,29	6,709
545,48	8,060
545,68	5,343
545,88	8,640
546,07	6,894
546,27	8,717
546,47	8,707
546,66	10,329
546,86	8,169
547,06	10,254
547,25	8,370
547,45	8,893
547,64	11,084
547,84	12,913
548,04	12,675
548,23	16,984
548,43	12,255
548,63	13,737
548,82	13,047
549,02	13,302
549,21	11,628
549,41	12,391
549,61	13,824
549,80	11,939
550,00	11,846
550,20	12,347
550,39	14,101
550,59	13,596
550,78	14,811
550,98	12,735
551,18	13,808
551,37	14,901
551,57	13,295
551,76	14,858
551,96	11,975
552,16	12,454
552,35	13,472
552,55	11,519
552,74	12,908
552,94	17,451
553,14	11,754
553,33	15,892
553,53	13,397
553,72	13,515
553,92	17,046
554,12	13,179
554,31	15,011
554,51	16,070
554,70	10,146
554,90	14,762
555,09	19,121
555,29	12,856
555,49	14,787
555,68	18,619
555,88	12,944
556,07	13,441
556,27	18,468
556,46	14,391
556,66	13,227
556,86	19,275
557,05	15,096
557,25	12,813
557,44	15,294
557,64	12,505
557,83	15,433
558,03	15,180
558,22	11,851
558,42	14,794
558,62	15,169
558,81	17,661
559,01	15,563
559,20	14,902
559,40	14,540
559,59	14,809
559,79	13,270
559,98	13,444
560,18	15,606
560,37	16,069
560,57	17,036
560,76	13,813
560,96	11,398
561,16	14,985
561,35	12,662
561,55	16,200
561,74	14,075
561,94	15,683
562,13	15,919
562,33	15,664
562,52	16,030
562,72	13,209
562,91	14,038
563,11	14,863
563,30	15,360
563,50	13,545
563,69	13,415
563,89	12,625
564,08	14,783
564,28	14,259
564,47	15,612
564,67	14,839
564,86	14,046
565,06	14,552
565,25	14,598
565,45	12,798
565,64	17,429
565,84	15,528
566,03	11,095
566,23	15,782
566,42	14,439
566,62	13,644
566,81	11,778
567,01	11,779
567,20	13,760
567,40	13,560
567,59	12,912
567,79	17,656
567,98	16,670
568,18	13,105
568,37	16,414
568,57	14,526
568,76	13,686
568,96	14,873
569,15	13,544
569,35	14,625
569,54	19,680
569,73	15,108
569,93	13,208
570,12	14,064
570,32	16,497
570,51	14,441
570,71	16,092
570,90	14,656
571,10	13,521
571,29	13,907
571,49	12,343
571,68	14,724
571,87	16,231
572,07	15,136
572,26	11,201
572,46	14,173
572,65	14,853
572,85	13,032
573,04	14,812
573,24	13,309
573,43	16,885
573,62	15,527
573,82	14,887
574,01	13,276
574,21	12,128
574,40	14,557
574,60	10,881
574,79	17,201
574,98	13,628
575,18	13,558
575,37	10,701
575,57	13,546
575,76	14,925
575,96	14,241
576,15	14,003
576,34	13,156
576,54	14,225
576,73	14,312
576,93	13,773
577,12	13,658
577,31	13,185
577,51	12,077
577,70	13,303
577,90	12,851
578,09	13,085
578,28	12,617
578,48	12,698
578,67	14,325
578,87	14,639
579,06	13,089
579,25	14,925
579,45	14,304
579,64	12,158
579,84	12,304
580,03	13,805
580,22	14,907
580,42	12,674
580,61	15,092
580,81	13,066
581,00	13,624
581,19	14,740
581,39	12,298
581,58	13,075
581,77	12,411
581,97	15,123
582,16	13,534
582,35	12,683
582,55	12,994
582,74	15,100
582,94	15,132
583,13	13,156
583,32	13,771
583,52	14,593
583,71	13,332
583,90	13,601
584,10	14,153
584,29	14,471
584,48	11,889
584,68	10,745
584,87	14,820
585,06	13,116
585,26	11,413
585,45	12,379
585,65	15,015
585,84	13,545
586,03	13,287
586,23	12,194
586,42	13,540
586,61	17,198
586,81	13,634
587,00	11,902
587,19	14,372
587,39	16,062
587,58	13,391
587,77	13,104
587,97	13,052
588,16	13,912
588,35	12,829
588,54	13,009
588,74	13,784
588,93	15,020
589,12	13,907
589,32	11,269
589,51	12,848
589,70	12,021
589,90	11,320
590,09	10,907
590,28	16,696
590,48	10,943
590,67	14,700
590,86	13,263
591,06	13,164
591,25	14,179
591,44	14,255
591,63	13,606
591,83	13,321
592,02	13,589
592,21	13,460
592,41	12,789
592,60	14,643
592,79	14,311
592,98	15,387
593,18	12,414
593,37	13,567
593,56	13,888
593,76	14,848
593,95	13,434
594,14	12,669
594,33	16,166
594,53	14,398
594,72	12,807
594,91	15,579
595,10	14,347
595,30	13,641
595,49	13,109
595,68	15,272
595,88	15,969
596,07	13,696
596,26	15,009
596,45	13,041
596,65	12,940
596,84	12,622
597,03	15,161
597,22	14,097
597,42	16,186
597,61	14,501
597,80	15,492
597,99	12,754
598,19	14,752
598,38	13,759
598,57	13,179
598,76	15,178
598,95	14,579
599,15	14,010
599,34	13,111
599,53	12,989
599,72	12,161
599,92	15,477
600,11	14,712
600,30	14,769
600,49	17,206
600,69	13,598
600,88	15,106
601,07	13,047
601,26	11,906
601,45	13,644
601,65	12,712
601,84	15,381
602,03	12,896
602,22	15,463
602,42	15,389
602,61	13,258
602,80	14,888
602,99	13,669
603,18	13,298
603,38	16,538
603,57	13,409
603,76	13,371
603,95	11,448
604,14	15,191
604,34	11,839
604,53	13,050
604,72	15,167
604,91	14,366
605,10	14,289
605,29	15,330
605,49	11,876
605,68	15,079
605,87	18,508
606,06	13,327
606,25	12,415
606,45	15,018
606,64	13,446
606,83	16,092
607,02	12,315
607,21	14,730
607,40	14,578
607,60	12,595
607,79	12,312
607,98	12,531
608,17	12,936
608,36	11,909
608,55	12,244
608,75	13,301
608,94	13,009
609,13	9,031
609,32	9,704
609,51	10,909
609,70	10,554
609,89	8,960
610,09	9,274
610,28	9,508
610,47	9,272
610,66	8,892
610,85	6,964
611,04	10,227
611,23	6,928
611,43	8,251
611,62	8,658
611,81	8,154
612,00	8,606
612,19	8,033
612,38	9,056
612,57	9,863
612,77	10,237
612,96	9,637
613,15	9,795
613,34	11,767
613,53	11,351
613,72	11,644
613,91	10,617
614,10	12,352
614,29	13,120
614,49	11,954
614,68	11,162
614,87	11,767
615,06	15,277
615,25	13,159
615,44	13,311
615,63	13,305
615,82	11,573
616,01	13,046
616,21	12,457
616,40	14,277
616,59	14,574
616,78	13,439
616,97	12,968
617,16	13,080
617,35	14,781
617,54	13,185
617,73	15,232
617,92	13,513
618,11	14,068
618,31	13,469
618,50	16,220
618,69	13,198
618,88	14,281
619,07	10,171
619,26	12,289
619,45	12,069
619,64	10,993
619,83	11,749
620,02	12,918
620,21	15,731
620,40	13,096
620,59	14,161
620,78	12,233
620,97	14,284
621,17	16,785
621,36	11,821
621,55	12,655
621,74	15,371
621,93	14,173
622,12	13,185
622,31	12,392
622,50	12,810
622,69	15,447
622,88	13,878
623,07	15,198
623,26	14,291
623,45	16,170
623,64	12,628
623,83	12,529
624,02	13,507
624,21	14,151
624,40	12,880
624,59	11,364
624,78	13,579
624,97	16,266
625,16	13,192
625,35	12,324
625,54	12,182
625,73	12,576
625,92	15,702
626,12	15,710
626,31	14,498
626,50	14,889
626,69	12,826
626,88	13,526
627,07	14,226
627,26	14,319
627,45	14,403
627,64	11,804
627,83	14,213
628,02	11,155
628,21	13,595
628,40	13,328
628,59	14,349
628,78	11,785
628,97	14,198
629,16	12,704
629,35	13,949
629,54	15,068
629,73	14,747
629,92	12,190
630,10	14,404
630,29	14,473
630,48	11,358
630,67	12,043
630,86	14,312
631,05	13,141
631,24	14,803
631,43	11,400
631,62	12,726
631,81	12,380
632,00	14,112
632,19	11,431
632,38	15,100
632,57	15,725
632,76	12,240
632,95	14,211
633,14	16,451
633,33	15,080
633,52	15,336
633,71	14,482
633,90	12,046
634,09	14,890
634,28	15,455
634,47	13,449
634,66	14,251
634,85	13,590
635,04	15,450
635,22	12,553
635,41	13,718
635,60	16,201
635,79	16,882
635,98	13,871
636,17	14,997
636,36	12,019
636,55	12,493
636,74	12,982
636,93	13,487
637,12	13,695
637,31	12,575
637,50	12,992
637,69	13,047
637,87	15,723
638,06	12,264
638,25	12,154
638,44	13,962
638,63	12,467
638,82	12,807
639,01	13,413
639,20	13,996
639,39	15,380
639,58	13,850
639,77	13,317
639,95	13,651
640,14	15,496
640,33	14,155
640,52	13,997
640,71	16,753
640,90	12,319
641,09	15,192
641,28	13,771
641,47	14,575
641,66	13,426
641,84	15,904
642,03	11,266
642,22	13,736
642,41	17,423
642,60	14,210
642,79	13,521
642,98	14,513
643,17	14,832
643,35	13,177
643,54	13,450
643,73	13,400
643,92	14,384
644,11	14,342
644,30	14,059
644,49	15,124
644,67	13,664
644,86	13,424
645,05	13,912
645,24	12,628
645,43	12,610
645,62	13,872
645,81	12,060
645,99	13,761
646,18	15,526
646,37	15,101
646,56	13,135
646,75	14,028
646,94	16,597
647,13	12,215
647,31	13,219
647,50	11,518
647,69	15,405
647,88	14,557
648,07	14,142
648,26	18,282
648,44	11,961
648,63	14,225
648,82	12,425
649,01	14,694
649,20	11,319
649,38	15,028
649,57	12,277
649,76	12,675
649,95	13,971
650,14	12,096
650,33	13,029
650,51	15,374
650,70	14,157
650,89	13,674
651,08	13,639
651,27	14,505
651,45	12,888
651,64	13,231
651,83	13,231
652,02	12,701
652,21	12,922
652,39	13,395
652,58	12,974
652,77	14,646
652,96	12,940
653,15	15,137
653,33	13,732
653,52	13,268
653,71	14,960
653,90	14,638
654,09	13,372
654,27	12,423
654,46	14,616
654,65	13,590
654,84	13,122
655,02	14,553
655,21	12,977
655,40	14,739
655,59	13,613
655,77	14,382
655,96	13,438
656,15	15,522
656,34	15,037
656,53	13,830
656,71	14,583
656,90	15,320
657,09	15,317
657,28	16,064
657,46	14,522
657,65	13,779
657,84	12,926
658,03	14,321
658,21	15,380
658,40	13,107
658,59	13,144
658,78	14,184
658,96	13,277
659,15	15,265
659,34	12,922
659,52	13,911
659,71	14,533
659,90	14,538
660,09	12,907
660,27	14,497
660,46	16,201
660,65	15,297
660,84	13,047
661,02	14,387
661,21	15,216
661,40	16,555
661,58	14,529
661,77	13,919
661,96	11,811
662,15	14,364
662,33	13,756
662,52	14,603
662,71	13,981
662,89	13,223
663,08	13,178
663,27	16,038
663,45	13,425
663,64	13,829
663,83	12,365
664,02	12,042
664,20	15,503
664,39	13,482
664,58	13,858
664,76	14,140
664,95	14,247
665,14	14,627
665,32	13,924
665,51	15,337
665,70	14,764
665,88	15,992
666,07	13,714
666,26	16,796
666,44	15,938
666,63	12,140
666,82	13,003
667,00	14,499
667,19	12,674
667,38	14,515
667,56	13,934
667,75	15,213
667,94	13,355
668,12	13,819
668,31	15,696
668,50	15,231
668,68	15,807
668,87	13,420
669,06	14,274
669,24	15,691
669,43	13,873
669,62	13,710
669,80	12,260
669,99	13,950
670,18	14,319
670,36	12,425
670,55	16,286
670,74	12,469
670,92	11,537
671,11	15,674
671,29	12,203
671,48	13,447
671,67	14,482
671,85	13,529
672,04	13,657
672,23	12,698
672,41	13,756
672,60	14,970
672,78	13,643
672,97	15,078
673,16	14,510
673,34	15,811
673,53	12,982
673,71	15,010
673,90	15,259
674,09	14,674
674,27	15,205
674,46	14,660
674,64	14,645
674,83	14,023
675,02	12,580
675,20	14,073
675,39	13,283
675,57	13,763
675,76	13,469
675,95	16,753
676,13	13,590
676,32	13,344
676,50	13,530
676,69	12,455
676,88	14,378
677,06	11,536
677,25	14,736
677,43	17,363
677,62	15,655
677,80	15,358
677,99	14,730
678,18	15,880
678,36	15,883
678,55	13,025
678,73	12,705
678,92	14,975
679,10	14,109
679,29	14,226
679,48	11,902
679,66	14,239
679,85	13,898
680,03	14,216
680,22	13,215
680,40	13,857
680,59	14,198
680,77	12,790
680,96	13,822
681,15	13,753
681,33	15,726
681,52	13,579
681,70	13,923
681,89	16,574
682,07	13,297
682,26	13,126
682,44	14,496
682,63	13,166
682,81	15,562
683,00	14,587
683,18	12,457
683,37	15,020
683,55	13,384
683,74	15,025
683,92	19,467
684,11	13,290
684,29	13,402
684,48	13,726
684,67	13,190
684,85	13,762
685,04	14,645
685,22	14,533
685,41	13,510
685,59	14,114
685,78	11,903
685,96	12,830
686,15	12,726
686,33	13,365
686,52	13,626
686,70	14,385
686,89	13,742
687,07	13,837
687,26	14,763
687,44	13,802
687,62	13,881
687,81	15,218
687,99	14,880
688,18	13,984
688,36	13,886
688,55	15,851
688,73	14,109
688,92	14,342
689,10	14,912
689,29	15,457
689,47	15,586
689,66	13,267
689,84	13,779
690,03	18,417
690,21	13,601
690,40	13,212
690,58	13,751
690,76	12,061
690,95	14,440
691,13	12,302
691,32	14,408
691,50	14,042
691,69	15,547
691,87	13,833
692,06	13,479
692,24	14,315
692,43	14,397
692,61	15,213
692,79	14,025
692,98	12,887
693,16	16,339
693,35	13,250
693,53	15,983
693,72	15,093
693,90	16,046
694,08	12,215
694,27	14,103
694,45	15,326
694,64	16,151
694,82	12,942
695,01	14,923
695,19	13,395
695,37	14,383
695,56	13,542
695,74	15,183
695,93	15,251
696,11	13,942
696,29	15,352
696,48	15,958
696,66	14,830
696,85	12,234
697,03	13,176
697,21	14,852
697,40	15,809
697,58	14,964
697,77	15,325
697,95	14,502
698,13	14,042
698,32	13,420
698,50	13,497
698,69	12,906
698,87	15,457
699,05	16,018
699,24	13,306
699,42	15,138
699,60	12,590
699,79	13,363
699,97	12,152
700,16	12,736
700,34	17,193
700,52	14,157
700,71	14,423
700,89	12,920
701,07	12,682
701,26	13,534
701,44	13,859
701,63	13,654
701,81	14,917
701,99	14,533
702,18	13,726
702,36	14,528
702,54	15,870
702,73	14,461
702,91	13,011
703,09	12,701
703,28	12,913
703,46	14,492
703,64	15,396
703,83	14,786
704,01	14,625
704,19	13,406
704,38	12,959
704,56	14,221
704,74	14,279
704,93	13,091
705,11	13,870
705,29	14,198
705,48	17,418
705,66	13,802
705,84	13,563
706,03	11,593
706,21	13,602
706,39	13,357
706,58	13,047
706,76	14,550
706,94	15,587
707,12	13,577
707,31	13,699
707,49	13,356
707,67	13,282
707,86	17,340
708,04	14,387
708,22	14,311
708,41	15,215
708,59	13,277
708,77	15,035
708,95	14,434
709,14	17,574
709,32	15,228
709,50	12,953
709,69	14,363
709,87	14,673
710,05	12,643
710,23	12,704
710,42	13,231
710,60	14,329
710,78	16,767
710,97	15,011
711,15	13,501
711,33	14,689
711,51	14,452
711,70	13,920
711,88	14,319
712,06	15,545
712,24	15,041
712,43	14,419
712,61	13,167
712,79	13,903
712,97	14,006
713,16	15,099
713,34	12,202
713,52	15,747
713,70	14,364
713,89	14,109
714,07	14,030
714,25	15,640
714,43	15,697
714,62	12,849
714,80	12,923
714,98	12,326
715,16	13,540
715,35	13,301
715,53	14,981
715,71	16,560
715,89	18,334
716,07	15,186
716,26	14,213
716,44	15,621
716,62	15,454
716,80	14,549
716,99	14,089
717,17	17,603
717,35	13,575
717,53	12,783
717,71	14,035
717,90	16,394
718,08	14,981
718,26	14,754
718,44	16,893
718,62	16,279
718,81	15,331
718,99	13,989
719,17	15,016
719,35	15,101
719,53	14,876
719,72	12,013
719,90	14,139
720,08	12,614
720,26	17,633
720,44	13,998
720,62	13,745
720,81	17,875
720,99	15,868
721,17	14,168
721,35	15,759
721,53	12,355
721,72	15,815
721,90	13,656
722,08	14,095
722,26	15,214
722,44	15,001
722,62	13,006
722,81	13,269
722,99	14,709
723,17	13,819
723,35	14,710
723,53	16,140
723,71	15,751
723,89	17,710
724,08	15,268
724,26	14,037
724,44	15,224
724,62	16,055
724,80	11,710
724,98	15,263
725,16	17,703
725,35	14,787
725,53	15,029
725,71	14,675
725,89	13,390
726,07	18,024
726,25	17,267
726,43	13,375
726,61	15,370
726,80	15,704
726,98	12,913
727,16	12,185
727,34	14,960
727,52	13,627
727,70	13,449
727,88	13,338
728,06	12,048
728,25	13,273
728,43	13,052
728,61	13,745
728,79	14,242
728,97	15,992
729,15	14,514
729,33	15,754
729,51	16,512
729,69	15,339
729,87	13,945
730,06	15,684
730,24	16,595
730,42	16,876
730,60	13,411
730,78	16,118
730,96	15,517
731,14	16,049
731,32	14,648
731,50	13,869
731,68	13,330
731,86	16,945
732,04	13,841
732,22	13,846
732,41	22,014
732,59	14,027
732,77	14,983
732,95	14,620
733,13	16,771
733,31	15,910
733,49	12,129
733,67	15,837
733,85	15,322
734,03	14,217
734,21	13,813
734,39	15,084
734,57	15,410
734,75	15,780
734,93	13,083
735,11	15,605
735,29	13,272
735,47	14,400
735,65	12,663
735,84	14,148
736,02	14,411
736,20	17,424
736,38	13,963
736,56	15,013
736,74	15,916
736,92	15,044
737,10	14,238
737,28	15,437
737,46	15,329
737,64	14,847
737,82	13,266
738,00	15,680
738,18	14,681
738,36	14,873
738,54	14,170
738,72	14,015
738,90	15,103
739,08	14,798
739,26	14,176
739,44	15,726
739,62	17,928
739,80	16,597
739,98	13,060
740,16	14,911
740,34	14,689
740,52	18,185
740,70	14,246
740,88	16,163
741,06	15,318
741,24	15,076
741,42	13,002
741,60	14,910
741,78	14,974
741,96	16,643
742,14	14,740
742,32	15,494
742,50	13,934
742,68	15,557
742,86	14,906
743,04	13,156
743,21	15,224
743,39	14,337
743,57	14,960
743,75	15,279
743,93	12,279
744,11	11,043
744,29	14,953
744,47	13,949
744,65	15,901
744,83	14,832
745,01	13,629
745,19	13,380
745,37	18,316
745,55	15,336
745,73	16,073
745,91	12,525
746,09	15,605
746,27	13,049
746,45	13,851
746,62	14,874
746,80	12,687
746,98	15,197
747,16	10,858
747,34	13,180
747,52	14,806
747,70	16,278
747,88	16,234
748,06	14,751
748,24	15,726
748,42	16,570
748,60	14,166
748,78	11,606
748,95	18,688
749,13	19,403
749,31	14,067
749,49	14,381
749,67	15,983
749,85	16,096
750,03	14,737
750,21	15,221
750,39	16,604
750,57	12,235
750,74	15,909
750,92	14,495
751,10	15,451
751,28	13,696
751,46	15,214
751,64	14,804
751,82	15,433
752,00	16,214
752,17	17,272
752,35	16,819
752,53	16,232
752,71	14,989
752,89	14,684
753,07	13,980
753,25	15,046
753,43	12,683
753,60	15,764
753,78	17,312
753,96	15,857
754,14	17,086
754,32	16,859
754,50	14,664
754,68	16,855
754,85	13,962
755,03	16,343
755,21	16,259
755,39	17,020
755,57	15,906
755,75	16,094
755,92	16,095
756,10	16,127
756,28	15,136
756,46	14,753
756,64	13,963
756,82	15,847
756,99	15,591
757,17	14,361
757,35	13,620
757,53	19,138
757,71	18,417
757,89	13,728
758,06	16,076
758,24	16,685
758,42	15,931
758,60	13,726
758,78	15,656
758,95	17,334
759,13	16,411
759,31	16,179
759,49	13,188
759,67	16,167
759,84	13,616
760,02	15,026
760,20	13,877
760,38	16,203
760,56	13,715
760,73	13,597
760,91	13,444
761,09	16,680
761,27	15,089
761,45	15,363
761,62	12,934
761,80	14,635
761,98	16,078
762,16	17,532
762,33	13,154
762,51	16,423
762,69	13,191
762,87	15,531
763,05	17,109
763,22	16,287
763,40	15,651
763,58	15,075
763,76	13,286
763,93	16,608
764,11	17,218
764,29	17,344
764,47	18,540
764,64	16,242
764,82	17,942
765,00	14,740
765,18	13,655
765,35	14,551
765,53	14,941
765,71	16,399
765,89	14,282
766,06	13,842
766,24	15,868
766,42	15,348
766,60	13,587
766,77	13,652
766,95	14,676
767,13	15,448
767,30	15,425
767,48	13,597
767,66	14,235
767,84	12,981
768,01	15,386
768,19	15,119
768,37	14,605
768,54	16,120
768,72	16,593
768,90	14,335
769,08	16,848
769,25	14,785
769,43	14,823
769,61	12,908
769,78	16,889
769,96	13,454
770,14	15,535
770,31	17,790
770,49	19,907
770,67	13,944
770,85	16,074
771,02	16,485
771,20	15,708
771,38	16,495
771,55	16,593
771,73	11,948
771,91	17,289
772,08	17,126
772,26	14,637
772,44	16,636
772,61	16,238
772,79	14,748
772,97	12,741
773,14	13,947
773,32	17,607
773,50	13,920
773,67	15,741
773,85	17,192
774,03	19,195
774,20	14,998
774,38	15,698
774,56	15,222
774,73	14,003
774,91	14,208
775,09	14,033
775,26	17,837
775,44	17,750
775,61	14,841
775,79	14,614
775,97	18,423
776,14	14,681
776,32	16,068
776,50	16,301
776,67	16,187
776,85	17,012
777,03	12,721
777,20	15,924
777,38	19,161
777,55	17,739
777,73	15,340
777,91	12,740
778,08	14,450
778,26	15,828
778,43	18,220
778,61	14,363
778,79	13,702
778,96	16,916
779,14	13,669
779,32	14,178
779,49	14,676
779,67	19,678
779,84	16,900
780,02	16,129
780,20	16,730
780,37	17,561
780,55	9,217
780,72	14,674
780,90	15,448
781,07	16,094
781,25	19,778
781,43	17,411
781,60	14,289
781,78	23,112
781,95	17,845
782,13	15,901
782,30	17,362
782,48	18,835
782,66	14,882
782,83	15,244
783,01	23,214
783,18	16,644
783,36	18,725
783,53	17,018
783,71	13,673
783,89	15,486
784,06	15,747
784,24	15,282
784,41	16,994
784,59	15,082
784,76	19,512
784,94	15,123
785,11	17,619
785,29	16,765
785,46	16,754
785,64	13,866
785,82	18,450
785,99	19,314
786,17	18,659
786,34	12,983
786,52	19,562
786,69	15,991
786,87	15,994
787,04	14,898
787,22	13,796
787,39	16,891
787,57	20,211
787,74	14,336
787,92	18,439
788,09	18,502
788,27	16,970
788,44	15,975
788,62	20,619
788,79	13,476
788,97	16,713
789,14	17,070
789,32	16,441
789,49	15,371
789,67	17,600
789,84	14,783
790,02	18,445
790,19	13,979
790,37	17,960
790,54	16,383
790,72	20,719
790,89	18,638
791,07	20,435
791,24	12,387
791,42	16,668
791,59	19,403
791,77	14,611
791,94	17,380
792,12	16,103
792,29	19,641
792,47	17,789
792,64	16,494
792,81	18,474
792,99	14,002
793,16	15,066
793,34	16,611
793,51	18,421
793,69	18,585
793,86	14,511
794,04	18,022
794,21	19,002
794,39	13,086
794,56	13,394
794,73	18,353
794,91	21,327
795,08	14,381
795,26	16,959
795,43	14,377
795,61	20,696
795,78	14,293
795,95	17,966
796,13	17,480
796,30	18,280
796,48	14,566
796,65	13,614
796,83	18,185
797,00	17,800
797,17	14,704
797,35	15,786
797,52	16,217
797,70	17,443
797,87	18,398
798,04	20,927
798,22	15,509
798,39	16,358
798,57	17,450
798,74	19,583
798,91	12,460
799,09	16,395
799,26	19,588
799,44	19,928
799,61	14,567
799,78	13,908
799,96	21,481
800,13	14,477
800,31	19,582
800,48	17,618
800,65	21,684
800,83	19,743
801,00	16,141
801,17	18,032
801,35	20,265
801,52	18,906
801,70	19,535
801,87	18,166
802,04	18,182
802,22	15,150
802,39	17,382
802,56	21,839
802,74	20,411
802,91	15,726
803,08	15,457
803,26	18,029
803,43	22,232
803,61	13,284
803,78	17,131
803,95	21,171
804,13	18,317
804,30	14,034
804,47	16,737
804,65	18,275
804,82	17,649
804,99	20,166
805,17	15,499
805,34	25,064
805,51	20,266
805,69	16,272
805,86	19,974
806,03	25,481
806,21	21,258
806,38	22,420
806,55	15,025
806,72	20,743
806,90	24,413
807,07	17,993
807,24	14,960
807,42	15,756
807,59	18,724
807,76	11,729
807,94	18,734
808,11	23,065
808,28	22,701
808,45	16,502
808,63	17,385
808,80	21,385
808,97	17,459
809,15	18,218
809,32	16,631
809,49	19,424
809,67	20,510
809,84	22,749
810,01	23,077
810,18	29,810
810,36	24,593
810,53	18,716
810,70	17,938
810,87	18,568
811,05	19,385
811,22	17,985
811,39	15,751
811,57	20,600
811,74	17,159
811,91	20,998
812,08	16,244
812,26	17,204
812,43	13,245
812,60	22,477
812,77	17,999
812,95	19,670
813,12	15,488
813,29	16,166
813,46	16,027
813,64	22,809
813,81	20,372
813,98	18,030
814,15	22,047
814,32	24,554
814,50	18,255
814,67	17,250
814,84	24,312
815,01	18,830
815,19	16,237
815,36	17,196
815,53	17,437
815,70	15,336
815,87	24,929
816,05	20,673
816,22	18,978
816,39	23,167
816,56	25,091
816,74	20,856
816,91	18,400
817,08	24,905
817,25	28,582
817,42	24,251
817,60	22,383
817,77	25,707
817,94	15,105
818,11	18,972
818,28	14,606
818,45	22,833
818,63	16,307
818,80	19,689
818,97	18,519
819,14	23,103
819,31	27,171
819,49	18,955
819,66	14,217
819,83	23,526
820,00	23,695
820,17	18,837
820,34	17,420
820,52	19,122
820,69	26,355
820,86	19,408
821,03	21,404
821,20	21,376
821,37	24,255
821,55	21,879
821,72	12,401
821,89	24,558
822,06	23,589
822,23	14,887
822,40	16,381
822,57	23,760
822,75	19,247
822,92	11,269
823,09	20,286
823,26	26,066
823,43	25,146
823,60	21,001
823,77	16,326
823,94	26,317
824,12	23,383
824,29	16,417
824,46	25,754
824,63	31,711
824,80	28,460
824,97	21,404
825,14	19,824
825,31	19,763
825,49	20,534
825,66	9,164
825,83	19,503
826,00	21,275
826,17	31,212
826,34	23,351
826,51	19,953
826,68	17,676
826,85	16,608
827,02	17,142
827,20	17,577
827,37	14,331
827,54	22,285
827,71	23,526
827,88	18,662
828,05	21,562
828,22	23,757
828,39	27,751
828,56	18,674
828,73	22,939
828,90	23,297
829,07	23,016
829,25	18,726
829,42	15,802
829,59	16,434
829,76	15,171
829,93	21,863
830,10	18,693
830,27	21,013
830,44	18,533
830,61	11,162
830,78	28,119
830,95	23,029
831,12	21,500
831,29	18,894
831,46	11,698
831,63	14,167
831,80	18,580
831,97	14,709
832,14	23,247
832,31	28,195
832,48	16,237
832,65	17,452
832,83	19,964
833,00	24,330
833,17	18,940
833,34	24,740
833,51	21,492
833,68	28,091
833,85	23,335
834,02	17,401
834,19	25,232
834,36	23,728
834,53	16,553
834,70	15,286
834,87	40,038
835,04	17,486
835,21	20,491
835,38	22,468
835,55	12,686
835,72	34,412
835,89	13,896
836,06	18,690
836,23	31,825
836,40	16,607
836,57	15,752
836,74	26,350
836,91	15,734
837,08	33,600
837,25	18,779
837,42	18,492
837,59	13,058
837,76	24,837
837,93	18,921
838,09	24,490
838,26	24,170
838,43	34,934
838,60	27,477
838,77	25,181
838,94	18,655
839,11	40,024
839,28	28,302
839,45	23,640
839,62	21,280
839,79	17,041
839,96	21,352
840,13	22,745
840,30	17,457
840,47	23,389
840,64	32,303
840,81	24,814
840,98	23,599
841,15	33,450
841,32	20,616
841,48	28,970
841,65	27,504
841,82	23,077
841,99	19,899
842,16	29,322
842,33	22,994
842,50	29,276
842,67	9,192
842,84	20,875
843,01	25,840
843,18	22,867
843,35	30,132
843,52	20,831
843,68	25,714
843,85	23,666
844,02	5,749
844,19	24,462
844,36	19,858
844,53	18,720
844,70	12,643
844,87	36,159
845,04	29,790
845,21	10,974
845,37	28,110
845,54	18,567
845,71	26,990
845,88	47,744
846,05	22,592
846,22	5,813
846,39	26,222
846,56	27,987
846,72	4,987
846,89	22,947
847,06	33,918
847,23	30,791
847,40	10,607
847,57	16,556
847,74	17,561
847,90	35,618
848,07	25,039
848,24	29,299
848,41	30,677
848,58	38,184
848,75	29,412
848,92	16,807
849,08	24,703
849,25	18,169
849,42	15,995
849,59	23,646
849,76	16,803
849,93	31,712
850,09	32,061
850,26	6,015
850,43	43,455
850,60	15,024
850,77	15,853
850,94	21,885
851,10	13,633
851,27	19,552
851,44	32,789
851,61	19,501
851,78	48,645
851,95	30,647
852,11	23,949
852,28	7,865
852,45	39,055
852,62	28,610
852,79	31,603
852,95	21,655
853,12	33,787
853,29	18,873
853,46	16,736
853,63	31,134
853,79	15,566
853,96	24,456
854,13	35,423
854,30	21,661
854,46	43,844
854,63	20,609
854,80	29,192
854,97	23,618
855,14	52,822
855,30	30,398
855,47	34,184
855,64	28,029
855,81	14,725
855,97	46,517
856,14	39,658
856,31	13,393
856,48	42,109
856,65	52,197
856,81	25,674
856,98	15,835
857,15	7,989
857,32	38,364
857,48	26,202
857,65	42,495
857,82	40,718
857,99	31,352
858,15	38,248
858,32	24,512
858,49	21,577
858,65	47,736
858,82	26,794
858,99	33,433
859,16	30,161
859,32	37,390
859,49	38,482
859,66	37,791
859,83	28,984
859,99	29,567
860,16	21,348
860,33	23,826
860,49	40,234
860,66	30,579
860,83	26,706
861,00	30,250
861,16	47,057
861,33	47,992
861,50	6,241
861,66	47,486
861,83	41,681
862,00	27,999
862,16	14,897
862,33	34,745
862,50	65,719
862,67	29,884
862,83	32,707
863,00	34,795
863,17	44,896
863,33	26,199
863,50	19,597
863,67	38,173
863,83	44,077
864,00	40,272
864,17	22,476
864,33	16,049
864,50	27,458
864,67	47,426
864,83	15,992
865,00	38,374
865,17	25,201
865,33	49,109
865,50	18,963
865,67	20,372
865,83	37,851
866,00	46,638
866,17	34,686
866,33	41,429
866,50	46,466
866,66	38,845
866,83	21,307
867,00	42,534
867,16	50,317
867,33	92,733
867,50	33,258
867,66	39,951
867,83	35,745
868,00	50,442
868,16	23,766
868,33	28,152
868,49	12,170
868,66	54,700
868,83	46,351
868,99	34,404
869,16	76,090
869,32	60,884
869,49	39,727
869,66	25,120
869,82	48,369
869,99	40,050
870,15	26,337
870,32	35,887
870,49	99,992
870,65	65,995
870,82	46,499
870,98	39,910
871,15	70,267
871,32	44,334
871,48	22,916
871,65	32,060
871,81	47,214
871,98	23,037
872,15	24,723
872,31	19,655
872,48	72,455
872,64	45,712
872,81	34,539
872,97	43,994
873,14	93,286
873,31	48,442
873,47	48,068
873,64	65,456
873,80	104,761
873,97	81,701
874,13	45,089
874,30	50,233
874,46	44,093
874,63	52,228
874,80	35,802
874,96	31,345
875,13	73,388
875,29	35,422
875,46	63,569
875,62	10,209
875,79	76,038
875,95	54,131
876,12	6,230
876,28	14,014
876,45	120,355
876,61	24,713
876,78	46,268
876,94	6,676
877,11	79,282
877,27	129,128
877,44	48,762
877,60	37,947
877,77	61,701
877,94	149,364
878,10	12,171
878,27	72,271
878,43	94,243
878,60	37,403
878,76	57,150
878,93	87,375
879,09	61,000
879,26	95,048
879,42	87,027
879,58	54,889
879,75	97,556
879,91	114,031
880,08	33,353
880,24	71,089
880,41	7,319
880,57	76,396
880,74	120,835
880,90	45,757
881,07	92,387
881,23	110,270
881,40	108,541
881,56	16,047
881,73	147,639
881,89	64,166
882,06	54,120
882,22	138,697
882,38	97,372
882,55	135,833
882,71	66,182
882,88	39,214
883,04	61,645
883,21	81,563
883,37	144,148
883,54	68,582
883,70	235,444
883,86	107,247
884,03	99,982
884,19	71,229
884,36	140,540
884,52	124,395
884,69	118,551
884,85	49,471
885,01	72,549
885,18	146,768
885,34	71,795
885,51	47,179
885,67	92,549
>>>>> Data<<<<< Espectral Procesado Extremo
