Fichero De Datos De SpectraSuite
++++++++++++++++++++++++++++++++++++
Fecha: Wed Apr 22 08:51:03 CEST 2009
Usuario: evoflor
Presente Oscuro Del Espectro: Sí
La Referencia de Presente Del Espectro De: Sí
Muestreados de los componentes de Número de espectros: 1
Espectrómetros: USB4F02353
Tiempo de integración (usec): 500000 (USB4F02353)
Promedio de Espectros Hechos un: 5 (USB4F02353)
El Alisar Del Furgón: 0 (USB4F02353)
Párrafo de de Corregir del la del del de Eléctrica del obscuridad: Sí (USB4F02353)
Estrobo/Lámpara Permitido: No (USB4F02353)
Correct for Detector Non-linearity: No (USB4F02353)
Párrafo de de Corregir del la del del de Externa del luz: No (USB4F02353)
Procesado del espectro de Número de pixeles en: 3648
>>>>> Comienza Data<<<<< Espectral Procesado Del EL
177,79	825,400
178,00	825,400
178,22	825,400
178,44	-7764,753
178,66	530,086
178,88	97,832
179,09	273,008
179,31	137,441
179,53	-5929,047
179,75	426,078
179,96	-349,865
180,18	334,272
180,40	-371,510
180,62	-247,167
180,83	453,190
181,05	-1065,245
181,27	-546,874
181,49	63,583
181,70	-296,548
181,92	404,886
182,14	207,229
182,36	-394,189
182,58	219,319
182,79	-740,624
183,01	-14931,898
183,23	438,403
183,45	-80,583
183,66	221,162
183,88	693,282
184,10	761,128
184,32	1107,297
184,53	-218,405
184,75	572,294
184,97	-101,564
185,18	872,472
185,40	271,866
185,62	-750,454
185,84	838,718
186,05	2595,311
186,27	-7623,651
186,49	-761,819
186,71	253,461
186,92	334,910
187,14	1381,635
187,36	347,049
187,58	1169,633
187,79	-782,074
188,01	-1470,264
188,23	125,957
188,45	199,274
188,66	-22,579
188,88	238,509
189,10	-394,536
189,31	-178,309
189,53	-219,775
189,75	1215,162
189,97	168,822
190,18	1395,643
190,40	1336,886
190,62	425,987
190,83	497,709
191,05	-264,229
191,27	10309,666
191,49	515,160
191,70	878,785
191,92	537,760
192,14	372,344
192,35	-1485,756
192,57	-933,586
192,79	-2194,353
193,01	511,232
193,22	-406,160
193,44	-615,105
193,66	480,921
193,87	930,009
194,09	154,095
194,31	165,852
194,53	-369,524
194,74	349,637
194,96	-163,179
195,18	1235,949
195,39	-1199,301
195,61	-366,262
195,83	2155,344
196,04	458,475
196,26	196,776
196,48	1767,253
196,70	523,525
196,91	227,905
197,13	-102,664
197,35	328,924
197,56	-461,385
197,78	5696,043
198,00	207,826
198,21	365,232
198,43	893,322
198,65	382,054
198,86	179,389
199,08	853,283
199,30	155,808
199,51	935,206
199,73	-3337,964
199,95	276,011
200,16	807,345
200,38	176,417
200,60	3042,824
200,81	-541,506
201,03	5244,976
201,25	557,147
201,46	-619,490
201,68	506,131
201,90	699,403
202,11	569,643
202,33	200,529
202,55	150,514
202,76	577,177
202,98	902,127
203,20	331,528
203,41	-1113,025
203,63	627,072
203,85	164,222
204,06	-528,129
204,28	213,766
204,50	-213,798
204,71	388,690
204,93	44,547
205,15	85,290
205,36	-195,547
205,58	-730,756
205,80	-1972,543
206,01	-2814,481
206,23	277,468
206,45	350,453
206,66	355,424
206,88	-426,632
207,10	3240,873
207,31	-54941,722
207,53	116,828
207,75	-471,700
207,96	334,593
208,18	340,502
208,39	265,989
208,61	711,042
208,83	9550,269
209,04	226,116
209,26	448,957
209,48	75,937
209,69	-90,998
209,91	738,516
210,13	-0,691
210,34	67,582
210,56	348,830
210,77	2326,889
210,99	276,016
211,21	-138,169
211,42	173,678
211,64	673,596
211,86	391,586
212,07	211,795
212,29	769,934
212,50	1020,851
212,72	243,087
212,94	276,565
213,15	141,121
213,37	657,668
213,58	197,079
213,80	288,065
214,02	2145,363
214,23	274,656
214,45	307,379
214,67	88,618
214,88	-271,523
215,10	1086,427
215,31	-990,097
215,53	54,250
215,75	422,657
215,96	501,383
216,18	195,292
216,39	240,970
216,61	508,246
216,83	823,666
217,04	512,052
217,26	97,808
217,47	379,515
217,69	336,279
217,91	131,889
218,12	1199,794
218,34	85,900
218,55	195,888
218,77	-8,393
218,99	136,934
219,20	163,110
219,42	484,160
219,63	103,951
219,85	324,136
220,06	-78,477
220,28	133,642
220,50	85,830
220,71	117,351
220,93	524,780
221,14	440,914
221,36	100,461
221,58	122,244
221,79	74,017
222,01	226,057
222,22	155,195
222,44	59,082
222,65	230,513
222,87	16,561
223,09	98,836
223,30	112,165
223,52	149,149
223,73	75,770
223,95	39,736
224,16	31,541
224,38	119,329
224,60	54,676
224,81	100,367
225,03	69,615
225,24	117,728
225,46	8,290
225,67	21,954
225,89	39,202
226,10	139,369
226,32	62,150
226,54	-7,898
226,75	17,742
226,97	96,478
227,18	93,395
227,40	90,576
227,61	61,466
227,83	24,648
228,04	72,868
228,26	73,234
228,47	22,159
228,69	99,527
228,91	41,960
229,12	120,708
229,34	24,402
229,55	52,534
229,77	34,670
229,98	29,952
230,20	36,242
230,41	10,036
230,63	51,941
230,84	29,259
231,06	62,262
231,27	-8,131
231,49	43,443
231,71	26,181
231,92	11,282
232,14	-12,709
232,35	30,167
232,57	-5,078
232,78	15,017
233,00	21,035
233,21	21,523
233,43	23,841
233,64	-6,262
233,86	30,035
234,07	33,429
234,29	3,788
234,50	1,573
234,72	23,590
234,93	18,382
235,15	-4,558
235,36	18,549
235,58	44,079
235,79	25,896
236,01	10,860
236,22	18,777
236,44	34,897
236,65	21,033
236,87	12,920
237,08	7,074
237,30	-4,784
237,51	19,221
237,73	14,681
237,94	5,978
238,16	16,977
238,37	6,241
238,59	3,888
238,80	6,156
239,02	5,530
239,23	21,907
239,45	4,459
239,66	22,655
239,88	20,545
240,09	19,943
240,31	9,312
240,52	8,418
240,74	14,136
240,95	4,598
241,17	9,031
241,38	6,410
241,60	-0,724
241,81	20,033
242,03	2,446
242,24	12,886
242,46	13,302
242,67	2,530
242,89	15,167
243,10	10,511
243,32	15,358
243,53	14,702
243,75	4,418
243,96	8,747
244,18	8,818
244,39	14,966
244,60	0,263
244,82	5,855
245,03	12,617
245,25	12,553
245,46	24,912
245,68	1,286
245,89	25,462
246,11	19,820
246,32	6,498
246,54	8,689
246,75	5,319
246,97	15,777
247,18	14,051
247,39	3,331
247,61	9,966
247,82	13,975
248,04	2,698
248,25	2,395
248,47	5,552
248,68	7,908
248,90	0,810
249,11	9,150
249,33	15,470
249,54	7,777
249,75	6,696
249,97	4,996
250,18	16,480
250,40	11,808
250,61	5,676
250,83	1,030
251,04	4,193
251,25	13,940
251,47	11,111
251,68	2,795
251,90	6,896
252,11	1,753
252,33	5,916
252,54	2,273
252,76	-1,178
252,97	-1,393
253,18	4,456
253,40	8,780
253,61	4,756
253,83	8,107
254,04	5,618
254,25	1,858
254,47	-2,614
254,68	6,189
254,90	3,235
255,11	2,923
255,33	8,031
255,54	1,923
255,75	1,821
255,97	5,174
256,18	2,526
256,40	4,786
256,61	6,567
256,82	3,258
257,04	8,194
257,25	1,012
257,47	8,351
257,68	10,342
257,89	5,940
258,11	2,090
258,32	10,156
258,54	3,800
258,75	14,468
258,96	6,394
259,18	8,717
259,39	3,140
259,61	7,392
259,82	3,015
260,03	0,804
260,25	3,501
260,46	4,128
260,68	3,372
260,89	3,482
261,10	5,094
261,32	3,973
261,53	-1,456
261,75	6,694
261,96	2,079
262,17	15,665
262,39	8,110
262,60	-0,196
262,81	4,330
263,03	12,843
263,24	6,066
263,46	1,564
263,67	5,140
263,88	5,013
264,10	2,880
264,31	4,204
264,52	1,994
264,74	9,470
264,95	3,158
265,17	8,097
265,38	6,919
265,59	8,100
265,81	8,019
266,02	2,485
266,23	0,318
266,45	9,297
266,66	7,259
266,87	3,907
267,09	1,727
267,30	10,177
267,52	11,579
267,73	6,876
267,94	0,327
268,16	6,856
268,37	1,991
268,58	7,470
268,80	-1,984
269,01	8,558
269,22	8,487
269,44	7,662
269,65	6,228
269,86	1,281
270,08	7,189
270,29	2,716
270,50	4,242
270,72	6,132
270,93	1,399
271,14	3,918
271,36	2,993
271,57	7,396
271,78	5,353
272,00	1,070
272,21	7,391
272,42	3,799
272,64	8,908
272,85	1,499
273,06	1,894
273,28	6,720
273,49	0,227
273,70	8,087
273,92	3,242
274,13	4,000
274,34	-4,015
274,56	7,827
274,77	4,033
274,98	10,328
275,20	7,242
275,41	5,435
275,62	-0,104
275,84	4,591
276,05	13,268
276,26	2,098
276,47	4,589
276,69	10,536
276,90	7,688
277,11	2,646
277,33	0,489
277,54	10,652
277,75	3,529
277,97	0,941
278,18	2,285
278,39	8,154
278,61	3,721
278,82	9,762
279,03	7,174
279,24	0,999
279,46	5,956
279,67	9,442
279,88	4,753
280,10	7,537
280,31	3,783
280,52	1,193
280,73	3,172
280,95	7,953
281,16	4,883
281,37	5,242
281,59	3,503
281,80	8,243
282,01	2,013
282,22	1,497
282,44	5,405
282,65	12,119
282,86	3,307
283,08	0,149
283,29	2,578
283,50	0,758
283,71	7,849
283,93	5,231
284,14	1,612
284,35	6,181
284,56	4,424
284,78	-0,276
284,99	4,349
285,20	8,808
285,42	2,437
285,63	2,060
285,84	2,074
286,05	2,287
286,27	2,278
286,48	6,864
286,69	5,022
286,90	3,378
287,12	2,340
287,33	1,488
287,54	1,428
287,75	9,793
287,97	2,963
288,18	2,125
288,39	4,365
288,60	4,942
288,82	2,391
289,03	1,880
289,24	4,828
289,45	5,496
289,67	4,535
289,88	2,263
290,09	6,930
290,30	4,026
290,52	1,027
290,73	-0,533
290,94	4,005
291,15	2,896
291,37	5,159
291,58	3,973
291,79	2,213
292,00	2,550
292,21	4,138
292,43	6,035
292,64	-0,938
292,85	4,298
293,06	6,533
293,28	1,783
293,49	2,608
293,70	7,329
293,91	1,154
294,12	3,258
294,34	4,143
294,55	5,738
294,76	6,356
294,97	4,203
295,19	3,502
295,40	3,237
295,61	4,550
295,82	4,977
296,03	3,576
296,25	4,954
296,46	1,264
296,67	1,274
296,88	4,219
297,09	2,503
297,31	0,262
297,52	4,843
297,73	2,173
297,94	2,771
298,15	6,547
298,37	2,534
298,58	1,154
298,79	3,248
299,00	-0,280
299,21	2,599
299,43	0,660
299,64	7,956
299,85	2,720
300,06	2,185
300,27	1,848
300,49	7,645
300,70	7,484
300,91	1,606
301,12	2,087
301,33	7,091
301,54	2,745
301,76	4,246
301,97	2,330
302,18	5,759
302,39	6,204
302,60	2,757
302,82	2,893
303,03	10,318
303,24	2,776
303,45	5,395
303,66	4,159
303,87	-0,494
304,09	5,494
304,30	0,049
304,51	3,643
304,72	0,166
304,93	5,380
305,14	1,706
305,36	3,033
305,57	1,500
305,78	6,421
305,99	3,074
306,20	5,917
306,41	1,261
306,62	0,995
306,84	3,750
307,05	3,734
307,26	1,378
307,47	9,200
307,68	2,408
307,89	4,115
308,11	5,140
308,32	4,324
308,53	3,204
308,74	3,467
308,95	2,201
309,16	5,428
309,37	4,751
309,59	0,339
309,80	3,182
310,01	4,477
310,22	4,728
310,43	5,755
310,64	4,684
310,85	5,540
311,06	2,343
311,28	5,043
311,49	3,410
311,70	7,806
311,91	2,538
312,12	-0,647
312,33	2,192
312,54	4,756
312,75	7,644
312,97	2,129
313,18	4,425
313,39	1,302
313,60	2,986
313,81	3,079
314,02	3,387
314,23	5,980
314,44	2,745
314,65	1,769
314,87	1,684
315,08	2,690
315,29	1,345
315,50	5,298
315,71	8,448
315,92	6,523
316,13	0,313
316,34	2,255
316,55	6,648
316,77	-0,505
316,98	1,559
317,19	2,896
317,40	6,676
317,61	7,339
317,82	5,571
318,03	0,622
318,24	4,132
318,45	6,902
318,66	3,688
318,87	1,686
319,09	3,856
319,30	6,461
319,51	6,566
319,72	4,191
319,93	4,020
320,14	4,865
320,35	7,505
320,56	0,653
320,77	4,849
320,98	7,069
321,19	7,455
321,40	3,539
321,62	5,561
321,83	-0,947
322,04	5,346
322,25	5,169
322,46	8,652
322,67	6,195
322,88	6,319
323,09	4,323
323,30	8,349
323,51	9,646
323,72	3,512
323,93	1,246
324,14	2,850
324,35	-2,026
324,56	1,825
324,77	3,221
324,99	2,827
325,20	2,692
325,41	2,865
325,62	3,623
325,83	-1,140
326,04	2,765
326,25	2,556
326,46	1,060
326,67	1,954
326,88	3,548
327,09	2,533
327,30	3,668
327,51	3,899
327,72	2,594
327,93	2,983
328,14	2,796
328,35	5,366
328,56	2,295
328,77	6,387
328,98	6,391
329,19	4,210
329,40	4,200
329,61	0,229
329,82	1,784
330,04	4,349
330,25	3,455
330,46	3,815
330,67	4,124
330,88	5,531
331,09	0,784
331,30	4,169
331,51	4,433
331,72	4,305
331,93	5,505
332,14	0,219
332,35	5,127
332,56	2,932
332,77	7,516
332,98	2,515
333,19	4,356
333,40	4,840
333,61	1,827
333,82	4,296
334,03	4,364
334,24	9,358
334,45	3,669
334,66	5,789
334,87	2,171
335,08	2,918
335,29	1,981
335,50	2,511
335,71	-0,540
335,92	5,762
336,13	4,576
336,34	0,935
336,55	2,999
336,76	6,291
336,97	4,185
337,18	2,595
337,39	4,156
337,60	5,388
337,81	3,376
338,02	4,994
338,23	3,893
338,44	3,907
338,65	0,223
338,86	5,109
339,07	3,993
339,28	1,407
339,49	2,049
339,70	1,875
339,91	3,314
340,11	9,260
340,32	4,838
340,53	0,827
340,74	-0,041
340,95	0,925
341,16	4,057
341,37	3,589
341,58	2,454
341,79	3,909
342,00	1,650
342,21	-1,597
342,42	3,656
342,63	5,355
342,84	4,489
343,05	3,642
343,26	8,035
343,47	5,575
343,68	1,545
343,89	2,237
344,10	2,645
344,31	2,426
344,52	4,450
344,73	2,065
344,94	-0,389
345,14	4,380
345,35	2,164
345,56	-0,918
345,77	0,480
345,98	1,638
346,19	4,818
346,40	6,444
346,61	0,118
346,82	4,618
347,03	4,320
347,24	1,390
347,45	1,582
347,66	6,414
347,87	2,071
348,08	7,581
348,28	3,756
348,49	2,196
348,70	5,087
348,91	3,390
349,12	4,178
349,33	-3,510
349,54	6,092
349,75	6,236
349,96	3,161
350,17	6,333
350,38	2,391
350,59	3,740
350,80	3,747
351,00	0,627
351,21	9,297
351,42	0,818
351,63	1,826
351,84	4,752
352,05	6,618
352,26	2,271
352,47	6,240
352,68	7,280
352,89	2,642
353,09	2,765
353,30	1,062
353,51	1,301
353,72	8,642
353,93	8,650
354,14	3,684
354,35	3,926
354,56	7,039
354,77	2,724
354,98	1,097
355,18	4,210
355,39	9,779
355,60	0,636
355,81	5,607
356,02	1,973
356,23	2,135
356,44	3,854
356,65	1,790
356,85	6,850
357,06	8,219
357,27	2,463
357,48	0,814
357,69	7,836
357,90	5,590
358,11	-2,819
358,32	1,526
358,52	6,033
358,73	3,017
358,94	1,160
359,15	2,733
359,36	6,985
359,57	2,918
359,78	7,835
359,98	3,740
360,19	-1,641
360,40	2,633
360,61	6,428
360,82	0,792
361,03	12,260
361,24	14,454
361,44	1,153
361,65	3,441
361,86	1,478
362,07	3,792
362,28	9,132
362,49	5,418
362,70	5,041
362,90	4,283
363,11	2,503
363,32	0,382
363,53	2,412
363,74	8,540
363,95	10,099
364,15	2,641
364,36	6,802
364,57	2,589
364,78	1,387
364,99	2,313
365,20	2,938
365,40	8,370
365,61	3,725
365,82	1,839
366,03	8,271
366,24	4,670
366,45	-2,186
366,65	0,505
366,86	3,315
367,07	3,554
367,28	-0,526
367,49	2,262
367,69	6,408
367,90	2,909
368,11	5,456
368,32	4,192
368,53	8,976
368,73	3,242
368,94	2,952
369,15	6,444
369,36	5,652
369,57	5,394
369,78	3,542
369,98	3,593
370,19	6,638
370,40	0,906
370,61	4,412
370,82	4,614
371,02	8,840
371,23	5,535
371,44	3,009
371,65	4,276
371,85	8,600
372,06	0,624
372,27	4,981
372,48	1,876
372,69	7,698
372,89	4,785
373,10	4,737
373,31	4,271
373,52	5,281
373,73	7,568
373,93	5,461
374,14	3,556
374,35	3,445
374,56	4,064
374,76	3,918
374,97	3,957
375,18	8,267
375,39	3,081
375,60	5,362
375,80	3,081
376,01	0,485
376,22	5,825
376,43	4,056
376,63	4,011
376,84	7,856
377,05	5,184
377,26	3,356
377,46	3,201
377,67	4,466
377,88	0,939
378,09	4,824
378,29	5,198
378,50	3,251
378,71	5,154
378,92	4,634
379,12	3,508
379,33	3,290
379,54	4,280
379,75	8,033
379,95	5,377
380,16	4,703
380,37	5,537
380,58	3,350
380,78	6,517
380,99	-0,047
381,20	2,192
381,41	4,922
381,61	3,417
381,82	4,913
382,03	4,742
382,24	4,387
382,44	2,448
382,65	5,208
382,86	7,007
383,06	8,192
383,27	2,677
383,48	3,491
383,69	5,837
383,89	1,154
384,10	2,177
384,31	4,203
384,51	9,008
384,72	7,661
384,93	1,958
385,14	0,953
385,34	2,006
385,55	4,522
385,76	1,448
385,96	9,811
386,17	4,543
386,38	5,007
386,59	10,275
386,79	8,377
387,00	12,071
387,21	9,216
387,41	8,172
387,62	5,916
387,83	8,797
388,03	4,367
388,24	5,941
388,45	5,269
388,66	5,452
388,86	3,952
389,07	4,040
389,28	13,578
389,48	6,829
389,69	4,958
389,90	1,530
390,10	3,760
390,31	6,367
390,52	2,714
390,72	6,026
390,93	7,756
391,14	6,133
391,34	6,255
391,55	6,026
391,76	7,925
391,96	11,037
392,17	5,103
392,38	5,233
392,58	5,811
392,79	5,423
393,00	2,916
393,20	7,241
393,41	7,180
393,62	8,167
393,82	5,870
394,03	6,873
394,24	6,894
394,44	9,742
394,65	8,502
394,86	5,377
395,06	10,897
395,27	8,883
395,48	10,002
395,68	4,046
395,89	4,594
396,10	10,882
396,30	2,853
396,51	5,372
396,72	8,462
396,92	7,392
397,13	10,308
397,34	5,021
397,54	8,323
397,75	6,943
397,95	7,064
398,16	7,426
398,37	8,875
398,57	2,823
398,78	5,256
398,99	9,660
399,19	10,000
399,40	14,975
399,60	6,563
399,81	10,237
400,02	15,586
400,22	11,098
400,43	14,256
400,64	7,349
400,84	5,169
401,05	8,991
401,25	12,558
401,46	8,883
401,67	12,479
401,87	10,909
402,08	8,592
402,29	12,485
402,49	15,404
402,70	11,698
402,90	8,204
403,11	12,541
403,32	7,646
403,52	9,501
403,73	7,095
403,93	14,760
404,14	19,898
404,35	8,720
404,55	8,624
404,76	11,586
404,96	12,900
405,17	16,011
405,38	17,440
405,58	13,300
405,79	15,690
405,99	17,901
406,20	12,425
406,40	10,942
406,61	13,981
406,82	11,407
407,02	12,409
407,23	10,108
407,43	11,361
407,64	9,410
407,85	13,223
408,05	8,083
408,26	19,683
408,46	16,768
408,67	14,113
408,87	14,441
409,08	12,337
409,29	21,263
409,49	18,384
409,70	12,524
409,90	15,968
410,11	15,372
410,31	14,412
410,52	16,767
410,72	14,007
410,93	15,709
411,14	14,879
411,34	9,423
411,55	14,014
411,75	18,106
411,96	16,806
412,16	17,895
412,37	12,255
412,57	17,593
412,78	16,629
412,99	15,203
413,19	18,905
413,40	16,028
413,60	15,124
413,81	15,657
414,01	16,787
414,22	16,280
414,42	16,378
414,63	13,438
414,83	15,941
415,04	20,856
415,24	16,760
415,45	16,871
415,65	16,815
415,86	23,562
416,07	13,121
416,27	19,024
416,48	22,764
416,68	25,757
416,89	12,510
417,09	21,738
417,30	24,519
417,50	13,066
417,71	21,742
417,91	17,155
418,12	17,996
418,32	18,541
418,53	13,217
418,73	18,238
418,94	17,771
419,14	20,535
419,35	18,149
419,55	18,636
419,76	21,798
419,96	20,286
420,17	20,042
420,37	16,381
420,58	21,668
420,78	20,489
420,99	15,435
421,19	22,852
421,40	26,047
421,60	21,018
421,81	17,087
422,01	22,728
422,22	19,758
422,42	21,212
422,63	22,130
422,83	20,043
423,04	26,241
423,24	26,519
423,45	19,125
423,65	17,262
423,86	26,381
424,06	24,370
424,27	18,752
424,47	19,323
424,67	17,329
424,88	22,549
425,08	20,599
425,29	23,476
425,49	16,290
425,70	17,561
425,90	18,089
426,11	18,999
426,31	19,821
426,52	22,361
426,72	20,626
426,93	17,270
427,13	24,163
427,33	18,469
427,54	21,086
427,74	23,613
427,95	24,594
428,15	21,515
428,36	19,545
428,56	19,554
428,77	19,891
428,97	23,097
429,18	16,281
429,38	19,149
429,58	22,267
429,79	22,774
429,99	19,275
430,20	19,658
430,40	25,171
430,61	19,240
430,81	19,138
431,01	23,795
431,22	25,395
431,42	23,826
431,63	16,829
431,83	19,623
432,04	24,469
432,24	23,391
432,44	22,632
432,65	20,572
432,85	20,971
433,06	23,453
433,26	20,986
433,47	21,539
433,67	18,683
433,87	23,236
434,08	20,407
434,28	17,486
434,49	22,612
434,69	27,202
434,89	23,030
435,10	21,371
435,30	25,301
435,51	20,516
435,71	18,294
435,91	20,751
436,12	17,654
436,32	21,977
436,53	21,282
436,73	20,272
436,93	22,323
437,14	22,523
437,34	21,071
437,55	19,351
437,75	25,435
437,95	29,516
438,16	20,309
438,36	21,916
438,57	23,486
438,77	19,981
438,97	22,876
439,18	24,151
439,38	21,786
439,58	21,360
439,79	20,686
439,99	19,072
440,20	28,594
440,40	26,240
440,60	21,278
440,81	22,600
441,01	22,010
441,21	25,092
441,42	23,052
441,62	22,930
441,83	22,949
442,03	19,460
442,23	23,954
442,44	23,167
442,64	24,693
442,84	19,475
443,05	24,095
443,25	21,260
443,45	23,306
443,66	21,212
443,86	20,969
444,06	23,527
444,27	19,687
444,47	25,335
444,67	21,219
444,88	21,396
445,08	22,614
445,28	18,051
445,49	21,775
445,69	20,858
445,90	26,958
446,10	26,975
446,30	21,510
446,51	22,312
446,71	23,930
446,91	23,171
447,12	28,124
447,32	20,023
447,52	24,345
447,72	23,713
447,93	20,377
448,13	16,703
448,33	28,612
448,54	27,654
448,74	17,799
448,94	21,926
449,15	24,730
449,35	21,049
449,55	27,174
449,76	24,812
449,96	20,910
450,16	21,875
450,37	17,437
450,57	23,387
450,77	19,568
450,98	21,209
451,18	24,875
451,38	23,980
451,58	25,227
451,79	20,330
451,99	22,191
452,19	24,649
452,40	33,137
452,60	17,900
452,80	26,636
453,00	24,996
453,21	19,127
453,41	25,391
453,61	21,171
453,82	24,246
454,02	19,409
454,22	36,785
454,42	24,380
454,63	21,490
454,83	20,179
455,03	28,518
455,24	19,846
455,44	26,429
455,64	20,984
455,84	22,209
456,05	17,467
456,25	18,403
456,45	23,267
456,65	23,420
456,86	23,708
457,06	19,940
457,26	21,193
457,47	27,176
457,67	22,129
457,87	20,023
458,07	23,777
458,28	25,254
458,48	28,769
458,68	16,842
458,88	28,650
459,09	19,351
459,29	28,430
459,49	16,343
459,69	23,107
459,90	26,555
460,10	20,477
460,30	29,157
460,50	19,400
460,71	24,442
460,91	17,664
461,11	26,443
461,31	22,844
461,52	25,633
461,72	19,432
461,92	24,719
462,12	31,702
462,32	17,400
462,53	21,381
462,73	19,745
462,93	23,293
463,13	25,915
463,34	22,216
463,54	26,105
463,74	23,797
463,94	20,948
464,14	25,455
464,35	19,924
464,55	28,667
464,75	30,679
464,95	22,353
465,16	19,702
465,36	29,438
465,56	20,855
465,76	19,826
465,96	23,949
466,17	24,207
466,37	19,048
466,57	25,829
466,77	29,087
466,97	19,858
467,18	28,195
467,38	24,646
467,58	31,111
467,78	25,303
467,98	24,216
468,19	21,902
468,39	25,721
468,59	19,561
468,79	24,352
468,99	24,508
469,19	22,038
469,40	21,462
469,60	20,817
469,80	21,072
470,00	24,157
470,20	25,978
470,41	21,185
470,61	25,958
470,81	25,619
471,01	23,763
471,21	26,704
471,41	26,107
471,62	22,742
471,82	18,913
472,02	21,892
472,22	21,855
472,42	22,324
472,62	24,025
472,83	19,977
473,03	23,829
473,23	22,682
473,43	26,620
473,63	25,084
473,83	23,258
474,03	24,054
474,24	23,315
474,44	21,029
474,64	22,748
474,84	18,445
475,04	20,430
475,24	26,740
475,45	22,224
475,65	22,166
475,85	26,126
476,05	15,037
476,25	22,790
476,45	23,892
476,65	25,216
476,85	22,104
477,06	21,400
477,26	17,591
477,46	19,355
477,66	23,414
477,86	21,559
478,06	24,283
478,26	29,684
478,46	20,032
478,67	24,035
478,87	21,335
479,07	23,564
479,27	24,546
479,47	20,614
479,67	18,293
479,87	19,441
480,07	27,377
480,28	22,658
480,48	19,617
480,68	25,707
480,88	28,699
481,08	27,021
481,28	23,556
481,48	23,474
481,68	20,752
481,88	17,647
482,08	22,177
482,29	22,380
482,49	17,365
482,69	21,106
482,89	19,645
483,09	26,241
483,29	20,327
483,49	14,693
483,69	22,481
483,89	21,134
484,09	18,550
484,29	19,690
484,50	19,818
484,70	24,124
484,90	20,280
485,10	23,242
485,30	22,946
485,50	26,180
485,70	23,292
485,90	19,516
486,10	18,589
486,30	20,072
486,50	20,137
486,70	17,110
486,90	20,853
487,10	19,857
487,30	23,153
487,51	18,571
487,71	18,241
487,91	20,843
488,11	24,555
488,31	19,903
488,51	19,970
488,71	18,633
488,91	21,255
489,11	20,018
489,31	19,906
489,51	22,087
489,71	21,527
489,91	20,710
490,11	22,137
490,31	21,685
490,51	23,096
490,71	23,357
490,91	19,521
491,11	21,319
491,31	24,971
491,51	20,433
491,72	21,482
491,92	22,257
492,12	24,203
492,32	22,848
492,52	22,156
492,72	20,393
492,92	21,942
493,12	22,705
493,32	18,706
493,52	20,058
493,72	21,375
493,92	21,606
494,12	20,272
494,32	22,470
494,52	20,874
494,72	19,900
494,92	20,428
495,12	24,220
495,32	25,658
495,52	21,750
495,72	21,184
495,92	21,802
496,12	23,419
496,32	22,860
496,52	20,557
496,72	25,660
496,92	21,981
497,12	24,593
497,32	22,139
497,52	20,632
497,72	22,124
497,92	20,351
498,12	21,188
498,32	22,824
498,52	21,273
498,72	19,849
498,92	20,843
499,12	23,510
499,32	20,376
499,52	24,755
499,72	21,756
499,92	24,511
500,12	22,190
500,32	22,863
500,52	22,420
500,72	25,288
500,91	26,069
501,11	21,978
501,31	21,050
501,51	23,692
501,71	24,425
501,91	24,102
502,11	21,094
502,31	22,989
502,51	24,052
502,71	23,665
502,91	20,704
503,11	24,381
503,31	23,157
503,51	20,237
503,71	21,703
503,91	23,240
504,11	20,726
504,31	21,597
504,51	21,237
504,71	27,417
504,91	20,159
505,10	25,421
505,30	22,842
505,50	23,299
505,70	21,739
505,90	22,839
506,10	20,558
506,30	23,259
506,50	22,224
506,70	25,611
506,90	22,459
507,10	20,520
507,30	19,961
507,50	22,498
507,70	24,425
507,89	24,142
508,09	20,867
508,29	20,588
508,49	19,827
508,69	22,495
508,89	21,446
509,09	22,715
509,29	20,354
509,49	24,707
509,69	24,178
509,89	26,388
510,09	24,040
510,28	23,159
510,48	21,748
510,68	21,954
510,88	22,108
511,08	23,411
511,28	22,798
511,48	21,845
511,68	18,365
511,88	26,926
512,07	21,812
512,27	21,180
512,47	22,023
512,67	20,989
512,87	18,712
513,07	22,316
513,27	19,718
513,47	21,710
513,67	19,361
513,86	23,088
514,06	24,132
514,26	22,664
514,46	24,433
514,66	20,046
514,86	21,940
515,06	26,717
515,26	24,864
515,45	22,555
515,65	22,378
515,85	22,929
516,05	20,607
516,25	21,153
516,45	23,720
516,65	20,459
516,84	22,519
517,04	25,062
517,24	21,618
517,44	22,207
517,64	24,289
517,84	25,758
518,04	22,903
518,23	26,184
518,43	26,000
518,63	23,984
518,83	20,284
519,03	23,564
519,23	20,482
519,42	22,994
519,62	22,376
519,82	21,297
520,02	20,301
520,22	23,212
520,42	19,668
520,61	23,788
520,81	22,396
521,01	24,195
521,21	19,077
521,41	19,364
521,61	27,184
521,80	23,101
522,00	21,453
522,20	27,338
522,40	22,317
522,60	22,841
522,79	20,455
522,99	27,750
523,19	21,013
523,39	20,232
523,59	21,383
523,78	22,592
523,98	22,176
524,18	24,889
524,38	19,290
524,58	22,309
524,77	24,019
524,97	22,842
525,17	21,419
525,37	22,474
525,57	26,638
525,76	23,555
525,96	25,674
526,16	21,360
526,36	21,792
526,56	21,525
526,75	23,786
526,95	24,074
527,15	21,243
527,35	23,587
527,55	18,954
527,74	21,220
527,94	20,816
528,14	19,731
528,34	23,407
528,53	19,278
528,73	26,631
528,93	25,162
529,13	19,896
529,32	21,898
529,52	23,986
529,72	21,689
529,92	21,456
530,12	20,608
530,31	21,833
530,51	25,331
530,71	22,453
530,91	28,634
531,10	17,129
531,30	23,782
531,50	20,657
531,70	22,327
531,89	23,208
532,09	19,816
532,29	22,444
532,49	22,012
532,68	22,383
532,88	19,762
533,08	20,118
533,28	24,049
533,47	21,058
533,67	22,581
533,87	22,145
534,06	30,404
534,26	19,981
534,46	20,103
534,66	23,114
534,85	21,884
535,05	19,076
535,25	18,952
535,45	20,891
535,64	25,375
535,84	24,869
536,04	18,875
536,23	23,597
536,43	24,246
536,63	23,353
536,83	22,714
537,02	21,704
537,22	18,604
537,42	22,922
537,61	22,180
537,81	22,764
538,01	23,562
538,20	21,883
538,40	20,540
538,60	20,214
538,80	20,851
538,99	20,862
539,19	19,807
539,39	18,989
539,58	20,890
539,78	18,833
539,98	18,439
540,17	17,285
540,37	19,536
540,57	16,686
540,76	17,959
540,96	13,300
541,16	18,233
541,36	15,596
541,55	13,995
541,75	13,851
541,95	16,397
542,14	12,325
542,34	11,506
542,54	11,281
542,73	13,659
542,93	13,238
543,13	13,128
543,32	11,467
543,52	15,838
543,72	13,507
543,91	14,778
544,11	11,775
544,31	9,332
544,50	11,946
544,70	16,078
544,89	14,493
545,09	15,616
545,29	14,714
545,48	15,835
545,68	13,228
545,88	16,667
546,07	13,437
546,27	14,826
546,47	17,641
546,66	17,817
546,86	16,149
547,06	17,837
547,25	16,183
547,45	17,735
547,64	19,707
547,84	21,973
548,04	19,735
548,23	24,691
548,43	19,664
548,63	20,744
548,82	20,098
549,02	21,172
549,21	18,554
549,41	20,101
549,61	20,457
549,80	20,636
550,00	20,487
550,20	18,948
550,39	21,637
550,59	21,119
550,78	21,433
550,98	20,335
551,18	22,551
551,37	22,035
551,57	21,138
551,76	21,746
551,96	21,091
552,16	19,460
552,35	20,917
552,55	18,386
552,74	21,213
552,94	22,088
553,14	18,966
553,33	22,640
553,53	20,438
553,72	21,867
553,92	25,278
554,12	18,702
554,31	22,182
554,51	21,360
554,70	18,868
554,90	19,969
555,09	24,876
555,29	20,957
555,49	23,304
555,68	24,946
555,88	19,269
556,07	20,744
556,27	25,273
556,46	20,766
556,66	18,799
556,86	26,990
557,05	22,860
557,25	19,199
557,44	20,766
557,64	20,737
557,83	22,928
558,03	22,744
558,22	20,833
558,42	21,642
558,62	21,103
558,81	24,024
559,01	22,395
559,20	23,319
559,40	21,425
559,59	21,115
559,79	20,039
559,98	21,785
560,18	21,374
560,37	22,926
560,57	22,563
560,76	19,363
560,96	19,585
561,16	20,682
561,35	19,982
561,55	23,366
561,74	21,558
561,94	24,248
562,13	21,936
562,33	23,171
562,52	22,405
562,72	19,329
562,91	20,058
563,11	20,366
563,30	22,792
563,50	21,630
563,69	20,597
563,89	19,690
564,08	22,672
564,28	21,070
564,47	22,219
564,67	21,059
564,86	21,196
565,06	20,339
565,25	19,762
565,45	20,259
565,64	24,227
565,84	21,333
566,03	17,095
566,23	22,446
566,42	23,190
566,62	20,727
566,81	21,376
567,01	19,408
567,20	20,232
567,40	21,162
567,59	20,425
567,79	25,278
567,98	25,982
568,18	20,685
568,37	23,374
568,57	22,629
568,76	21,039
568,96	22,208
569,15	18,571
569,35	21,256
569,54	25,973
569,73	22,648
569,93	21,729
570,12	20,632
570,32	23,336
570,51	21,198
570,71	22,665
570,90	23,491
571,10	20,695
571,29	21,415
571,49	20,884
571,68	22,439
571,87	22,731
572,07	21,798
572,26	18,363
572,46	20,938
572,65	21,796
572,85	20,069
573,04	21,277
573,24	21,106
573,43	23,555
573,62	22,855
573,82	21,424
574,01	20,944
574,21	20,142
574,40	20,492
574,60	18,953
574,79	25,829
574,98	20,272
575,18	20,204
575,37	18,504
575,57	21,751
575,76	21,627
575,96	21,076
576,15	21,813
576,34	21,265
576,54	21,296
576,73	21,754
576,93	20,780
577,12	21,388
577,31	21,173
577,51	20,286
577,70	21,179
577,90	20,642
578,09	20,832
578,28	20,599
578,48	20,558
578,67	21,841
578,87	21,045
579,06	20,300
579,25	22,116
579,45	22,378
579,64	18,918
579,84	19,895
580,03	21,732
580,22	22,204
580,42	20,148
580,61	21,277
580,81	20,772
581,00	21,375
581,19	22,808
581,39	18,895
581,58	19,572
581,77	19,613
581,97	21,404
582,16	20,451
582,35	19,210
582,55	20,282
582,74	22,217
582,94	22,522
583,13	21,018
583,32	19,814
583,52	21,466
583,71	19,938
583,90	20,786
584,10	22,102
584,29	22,889
584,48	18,798
584,68	19,319
584,87	22,374
585,06	20,808
585,26	19,192
585,45	20,869
585,65	22,543
585,84	19,906
586,03	19,746
586,23	19,372
586,42	19,330
586,61	24,158
586,81	20,557
587,00	19,758
587,19	19,504
587,39	21,753
587,58	21,388
587,77	20,229
587,97	18,274
588,16	20,697
588,35	18,985
588,54	20,787
588,74	21,063
588,93	23,830
589,12	22,302
589,32	19,840
589,51	19,720
589,70	18,620
589,90	19,691
590,09	18,805
590,28	23,279
590,48	17,947
590,67	21,148
590,86	21,008
591,06	19,939
591,25	21,895
591,44	21,943
591,63	21,916
591,83	20,126
592,02	20,441
592,21	19,860
592,41	22,003
592,60	21,197
592,79	21,853
592,98	22,158
593,18	19,078
593,37	20,471
593,56	21,271
593,76	21,090
593,95	19,936
594,14	20,353
594,33	22,972
594,53	21,278
594,72	19,223
594,91	21,280
595,10	20,539
595,30	20,827
595,49	20,849
595,68	22,195
595,88	24,111
596,07	22,016
596,26	22,086
596,45	20,382
596,65	19,078
596,84	20,210
597,03	22,907
597,22	20,630
597,42	22,666
597,61	19,816
597,80	22,099
597,99	21,743
598,19	22,802
598,38	21,633
598,57	19,900
598,76	21,687
598,95	21,442
599,15	21,923
599,34	20,358
599,53	18,736
599,72	19,795
599,92	22,396
600,11	21,956
600,30	21,945
600,49	23,155
600,69	20,661
600,88	21,291
601,07	20,652
601,26	19,437
601,45	19,732
601,65	18,830
601,84	22,695
602,03	20,599
602,22	21,809
602,42	22,531
602,61	19,552
602,80	21,411
602,99	20,122
603,18	19,393
603,38	21,991
603,57	20,190
603,76	19,123
603,95	18,719
604,14	22,005
604,34	18,966
604,53	19,193
604,72	22,451
604,91	21,311
605,10	21,422
605,29	22,697
605,49	19,540
605,68	21,890
605,87	24,631
606,06	19,486
606,25	19,401
606,45	21,256
606,64	20,119
606,83	21,877
607,02	20,218
607,21	21,142
607,40	21,107
607,60	19,427
607,79	18,789
607,98	19,406
608,17	19,407
608,36	19,485
608,55	18,756
608,75	19,811
608,94	19,716
609,13	16,329
609,32	16,183
609,51	18,680
609,70	17,770
609,89	16,230
610,09	16,295
610,28	16,613
610,47	17,239
610,66	15,956
610,85	14,048
611,04	17,154
611,23	13,431
611,43	14,393
611,62	16,011
611,81	13,935
612,00	17,178
612,19	14,976
612,38	16,470
612,57	17,037
612,77	17,059
612,96	16,476
613,15	17,768
613,34	18,834
613,53	18,689
613,72	18,614
613,91	16,586
614,10	19,233
614,29	20,116
614,49	18,073
614,68	17,701
614,87	18,173
615,06	20,503
615,25	18,341
615,44	19,528
615,63	19,991
615,82	18,194
616,01	19,612
616,21	18,214
616,40	20,496
616,59	21,061
616,78	18,479
616,97	19,139
617,16	18,686
617,35	19,632
617,54	18,781
617,73	21,134
617,92	19,334
618,11	19,312
618,31	19,465
618,50	19,961
618,69	18,286
618,88	18,674
619,07	16,870
619,26	17,374
619,45	18,068
619,64	17,995
619,83	18,231
620,02	20,016
620,21	20,986
620,40	18,935
620,59	20,456
620,78	18,157
620,97	19,910
621,17	21,942
621,36	17,398
621,55	18,570
621,74	20,279
621,93	21,125
622,12	19,406
622,31	18,220
622,50	19,809
622,69	21,492
622,88	20,489
623,07	21,567
623,26	20,380
623,45	22,038
623,64	19,344
623,83	19,138
624,02	19,802
624,21	20,186
624,40	17,722
624,59	17,125
624,78	19,897
624,97	22,106
625,16	18,197
625,35	17,884
625,54	17,710
625,73	18,118
625,92	19,921
626,12	22,081
626,31	20,813
626,50	20,212
626,69	18,267
626,88	20,160
627,07	19,425
627,26	19,272
627,45	19,324
627,64	18,667
627,83	20,785
628,02	18,027
628,21	18,912
628,40	18,306
628,59	19,553
628,78	17,623
628,97	18,594
629,16	19,491
629,35	19,135
629,54	19,471
629,73	20,260
629,92	18,054
630,10	18,699
630,29	20,055
630,48	17,124
630,67	18,765
630,86	19,957
631,05	18,559
631,24	20,658
631,43	17,796
631,62	19,160
631,81	17,231
632,00	19,573
632,19	17,250
632,38	19,474
632,57	20,566
632,76	16,185
632,95	19,596
633,14	21,011
633,33	20,955
633,52	19,906
633,71	19,123
633,90	17,107
634,09	19,324
634,28	20,105
634,47	18,820
634,66	20,253
634,85	19,704
635,04	22,027
635,22	18,555
635,41	18,229
635,60	22,630
635,79	19,587
635,98	18,409
636,17	19,522
636,36	16,710
636,55	17,542
636,74	18,538
636,93	19,502
637,12	19,201
637,31	18,059
637,50	19,135
637,69	19,667
637,87	19,453
638,06	18,268
638,25	18,135
638,44	18,596
638,63	18,069
638,82	18,810
639,01	18,457
639,20	19,212
639,39	20,466
639,58	20,313
639,77	18,301
639,95	19,188
640,14	20,317
640,33	19,741
640,52	19,667
640,71	20,893
640,90	19,250
641,09	19,841
641,28	17,965
641,47	20,149
641,66	19,654
641,84	21,510
642,03	17,084
642,22	19,142
642,41	21,847
642,60	18,203
642,79	19,251
642,98	19,839
643,17	19,864
643,35	17,405
643,54	17,464
643,73	18,465
643,92	18,997
644,11	19,294
644,30	18,160
644,49	20,304
644,67	19,410
644,86	19,703
645,05	19,015
645,24	18,061
645,43	17,580
645,62	19,337
645,81	18,289
645,99	19,277
646,18	20,671
646,37	20,058
646,56	18,652
646,75	19,139
646,94	21,068
647,13	18,222
647,31	18,234
647,50	18,028
647,69	21,548
647,88	19,484
648,07	18,840
648,26	23,449
648,44	18,751
648,63	20,027
648,82	19,145
649,01	21,313
649,20	17,231
649,38	20,094
649,57	19,508
649,76	18,105
649,95	20,445
650,14	18,877
650,33	18,430
650,51	19,336
650,70	19,703
650,89	19,871
651,08	19,320
651,27	20,442
651,45	17,959
651,64	18,347
651,83	18,466
652,02	18,343
652,21	19,070
652,39	20,594
652,58	19,896
652,77	22,125
652,96	20,413
653,15	21,226
653,33	20,015
653,52	20,432
653,71	20,271
653,90	20,893
654,09	18,745
654,27	18,063
654,46	20,432
654,65	19,991
654,84	19,466
655,02	20,282
655,21	18,485
655,40	22,122
655,59	20,766
655,77	20,906
655,96	20,262
656,15	20,963
656,34	21,005
656,53	19,913
656,71	21,582
656,90	21,499
657,09	20,152
657,28	21,354
657,46	18,984
657,65	19,551
657,84	19,461
658,03	20,484
658,21	21,050
658,40	18,743
658,59	17,176
658,78	18,809
658,96	18,633
659,15	20,679
659,34	17,726
659,52	19,879
659,71	20,533
659,90	17,974
660,09	18,205
660,27	20,003
660,46	21,395
660,65	21,069
660,84	18,318
661,02	20,011
661,21	20,306
661,40	21,230
661,58	20,104
661,77	19,444
661,96	18,818
662,15	19,430
662,33	19,944
662,52	18,608
662,71	18,666
662,89	18,457
663,08	19,653
663,27	20,911
663,45	19,675
663,64	20,521
663,83	18,595
664,02	17,922
664,20	20,368
664,39	19,626
664,58	19,268
664,76	18,562
664,95	19,729
665,14	19,758
665,32	18,914
665,51	19,358
665,70	21,193
665,88	20,468
666,07	19,026
666,26	20,823
666,44	20,673
666,63	17,018
666,82	17,230
667,00	18,215
667,19	18,325
667,38	19,787
667,56	19,871
667,75	19,689
667,94	19,931
668,12	18,788
668,31	20,799
668,50	20,068
668,68	19,987
668,87	18,525
669,06	18,822
669,24	21,500
669,43	18,893
669,62	19,821
669,80	17,375
669,99	18,984
670,18	18,429
670,36	17,331
670,55	21,686
670,74	17,519
670,92	17,447
671,11	21,554
671,29	17,353
671,48	18,984
671,67	18,666
671,85	18,446
672,04	19,136
672,23	18,758
672,41	18,114
672,60	19,146
672,78	19,441
672,97	19,418
673,16	20,438
673,34	19,604
673,53	17,810
673,71	19,267
673,90	20,392
674,09	19,859
674,27	20,005
674,46	19,320
674,64	18,562
674,83	19,265
675,02	16,745
675,20	19,826
675,39	17,486
675,57	18,348
675,76	18,609
675,95	22,348
676,13	19,135
676,32	18,473
676,50	18,656
676,69	16,708
676,88	19,136
677,06	18,420
677,25	19,029
677,43	21,440
677,62	20,800
677,80	19,704
677,99	19,737
678,18	20,499
678,36	20,698
678,55	17,477
678,73	16,748
678,92	18,239
679,10	18,927
679,29	19,156
679,48	16,669
679,66	19,002
679,85	19,547
680,03	19,110
680,22	17,553
680,40	18,334
680,59	19,484
680,77	18,402
680,96	18,437
681,15	19,350
681,33	21,199
681,52	19,401
681,70	18,338
681,89	21,863
682,07	18,473
682,26	19,101
682,44	20,166
682,63	19,421
682,81	20,321
683,00	19,639
683,18	17,110
683,37	18,755
683,55	18,214
683,74	20,171
683,92	24,443
684,11	19,385
684,29	19,671
684,48	17,960
684,67	18,731
684,85	18,749
685,04	20,520
685,22	18,604
685,41	19,663
685,59	19,640
685,78	17,688
685,96	18,200
686,15	17,479
686,33	18,217
686,52	19,163
686,70	18,168
686,89	19,611
687,07	19,550
687,26	18,528
687,44	19,686
687,62	17,665
687,81	19,569
687,99	19,981
688,18	19,546
688,36	19,565
688,55	21,649
688,73	18,190
688,92	18,451
689,10	18,181
689,29	20,531
689,47	21,069
689,66	18,337
689,84	18,545
690,03	20,695
690,21	18,120
690,40	16,913
690,58	19,120
690,76	18,468
690,95	18,947
691,13	16,257
691,32	19,778
691,50	18,412
691,69	19,470
691,87	19,789
692,06	18,665
692,24	18,271
692,43	18,497
692,61	19,564
692,79	18,906
692,98	17,155
693,16	20,033
693,35	18,679
693,53	19,512
693,72	19,327
693,90	21,191
694,08	17,496
694,27	18,129
694,45	20,350
694,64	19,923
694,82	18,504
695,01	19,252
695,19	16,356
695,37	18,635
695,56	18,371
695,74	19,465
695,93	18,843
696,11	18,345
696,29	19,200
696,48	20,660
696,66	19,294
696,85	17,314
697,03	17,690
697,21	20,229
697,40	21,512
697,58	19,485
697,77	19,911
697,95	19,056
698,13	18,819
698,32	18,138
698,50	16,990
698,69	17,917
698,87	19,915
699,05	22,026
699,24	17,788
699,42	18,375
699,60	17,117
699,79	17,945
699,97	17,657
700,16	17,495
700,34	21,944
700,52	18,259
700,71	18,168
700,89	15,335
701,07	17,164
701,26	18,149
701,44	17,689
701,63	18,222
701,81	19,469
701,99	19,233
702,18	18,213
702,36	18,163
702,54	19,237
702,73	18,905
702,91	17,184
703,09	17,711
703,28	16,373
703,46	18,554
703,64	19,785
703,83	18,765
704,01	19,249
704,19	19,106
704,38	18,064
704,56	17,817
704,74	21,119
704,93	16,999
705,11	18,376
705,29	18,905
705,48	21,698
705,66	17,972
705,84	17,946
706,03	16,523
706,21	17,125
706,39	17,353
706,58	16,659
706,76	19,185
706,94	19,290
707,12	17,844
707,31	17,356
707,49	17,608
707,67	17,613
707,86	21,214
708,04	19,369
708,22	18,147
708,41	20,410
708,59	16,544
708,77	19,382
708,95	18,407
709,14	20,959
709,32	19,369
709,50	16,778
709,69	19,382
709,87	18,260
710,05	16,514
710,23	17,036
710,42	17,602
710,60	18,561
710,78	20,392
710,97	18,036
711,15	18,917
711,33	20,137
711,51	17,254
711,70	17,459
711,88	18,965
712,06	19,283
712,24	19,724
712,43	19,274
712,61	17,779
712,79	18,048
712,97	17,324
713,16	19,183
713,34	15,550
713,52	20,768
713,70	18,288
713,89	18,024
714,07	18,403
714,25	18,715
714,43	19,074
714,62	17,595
714,80	16,894
714,98	15,875
715,16	18,366
715,35	16,780
715,53	17,743
715,71	21,378
715,89	21,276
716,07	19,335
716,26	18,840
716,44	19,605
716,62	18,234
716,80	18,835
716,99	18,309
717,17	21,820
717,35	18,380
717,53	16,768
717,71	18,374
717,90	19,269
718,08	20,215
718,26	18,958
718,44	20,953
718,62	19,445
718,81	18,189
718,99	17,244
719,17	18,873
719,35	19,178
719,53	18,677
719,72	16,777
719,90	16,800
720,08	17,317
720,26	20,267
720,44	18,587
720,62	18,346
720,81	20,499
720,99	19,788
721,17	18,077
721,35	20,306
721,53	17,246
721,72	19,996
721,90	18,666
722,08	16,699
722,26	18,971
722,44	19,250
722,62	17,272
722,81	18,237
722,99	18,116
723,17	18,174
723,35	18,650
723,53	19,337
723,71	19,196
723,89	22,600
724,08	18,902
724,26	18,841
724,44	19,775
724,62	19,472
724,80	15,843
724,98	19,615
725,16	20,617
725,35	18,798
725,53	18,469
725,71	18,052
725,89	19,549
726,07	23,178
726,25	20,599
726,43	16,701
726,61	18,874
726,80	18,604
726,98	18,651
727,16	17,365
727,34	20,530
727,52	17,182
727,70	18,216
727,88	17,817
728,06	15,940
728,25	17,876
728,43	17,221
728,61	17,280
728,79	18,775
728,97	21,080
729,15	18,242
729,33	20,696
729,51	20,227
729,69	20,867
729,87	19,571
730,06	20,495
730,24	21,363
730,42	20,355
730,60	19,088
730,78	18,897
730,96	19,537
731,14	19,724
731,32	19,586
731,50	17,569
731,68	17,347
731,86	21,520
732,04	18,440
732,22	19,082
732,41	25,074
732,59	18,932
732,77	19,182
732,95	19,263
733,13	20,605
733,31	20,465
733,49	17,364
733,67	19,099
733,85	19,697
734,03	18,789
734,21	17,397
734,39	20,113
734,57	18,981
734,75	19,909
734,93	16,878
735,11	19,609
735,29	17,396
735,47	20,807
735,65	17,323
735,84	17,691
736,02	19,847
736,20	22,322
736,38	17,186
736,56	20,701
736,74	19,372
736,92	16,320
737,10	17,740
737,28	21,692
737,46	17,744
737,64	19,211
737,82	18,464
738,00	20,540
738,18	19,245
738,36	20,570
738,54	18,555
738,72	19,350
738,90	18,990
739,08	18,912
739,26	17,494
739,44	17,541
739,62	21,694
739,80	19,333
739,98	19,506
740,16	19,555
740,34	19,138
740,52	22,186
740,70	18,853
740,88	18,444
741,06	19,721
741,24	18,187
741,42	18,754
741,60	18,597
741,78	19,858
741,96	20,739
742,14	19,734
742,32	17,921
742,50	18,348
742,68	20,333
742,86	17,872
743,04	17,809
743,21	20,918
743,39	18,700
743,57	19,129
743,75	19,954
743,93	17,397
744,11	15,385
744,29	19,447
744,47	18,959
744,65	20,413
744,83	19,068
745,01	16,833
745,19	17,528
745,37	23,609
745,55	19,758
745,73	20,382
745,91	16,609
746,09	18,484
746,27	17,972
746,45	18,675
746,62	19,166
746,80	18,046
746,98	18,253
747,16	15,528
747,34	17,490
747,52	17,397
747,70	20,015
747,88	20,232
748,06	19,505
748,24	19,078
748,42	21,588
748,60	18,145
748,78	16,831
748,95	22,385
749,13	23,146
749,31	18,474
749,49	18,422
749,67	19,210
749,85	20,226
750,03	19,717
750,21	19,135
750,39	20,200
750,57	16,865
750,74	20,222
750,92	18,258
751,10	18,920
751,28	16,781
751,46	20,125
751,64	18,584
751,82	20,594
752,00	20,829
752,17	20,988
752,35	20,976
752,53	20,764
752,71	18,510
752,89	19,091
753,07	17,535
753,25	19,173
753,43	18,022
753,60	20,438
753,78	21,164
753,96	20,435
754,14	20,765
754,32	20,501
754,50	19,378
754,68	20,994
754,85	17,668
755,03	18,963
755,21	20,079
755,39	22,753
755,57	18,483
755,75	20,255
755,92	19,755
756,10	18,856
756,28	18,733
756,46	18,016
756,64	18,707
756,82	19,769
756,99	17,653
757,17	17,279
757,35	18,611
757,53	23,778
757,71	22,809
757,89	16,775
758,06	19,521
758,24	19,842
758,42	20,339
758,60	16,361
758,78	18,898
758,95	19,604
759,13	21,319
759,31	19,749
759,49	18,102
759,67	20,346
759,84	17,628
760,02	20,078
760,20	17,881
760,38	20,340
760,56	16,716
760,73	18,331
760,91	17,777
761,09	22,272
761,27	18,775
761,45	18,201
761,62	16,790
761,80	18,555
761,98	19,031
762,16	22,384
762,33	17,634
762,51	19,225
762,69	18,517
762,87	18,266
763,05	21,389
763,22	18,814
763,40	19,297
763,58	18,527
763,76	17,447
763,93	20,613
764,11	20,591
764,29	19,612
764,47	21,253
764,64	22,796
764,82	21,521
765,00	18,601
765,18	17,754
765,35	18,712
765,53	17,565
765,71	20,431
765,89	19,035
766,06	17,597
766,24	18,707
766,42	19,557
766,60	17,825
766,77	19,492
766,95	18,374
767,13	19,757
767,30	18,052
767,48	16,729
767,66	16,949
767,84	16,025
768,01	19,164
768,19	19,834
768,37	18,302
768,54	17,703
768,72	19,214
768,90	18,172
769,08	18,993
769,25	17,446
769,43	18,466
769,61	17,370
769,78	21,441
769,96	17,869
770,14	19,187
770,31	21,153
770,49	22,223
770,67	18,391
770,85	20,286
771,02	20,020
771,20	18,904
771,38	19,082
771,55	20,447
771,73	16,674
771,91	20,974
772,08	20,325
772,26	19,726
772,44	20,860
772,61	20,764
772,79	17,934
772,97	18,218
773,14	17,630
773,32	21,066
773,50	17,974
773,67	20,457
773,85	19,995
774,03	22,009
774,20	20,088
774,38	17,845
774,56	19,760
774,73	16,670
774,91	17,472
775,09	17,829
775,26	22,427
775,44	20,170
775,61	19,931
775,79	18,650
775,97	20,436
776,14	19,332
776,32	19,002
776,50	18,891
776,67	19,814
776,85	20,808
777,03	15,592
777,20	20,280
777,38	20,441
777,55	20,601
777,73	19,476
777,91	16,714
778,08	19,761
778,26	17,894
778,43	18,796
778,61	18,554
778,79	18,511
778,96	20,427
779,14	17,806
779,32	17,770
779,49	16,657
779,67	23,879
779,84	19,796
780,02	20,109
780,20	18,255
780,37	21,540
780,55	14,018
780,72	19,457
780,90	17,859
781,07	20,650
781,25	22,638
781,43	20,147
781,60	16,134
781,78	21,789
781,95	20,396
782,13	19,436
782,30	19,698
782,48	20,683
782,66	18,352
782,83	19,364
783,01	26,988
783,18	21,326
783,36	21,062
783,53	21,521
783,71	17,067
783,89	18,265
784,06	20,790
784,24	20,072
784,41	19,280
784,59	16,369
784,76	22,970
784,94	17,590
785,11	19,656
785,29	20,220
785,46	18,030
785,64	18,369
785,82	21,949
785,99	22,387
786,17	21,576
786,34	17,752
786,52	23,287
786,69	21,991
786,87	19,352
787,04	19,255
787,22	19,195
787,39	20,620
787,57	22,465
787,74	18,029
787,92	21,543
788,09	21,333
788,27	20,354
788,44	19,327
788,62	22,649
788,79	17,404
788,97	19,371
789,14	20,718
789,32	18,473
789,49	19,127
789,67	19,086
789,84	17,357
790,02	22,850
790,19	15,747
790,37	21,299
790,54	19,946
790,72	24,233
790,89	21,936
791,07	24,395
791,24	15,950
791,42	21,984
791,59	26,006
791,77	17,122
791,94	20,848
792,12	19,438
792,29	21,668
792,47	21,889
792,64	20,320
792,81	22,281
792,99	19,396
793,16	18,572
793,34	19,665
793,51	18,801
793,69	21,940
793,86	19,386
794,04	21,743
794,21	23,412
794,39	17,279
794,56	19,227
794,73	23,757
794,91	24,787
795,08	20,163
795,26	21,438
795,43	18,000
795,61	23,301
795,78	18,646
795,95	22,481
796,13	20,127
796,30	21,032
796,48	17,538
796,65	17,624
796,83	22,368
797,00	23,060
797,17	20,017
797,35	18,672
797,52	21,227
797,70	21,656
797,87	23,243
798,04	23,692
798,22	18,079
798,39	20,519
798,57	18,483
798,74	21,063
798,91	16,727
799,09	19,628
799,26	21,784
799,44	23,848
799,61	16,302
799,78	19,931
799,96	24,839
800,13	18,870
800,31	24,871
800,48	23,745
800,65	25,711
800,83	21,894
801,00	19,710
801,17	20,197
801,35	23,830
801,52	22,257
801,70	22,871
801,87	19,742
802,04	23,303
802,22	16,981
802,39	19,703
802,56	25,209
802,74	25,844
802,91	19,477
803,08	19,782
803,26	21,756
803,43	26,901
803,61	16,770
803,78	20,311
803,95	24,110
804,13	21,984
804,30	18,835
804,47	20,256
804,65	21,304
804,82	21,768
804,99	22,105
805,17	18,037
805,34	27,725
805,51	24,036
805,69	20,002
805,86	22,224
806,03	24,424
806,21	23,063
806,38	26,212
806,55	17,273
806,72	21,398
806,90	27,075
807,07	20,791
807,24	18,522
807,42	20,294
807,59	20,996
807,76	17,786
807,94	23,525
808,11	26,348
808,28	24,497
808,45	22,314
808,63	20,046
808,80	24,335
808,97	19,281
809,15	23,539
809,32	20,877
809,49	23,029
809,67	23,071
809,84	24,551
810,01	25,820
810,18	32,767
810,36	25,522
810,53	22,427
810,70	23,163
810,87	21,911
811,05	23,710
811,22	21,028
811,39	18,674
811,57	25,685
811,74	21,244
811,91	23,549
812,08	18,708
812,26	20,465
812,43	18,089
812,60	26,614
812,77	21,592
812,95	25,194
813,12	20,968
813,29	22,222
813,46	24,073
813,64	24,989
813,81	24,115
813,98	22,367
814,15	25,878
814,32	27,940
814,50	24,063
814,67	22,075
814,84	27,123
815,01	19,669
815,19	16,573
815,36	21,932
815,53	20,500
815,70	19,897
815,87	28,584
816,05	21,734
816,22	24,303
816,39	26,801
816,56	25,055
816,74	25,840
816,91	23,372
817,08	28,082
817,25	27,242
817,42	27,368
817,60	25,453
817,77	26,428
817,94	20,634
818,11	21,649
818,28	20,156
818,45	24,353
818,63	25,130
818,80	25,252
818,97	23,318
819,14	27,142
819,31	29,914
819,49	24,599
819,66	20,364
819,83	28,716
820,00	28,735
820,17	20,249
820,34	22,925
820,52	28,562
820,69	29,690
820,86	20,753
821,03	24,753
821,20	26,269
821,37	29,085
821,55	24,501
821,72	16,156
821,89	24,484
822,06	29,536
822,23	20,178
822,40	23,533
822,57	26,702
822,75	25,975
822,92	15,108
823,09	28,196
823,26	26,435
823,43	26,865
823,60	21,756
823,77	19,080
823,94	29,009
824,12	28,423
824,29	22,820
824,46	27,510
824,63	36,877
824,80	31,295
824,97	22,651
825,14	23,042
825,31	27,615
825,49	23,948
825,66	10,800
825,83	21,791
826,00	25,577
826,17	33,746
826,34	26,252
826,51	19,196
826,68	22,177
826,85	20,583
827,02	15,548
827,20	19,739
827,37	19,988
827,54	28,377
827,71	25,416
827,88	24,042
828,05	27,447
828,22	25,435
828,39	32,290
828,56	26,048
828,73	27,525
828,90	21,707
829,07	23,765
829,25	20,167
829,42	24,261
829,59	20,365
829,76	18,904
829,93	26,399
830,10	24,889
830,27	21,390
830,44	21,358
830,61	16,098
830,78	27,599
830,95	29,462
831,12	25,215
831,29	22,099
831,46	16,580
831,63	17,123
831,80	25,894
831,97	23,626
832,14	29,265
832,31	31,736
832,48	21,170
832,65	24,983
832,83	20,273
833,00	26,467
833,17	21,876
833,34	27,116
833,51	30,497
833,68	31,993
833,85	24,678
834,02	17,798
834,19	25,702
834,36	25,687
834,53	19,463
834,70	21,570
834,87	37,973
835,04	28,117
835,21	25,877
835,38	26,032
835,55	17,758
835,72	40,629
835,89	21,935
836,06	23,852
836,23	37,189
836,40	23,582
836,57	24,767
836,74	26,385
836,91	23,039
837,08	39,576
837,25	23,777
837,42	22,633
837,59	15,581
837,76	28,019
837,93	29,145
838,09	21,610
838,26	23,148
838,43	37,393
838,60	35,337
838,77	30,329
838,94	28,403
839,11	38,424
839,28	31,032
839,45	25,047
839,62	23,070
839,79	23,041
839,96	24,478
840,13	27,810
840,30	21,131
840,47	25,874
840,64	33,894
840,81	27,734
840,98	25,655
841,15	34,793
841,32	26,562
841,48	29,417
841,65	26,960
841,82	25,111
841,99	25,767
842,16	26,867
842,33	23,723
842,50	30,181
842,67	16,706
842,84	22,955
843,01	33,136
843,18	22,913
843,35	30,227
843,52	20,279
843,68	32,938
843,85	23,423
844,02	11,536
844,19	26,849
844,36	23,766
844,53	15,997
844,70	10,127
844,87	43,926
845,04	29,910
845,21	17,646
845,37	34,246
845,54	19,844
845,71	31,768
845,88	47,028
846,05	28,003
846,22	8,367
846,39	26,029
846,56	32,517
846,72	7,632
846,89	29,909
847,06	36,331
847,23	26,697
847,40	15,372
847,57	23,073
847,74	23,593
847,90	39,723
848,07	29,253
848,24	24,601
848,41	34,245
848,58	44,902
848,75	29,135
848,92	17,729
849,08	26,213
849,25	18,727
849,42	20,109
849,59	28,790
849,76	22,457
849,93	37,498
850,09	28,500
850,26	14,343
850,43	46,530
850,60	12,062
850,77	17,067
850,94	35,857
851,10	19,823
851,27	21,220
851,44	32,157
851,61	25,348
851,78	51,570
851,95	41,156
852,11	30,530
852,28	18,720
852,45	44,951
852,62	46,135
852,79	30,488
852,95	21,176
853,12	33,696
853,29	18,409
853,46	23,813
853,63	23,457
853,79	18,646
853,96	28,976
854,13	44,162
854,30	26,671
854,46	47,161
854,63	29,385
854,80	35,170
854,97	26,637
855,14	52,884
855,30	50,340
855,47	35,436
855,64	38,230
855,81	29,597
855,97	47,812
856,14	30,030
856,31	10,732
856,48	35,276
856,65	45,078
856,81	32,167
856,98	21,120
857,15	9,714
857,32	38,180
857,48	27,615
857,65	48,462
857,82	43,230
857,99	32,597
858,15	43,310
858,32	28,620
858,49	22,830
858,65	55,811
858,82	22,431
858,99	38,000
859,16	46,956
859,32	35,713
859,49	34,797
859,66	42,620
859,83	42,408
859,99	24,215
860,16	24,679
860,33	32,701
860,49	43,930
860,66	39,432
860,83	24,258
861,00	30,136
861,16	58,720
861,33	49,600
861,50	14,454
861,66	36,366
861,83	43,942
862,00	29,578
862,16	23,633
862,33	37,226
862,50	59,407
862,67	47,005
862,83	32,157
863,00	39,706
863,17	50,670
863,33	27,421
863,50	18,476
863,67	43,588
863,83	46,066
864,00	44,962
864,17	19,520
864,33	16,671
864,50	15,834
864,67	46,841
864,83	10,642
865,00	44,303
865,17	21,987
865,33	40,586
865,50	28,909
865,67	34,502
865,83	42,255
866,00	49,405
866,17	42,980
866,33	37,788
866,50	26,823
866,66	27,062
866,83	31,726
867,00	48,255
867,16	59,938
867,33	73,852
867,50	36,085
867,66	35,034
867,83	35,112
868,00	22,283
868,16	22,180
868,33	35,907
868,49	29,790
868,66	52,194
868,83	42,184
868,99	51,105
869,16	73,343
869,32	71,733
869,49	39,827
869,66	37,277
869,82	66,189
869,99	64,851
870,15	46,660
870,32	44,212
870,49	93,865
870,65	69,222
870,82	42,876
870,98	40,367
871,15	61,002
871,32	59,185
871,48	28,646
871,65	42,702
871,81	37,541
871,98	14,390
872,15	32,976
872,31	18,535
872,48	66,137
872,64	39,824
872,81	71,323
872,97	10,117
873,14	84,505
873,31	41,093
873,47	62,573
873,64	64,818
873,80	78,086
873,97	79,617
874,13	63,678
874,30	31,498
874,46	53,735
874,63	67,309
874,80	31,547
874,96	20,358
875,13	79,994
875,29	22,126
875,46	69,533
875,62	17,199
875,79	74,763
875,95	45,831
876,12	17,090
876,28	34,675
876,45	85,459
876,61	27,593
876,78	23,201
876,94	3,187
877,11	66,816
877,27	145,675
877,44	75,556
877,60	40,757
877,77	66,753
877,94	129,548
878,10	51,159
878,27	52,143
878,43	115,435
878,60	37,945
878,76	54,350
878,93	73,757
879,09	29,543
879,26	127,818
879,42	71,268
879,58	57,205
879,75	90,503
879,91	104,334
880,08	26,191
880,24	86,993
880,41	21,148
880,57	55,221
880,74	137,275
880,90	46,397
881,07	51,127
881,23	112,128
881,40	96,723
881,56	32,002
881,73	139,731
881,89	82,303
882,06	66,710
882,22	117,258
882,38	124,041
882,55	122,652
882,71	76,571
882,88	55,806
883,04	91,067
883,21	87,748
883,37	127,805
883,54	89,352
883,70	206,081
883,86	107,745
884,03	108,323
884,19	56,074
884,36	83,584
884,52	120,695
884,69	83,967
884,85	8,729
885,01	87,608
885,18	131,014
885,34	67,882
885,51	28,757
885,67	74,702
>>>>> Data<<<<< Espectral Procesado Extremo
