Fichero De Datos De SpectraSuite
++++++++++++++++++++++++++++++++++++
Fecha: Wed Apr 22 08:53:33 CEST 2009
Usuario: evoflor
Presente Oscuro Del Espectro: Sí
La Referencia de Presente Del Espectro De: Sí
Muestreados de los componentes de Número de espectros: 1
Espectrómetros: USB4F02353
Tiempo de integración (usec): 500000 (USB4F02353)
Promedio de Espectros Hechos un: 5 (USB4F02353)
El Alisar Del Furgón: 0 (USB4F02353)
Párrafo de de Corregir del la del del de Eléctrica del obscuridad: Sí (USB4F02353)
Estrobo/Lámpara Permitido: No (USB4F02353)
Correct for Detector Non-linearity: No (USB4F02353)
Párrafo de de Corregir del la del del de Externa del luz: No (USB4F02353)
Procesado del espectro de Número de pixeles en: 3648
>>>>> Comienza Data<<<<< Espectral Procesado Del EL
177,79	832,958
178,00	832,958
178,22	832,958
178,44	-8759,413
178,66	519,565
178,88	33,547
179,09	1365,553
179,31	176,415
179,53	-5838,347
179,75	334,818
179,96	-381,950
180,18	387,684
180,40	-317,468
180,62	-224,666
180,83	337,936
181,05	-564,521
181,27	-685,283
181,49	113,662
181,70	-481,461
181,92	228,571
182,14	180,762
182,36	-1192,913
182,58	229,314
182,79	-1049,365
183,01	-9881,018
183,23	287,378
183,45	-106,187
183,66	30,410
183,88	948,434
184,10	935,723
184,32	1171,118
184,53	-354,280
184,75	323,383
184,97	-161,428
185,18	1078,865
185,40	223,495
185,62	-966,954
185,84	2223,231
186,05	4130,929
186,27	-4639,724
186,49	-1039,925
186,71	193,333
186,92	578,589
187,14	1795,237
187,36	326,601
187,58	1327,704
187,79	-508,632
188,01	-1023,694
188,23	156,827
188,45	281,135
188,66	86,473
188,88	196,632
189,10	-332,046
189,31	-113,188
189,53	204,921
189,75	1068,422
189,97	114,644
190,18	288,087
190,40	1443,739
190,62	107,103
190,83	354,145
191,05	-197,873
191,27	6596,134
191,49	539,285
191,70	766,447
191,92	484,803
192,14	483,955
192,35	-1547,390
192,57	-878,308
192,79	-1794,015
193,01	680,025
193,22	627,781
193,44	-619,253
193,66	350,782
193,87	911,349
194,09	59,721
194,31	236,198
194,53	-563,154
194,74	297,847
194,96	-266,418
195,18	810,028
195,39	-1449,359
195,61	-373,105
195,83	2750,987
196,04	352,624
196,26	183,223
196,48	2286,962
196,70	495,135
196,91	197,516
197,13	-86,627
197,35	219,198
197,56	-667,458
197,78	5746,470
198,00	612,621
198,21	258,530
198,43	870,018
198,65	289,080
198,86	123,649
199,08	1154,074
199,30	49,813
199,51	1443,739
199,73	-2149,572
199,95	245,913
200,16	763,838
200,38	198,917
200,60	4685,182
200,81	-894,612
201,03	3144,498
201,25	673,974
201,46	-960,291
201,68	548,902
201,90	638,113
202,11	381,504
202,33	227,655
202,55	146,309
202,76	725,749
202,98	867,209
203,20	270,711
203,41	-1063,263
203,63	492,215
203,85	132,498
204,06	-706,875
204,28	172,772
204,50	-386,768
204,71	472,964
204,93	129,190
205,15	150,480
205,36	-175,051
205,58	427,417
205,80	-2230,057
206,01	-6288,063
206,23	255,217
206,45	448,363
206,66	330,313
206,88	-431,127
207,10	2297,878
207,31	-45835,762
207,53	250,385
207,75	-215,707
207,96	559,823
208,18	416,913
208,39	174,653
208,61	636,721
208,83	8670,829
209,04	198,316
209,26	662,721
209,48	72,634
209,69	-91,392
209,91	1201,742
210,13	48,700
210,34	176,454
210,56	370,362
210,77	1599,183
210,99	327,642
211,21	-316,272
211,42	157,918
211,64	752,576
211,86	382,369
212,07	224,642
212,29	857,589
212,50	1450,580
212,72	226,507
212,94	14,418
213,15	32,431
213,37	854,725
213,58	218,939
213,80	443,267
214,02	2503,974
214,23	335,260
214,45	229,887
214,67	-1,637
214,88	24,597
215,10	1349,226
215,31	436,168
215,53	140,228
215,75	197,622
215,96	454,151
216,18	166,298
216,39	235,247
216,61	456,913
216,83	1310,624
217,04	338,754
217,26	166,256
217,47	658,479
217,69	381,488
217,91	100,255
218,12	1550,086
218,34	93,497
218,55	161,681
218,77	46,137
218,99	166,014
219,20	173,059
219,42	462,355
219,63	110,558
219,85	234,906
220,06	-402,999
220,28	129,416
220,50	11,276
220,71	123,340
220,93	485,089
221,14	380,854
221,36	64,005
221,58	126,853
221,79	86,590
222,01	195,099
222,22	199,367
222,44	77,885
222,65	349,918
222,87	38,707
223,09	85,134
223,30	106,066
223,52	250,270
223,73	67,110
223,95	56,102
224,16	42,868
224,38	106,271
224,60	70,218
224,81	72,336
225,03	108,830
225,24	76,066
225,46	-3,971
225,67	35,031
225,89	53,278
226,10	122,055
226,32	201,276
226,54	-23,390
226,75	11,649
226,97	136,064
227,18	104,442
227,40	88,601
227,61	40,822
227,83	40,878
228,04	87,283
228,26	75,395
228,47	54,700
228,69	76,023
228,91	46,189
229,12	119,449
229,34	34,877
229,55	60,053
229,77	34,385
229,98	28,717
230,20	27,887
230,41	-9,166
230,63	56,080
230,84	33,614
231,06	70,598
231,27	-3,344
231,49	61,225
231,71	28,118
231,92	4,722
232,14	-7,213
232,35	37,946
232,57	7,887
232,78	17,917
233,00	24,085
233,21	22,647
233,43	26,658
233,64	-1,425
233,86	24,027
234,07	43,021
234,29	3,979
234,50	5,183
234,72	35,111
234,93	11,390
235,15	2,276
235,36	25,410
235,58	40,804
235,79	24,461
236,01	9,353
236,22	22,838
236,44	33,004
236,65	20,663
236,87	18,125
237,08	9,208
237,30	-3,621
237,51	24,055
237,73	10,137
237,94	13,626
238,16	11,484
238,37	13,901
238,59	4,943
238,80	12,756
239,02	11,568
239,23	24,461
239,45	3,851
239,66	23,975
239,88	23,346
240,09	20,832
240,31	13,470
240,52	5,931
240,74	11,609
240,95	12,485
241,17	9,545
241,38	9,729
241,60	3,289
241,81	20,414
242,03	2,687
242,24	12,361
242,46	11,573
242,67	-0,693
242,89	15,390
243,10	13,517
243,32	12,780
243,53	9,290
243,75	6,612
243,96	9,538
244,18	13,480
244,39	12,767
244,60	-1,807
244,82	5,143
245,03	13,151
245,25	9,313
245,46	27,985
245,68	5,544
245,89	28,367
246,11	22,989
246,32	11,127
246,54	13,676
246,75	4,951
246,97	15,177
247,18	19,051
247,39	5,155
247,61	13,764
247,82	14,825
248,04	3,888
248,25	2,381
248,47	8,242
248,68	9,961
248,90	4,121
249,11	9,931
249,33	16,161
249,54	8,711
249,75	9,573
249,97	3,011
250,18	18,394
250,40	11,430
250,61	3,803
250,83	1,584
251,04	5,668
251,25	16,019
251,47	13,423
251,68	4,602
251,90	7,672
252,11	10,085
252,33	6,727
252,54	6,781
252,76	4,683
252,97	-1,311
253,18	9,962
253,40	10,247
253,61	4,834
253,83	5,362
254,04	7,872
254,25	2,172
254,47	2,534
254,68	11,481
254,90	4,644
255,11	4,346
255,33	6,922
255,54	3,537
255,75	7,838
255,97	8,089
256,18	1,800
256,40	9,649
256,61	9,870
256,82	4,470
257,04	10,343
257,25	4,307
257,47	6,804
257,68	10,217
257,89	7,929
258,11	5,654
258,32	11,525
258,54	3,310
258,75	15,446
258,96	10,929
259,18	8,735
259,39	7,139
259,61	11,991
259,82	2,644
260,03	4,130
260,25	7,890
260,46	6,405
260,68	6,570
260,89	5,023
261,10	7,201
261,32	6,492
261,53	-1,718
261,75	9,255
261,96	4,977
262,17	19,472
262,39	8,622
262,60	1,561
262,81	7,643
263,03	13,634
263,24	7,220
263,46	4,182
263,67	6,488
263,88	7,369
264,10	4,664
264,31	4,832
264,52	6,059
264,74	6,402
264,95	5,318
265,17	7,230
265,38	9,704
265,59	12,872
265,81	9,905
266,02	2,421
266,23	2,286
266,45	9,421
266,66	8,346
266,87	7,100
267,09	4,085
267,30	10,819
267,52	13,000
267,73	4,651
267,94	3,997
268,16	6,976
268,37	0,959
268,58	9,340
268,80	1,072
269,01	8,754
269,22	8,271
269,44	8,480
269,65	8,186
269,86	4,049
270,08	4,460
270,29	2,602
270,50	4,629
270,72	7,412
270,93	4,659
271,14	5,816
271,36	3,474
271,57	10,386
271,78	6,990
272,00	4,826
272,21	8,413
272,42	6,134
272,64	10,605
272,85	2,685
273,06	4,248
273,28	6,329
273,49	2,411
273,70	8,348
273,92	7,419
274,13	4,716
274,34	0,345
274,56	9,897
274,77	5,518
274,98	10,887
275,20	11,001
275,41	7,911
275,62	4,169
275,84	7,045
276,05	14,574
276,26	6,044
276,47	4,579
276,69	12,595
276,90	11,897
277,11	5,213
277,33	3,824
277,54	11,212
277,75	7,099
277,97	4,255
278,18	4,490
278,39	10,190
278,61	3,015
278,82	9,867
279,03	8,146
279,24	4,375
279,46	6,620
279,67	10,937
279,88	5,222
280,10	10,395
280,31	5,372
280,52	4,590
280,73	5,608
280,95	10,549
281,16	7,084
281,37	6,348
281,59	5,734
281,80	10,851
282,01	4,849
282,22	2,783
282,44	6,105
282,65	12,476
282,86	7,844
283,08	3,315
283,29	5,042
283,50	0,576
283,71	5,517
283,93	8,891
284,14	4,353
284,35	3,623
284,56	9,570
284,78	2,707
284,99	7,071
285,20	11,070
285,42	5,081
285,63	6,639
285,84	2,003
286,05	6,351
286,27	5,494
286,48	9,461
286,69	9,937
286,90	5,029
287,12	3,013
287,33	6,051
287,54	4,924
287,75	11,736
287,97	4,249
288,18	5,398
288,39	5,399
288,60	6,589
288,82	4,070
289,03	3,583
289,24	8,027
289,45	10,563
289,67	6,285
289,88	5,746
290,09	9,550
290,30	4,522
290,52	3,630
290,73	2,132
290,94	5,172
291,15	4,319
291,37	7,369
291,58	3,577
291,79	7,108
292,00	4,103
292,21	6,247
292,43	7,311
292,64	0,890
292,85	6,157
293,06	8,663
293,28	3,777
293,49	2,869
293,70	11,127
293,91	0,858
294,12	4,809
294,34	5,037
294,55	6,872
294,76	6,963
294,97	7,897
295,19	6,772
295,40	6,297
295,61	6,431
295,82	6,108
296,03	5,844
296,25	6,301
296,46	2,576
296,67	3,570
296,88	5,067
297,09	3,739
297,31	3,119
297,52	7,516
297,73	3,895
297,94	3,938
298,15	7,857
298,37	4,403
298,58	2,619
298,79	5,538
299,00	0,687
299,21	4,898
299,43	1,176
299,64	9,834
299,85	3,822
300,06	3,281
300,27	2,447
300,49	8,076
300,70	8,203
300,91	2,841
301,12	4,523
301,33	8,157
301,54	3,553
301,76	7,441
301,97	4,161
302,18	6,889
302,39	8,791
302,60	5,666
302,82	3,374
303,03	8,689
303,24	4,226
303,45	6,990
303,66	6,266
303,87	1,400
304,09	6,482
304,30	3,799
304,51	3,402
304,72	3,351
304,93	5,554
305,14	4,929
305,36	4,744
305,57	2,169
305,78	7,780
305,99	4,188
306,20	5,744
306,41	2,619
306,62	2,068
306,84	4,438
307,05	6,880
307,26	4,822
307,47	9,637
307,68	6,067
307,89	4,193
308,11	6,518
308,32	5,429
308,53	3,114
308,74	3,207
308,95	3,846
309,16	10,951
309,37	5,874
309,59	3,513
309,80	5,469
310,01	5,991
310,22	5,734
310,43	7,789
310,64	5,887
310,85	5,635
311,06	3,314
311,28	5,421
311,49	7,807
311,70	7,969
311,91	5,582
312,12	3,606
312,33	3,482
312,54	6,430
312,75	9,002
312,97	2,341
313,18	8,077
313,39	2,666
313,60	4,652
313,81	5,561
314,02	6,266
314,23	8,450
314,44	4,656
314,65	2,822
314,87	2,434
315,08	5,393
315,29	2,972
315,50	5,859
315,71	10,567
315,92	7,875
316,13	2,105
316,34	5,099
316,55	6,876
316,77	2,423
316,98	3,605
317,19	3,322
317,40	8,654
317,61	9,085
317,82	6,041
318,03	1,830
318,24	5,629
318,45	7,920
318,66	6,315
318,87	2,753
319,09	5,983
319,30	6,027
319,51	8,045
319,72	7,195
319,93	4,940
320,14	6,666
320,35	8,788
320,56	2,752
320,77	7,681
320,98	9,208
321,19	8,664
321,40	6,030
321,62	5,938
321,83	-0,639
322,04	5,939
322,25	6,321
322,46	10,390
322,67	7,665
322,88	9,326
323,09	4,443
323,30	8,360
323,51	11,942
323,72	5,288
323,93	3,472
324,14	5,315
324,35	0,732
324,56	4,339
324,77	3,890
324,99	6,043
325,20	3,100
325,41	7,660
325,62	3,298
325,83	0,143
326,04	3,907
326,25	5,223
326,46	2,267
326,67	5,495
326,88	5,267
327,09	3,311
327,30	5,388
327,51	3,992
327,72	4,884
327,93	5,566
328,14	4,454
328,35	8,545
328,56	5,760
328,77	5,738
328,98	9,036
329,19	4,440
329,40	6,276
329,61	3,791
329,82	1,813
330,04	7,941
330,25	4,790
330,46	6,228
330,67	5,103
330,88	7,158
331,09	3,846
331,30	6,374
331,51	5,284
331,72	6,685
331,93	7,278
332,14	3,860
332,35	5,320
332,56	4,862
332,77	9,219
332,98	3,984
333,19	7,064
333,40	5,389
333,61	2,430
333,82	4,828
334,03	5,639
334,24	12,188
334,45	5,470
334,66	5,618
334,87	4,786
335,08	4,083
335,29	2,554
335,50	5,328
335,71	1,400
335,92	8,410
336,13	6,082
336,34	3,684
336,55	5,041
336,76	8,508
336,97	5,096
337,18	3,649
337,39	6,496
337,60	7,763
337,81	7,120
338,02	7,086
338,23	6,445
338,44	4,667
338,65	0,498
338,86	4,569
339,07	5,023
339,28	5,381
339,49	4,923
339,70	3,112
339,91	3,420
340,11	8,564
340,32	6,771
340,53	4,325
340,74	2,247
340,95	1,259
341,16	3,992
341,37	5,634
341,58	6,540
341,79	3,224
342,00	2,750
342,21	0,146
342,42	4,553
342,63	6,922
342,84	7,017
343,05	4,055
343,26	10,661
343,47	8,336
343,68	3,265
343,89	3,811
344,10	4,141
344,31	4,656
344,52	5,565
344,73	1,826
344,94	3,473
345,14	4,884
345,35	3,997
345,56	1,843
345,77	1,958
345,98	3,271
346,19	6,743
346,40	7,949
346,61	0,987
346,82	6,519
347,03	7,928
347,24	2,406
347,45	4,248
347,66	8,030
347,87	2,240
348,08	9,649
348,28	3,279
348,49	3,298
348,70	6,026
348,91	6,637
349,12	4,601
349,33	-0,872
349,54	6,798
349,75	5,760
349,96	3,863
350,17	7,934
350,38	2,647
350,59	3,873
350,80	3,065
351,00	3,451
351,21	9,924
351,42	2,530
351,63	5,919
351,84	4,682
352,05	7,121
352,26	2,974
352,47	7,546
352,68	7,595
352,89	4,008
353,09	3,340
353,30	1,360
353,51	2,932
353,72	12,711
353,93	7,180
354,14	3,167
354,35	6,169
354,56	8,434
354,77	3,917
354,98	1,317
355,18	6,577
355,39	10,000
355,60	2,392
355,81	5,373
356,02	5,830
356,23	4,798
356,44	6,276
356,65	4,200
356,85	8,253
357,06	7,075
357,27	2,969
357,48	1,815
357,69	7,252
357,90	5,337
358,11	0,053
358,32	3,556
358,52	6,935
358,73	4,094
358,94	3,111
359,15	3,946
359,36	7,584
359,57	4,643
359,78	10,114
359,98	7,603
360,19	2,152
360,40	2,430
360,61	8,584
360,82	2,833
361,03	12,870
361,24	17,831
361,44	3,078
361,65	4,865
361,86	3,778
362,07	5,993
362,28	12,752
362,49	3,956
362,70	7,152
362,90	5,584
363,11	3,126
363,32	4,041
363,53	4,924
363,74	10,662
363,95	7,855
364,15	3,728
364,36	7,781
364,57	3,740
364,78	3,483
364,99	2,670
365,20	6,638
365,40	6,991
365,61	5,504
365,82	6,445
366,03	8,386
366,24	4,070
366,45	2,349
366,65	1,851
366,86	6,689
367,07	5,709
367,28	1,751
367,49	2,166
367,69	7,444
367,90	4,367
368,11	4,987
368,32	5,265
368,53	7,580
368,73	4,670
368,94	4,979
369,15	9,560
369,36	8,189
369,57	5,104
369,78	5,424
369,98	5,339
370,19	8,624
370,40	1,961
370,61	4,231
370,82	7,363
371,02	9,514
371,23	5,857
371,44	6,253
371,65	3,972
371,85	8,043
372,06	2,255
372,27	5,913
372,48	2,582
372,69	11,750
372,89	5,840
373,10	3,740
373,31	3,690
373,52	5,186
373,73	8,780
373,93	5,763
374,14	7,720
374,35	6,684
374,56	4,530
374,76	5,792
374,97	4,949
375,18	7,045
375,39	7,243
375,60	7,850
375,80	6,200
376,01	3,580
376,22	8,284
376,43	6,000
376,63	6,678
376,84	7,064
377,05	6,723
377,26	2,568
377,46	5,506
377,67	5,199
377,88	0,281
378,09	5,825
378,29	6,880
378,50	4,901
378,71	7,190
378,92	2,577
379,12	2,843
379,33	3,530
379,54	6,230
379,75	9,457
379,95	7,146
380,16	4,521
380,37	8,874
380,58	2,186
380,78	9,292
380,99	0,711
381,20	5,595
381,41	7,509
381,61	4,826
381,82	7,947
382,03	7,602
382,24	7,196
382,44	6,196
382,65	5,543
382,86	10,249
383,06	8,938
383,27	6,582
383,48	5,633
383,69	7,399
383,89	3,921
384,10	2,519
384,31	8,544
384,51	9,926
384,72	8,688
384,93	4,831
385,14	2,735
385,34	4,285
385,55	3,423
385,76	1,728
385,96	10,676
386,17	6,343
386,38	5,703
386,59	10,384
386,79	8,368
387,00	13,453
387,21	10,236
387,41	5,195
387,62	5,733
387,83	11,760
388,03	6,365
388,24	4,985
388,45	8,335
388,66	6,632
388,86	7,921
389,07	6,677
389,28	16,670
389,48	6,282
389,69	6,112
389,90	2,383
390,10	5,924
390,31	11,071
390,52	5,692
390,72	7,437
390,93	8,519
391,14	7,978
391,34	9,722
391,55	9,329
391,76	8,700
391,96	11,417
392,17	7,612
392,38	7,077
392,58	7,883
392,79	5,599
393,00	3,189
393,20	10,692
393,41	9,160
393,62	12,763
393,82	6,282
394,03	8,885
394,24	8,088
394,44	10,248
394,65	12,537
394,86	3,386
395,06	14,482
395,27	9,861
395,48	8,417
395,68	7,019
395,89	7,987
396,10	14,110
396,30	8,375
396,51	8,597
396,72	10,774
396,92	5,379
397,13	12,531
397,34	8,337
397,54	11,781
397,75	9,417
397,95	7,853
398,16	11,351
398,37	12,083
398,57	4,815
398,78	8,119
398,99	12,656
399,19	10,826
399,40	17,053
399,60	12,161
399,81	14,232
400,02	18,579
400,22	15,514
400,43	16,402
400,64	11,282
400,84	10,166
401,05	16,249
401,25	12,135
401,46	12,056
401,67	16,580
401,87	11,577
402,08	9,669
402,29	14,377
402,49	21,452
402,70	15,459
402,90	9,955
403,11	13,572
403,32	11,436
403,52	10,121
403,73	13,332
403,93	18,689
404,14	23,944
404,35	13,232
404,55	12,287
404,76	15,929
404,96	15,874
405,17	21,766
405,38	23,090
405,58	16,515
405,79	20,945
405,99	21,280
406,20	16,297
406,40	17,190
406,61	17,618
406,82	17,456
407,02	17,198
407,23	14,073
407,43	17,987
407,64	14,477
407,85	17,639
408,05	13,472
408,26	26,343
408,46	26,112
408,67	18,414
408,87	20,822
409,08	15,389
409,29	23,797
409,49	23,586
409,70	18,681
409,90	20,060
410,11	20,998
410,31	24,349
410,52	21,118
410,72	19,116
410,93	24,771
411,14	21,354
411,34	16,908
411,55	21,538
411,75	24,115
411,96	23,918
412,16	23,152
412,37	19,997
412,57	22,297
412,78	28,694
412,99	22,088
413,19	25,249
413,40	21,989
413,60	22,575
413,81	23,725
414,01	20,267
414,22	24,143
414,42	22,331
414,63	21,217
414,83	22,420
415,04	28,788
415,24	23,550
415,45	22,231
415,65	26,604
415,86	32,300
416,07	22,784
416,27	25,579
416,48	28,283
416,68	31,907
416,89	22,051
417,09	29,987
417,30	30,859
417,50	22,717
417,71	30,356
417,91	27,948
418,12	27,663
418,32	30,433
418,53	23,968
418,73	28,427
418,94	26,775
419,14	29,625
419,35	25,275
419,55	29,927
419,76	29,480
419,96	29,444
420,17	25,963
420,37	27,572
420,58	32,324
420,78	30,010
420,99	26,804
421,19	33,454
421,40	37,162
421,60	36,648
421,81	26,660
422,01	30,753
422,22	29,946
422,42	34,999
422,63	29,972
422,83	32,459
423,04	37,838
423,24	39,520
423,45	29,624
423,65	32,064
423,86	35,183
424,06	36,024
424,27	28,343
424,47	28,180
424,67	27,257
424,88	32,981
425,08	28,315
425,29	34,530
425,49	25,418
425,70	31,013
425,90	31,186
426,11	31,857
426,31	33,173
426,52	35,508
426,72	29,697
426,93	30,407
427,13	34,672
427,33	30,441
427,54	32,864
427,74	30,311
427,95	41,263
428,15	32,690
428,36	32,634
428,56	29,228
428,77	31,281
428,97	34,348
429,18	30,354
429,38	34,103
429,58	29,681
429,79	35,191
429,99	30,501
430,20	31,876
430,40	34,822
430,61	31,498
430,81	31,103
431,01	36,892
431,22	37,741
431,42	34,523
431,63	29,003
431,83	35,960
432,04	38,140
432,24	35,400
432,44	35,649
432,65	34,357
432,85	34,852
433,06	36,069
433,26	33,648
433,47	35,513
433,67	34,063
433,87	36,772
434,08	35,027
434,28	33,762
434,49	37,527
434,69	43,166
434,89	38,624
435,10	36,271
435,30	41,125
435,51	34,303
435,71	35,066
435,91	36,014
436,12	34,945
436,32	37,457
436,53	34,489
436,73	36,295
436,93	37,040
437,14	34,051
437,34	35,434
437,55	30,132
437,75	37,148
437,95	36,905
438,16	34,130
438,36	36,501
438,57	33,942
438,77	32,555
438,97	36,709
439,18	35,439
439,38	35,619
439,58	28,977
439,79	34,947
439,99	29,306
440,20	41,582
440,40	39,563
440,60	33,017
440,81	34,321
441,01	37,310
441,21	38,384
441,42	37,400
441,62	34,803
441,83	36,654
442,03	34,563
442,23	34,482
442,44	36,790
442,64	36,990
442,84	33,554
443,05	39,609
443,25	34,115
443,45	35,289
443,66	35,873
443,86	33,862
444,06	35,444
444,27	33,604
444,47	40,027
444,67	37,175
444,88	37,758
445,08	35,053
445,28	34,564
445,49	38,105
445,69	33,892
445,90	39,641
446,10	38,268
446,30	33,594
446,51	35,008
446,71	37,968
446,91	35,112
447,12	42,378
447,32	36,049
447,52	36,916
447,72	39,105
447,93	35,369
448,13	32,085
448,33	39,144
448,54	36,655
448,74	32,958
448,94	33,449
449,15	39,038
449,35	33,041
449,55	38,070
449,76	35,249
449,96	35,001
450,16	36,557
450,37	31,411
450,57	35,988
450,77	34,599
450,98	33,195
451,18	38,901
451,38	39,271
451,58	40,533
451,79	32,836
451,99	35,757
452,19	38,340
452,40	42,366
452,60	30,538
452,80	38,837
453,00	36,566
453,21	33,979
453,41	38,174
453,61	34,824
453,82	37,117
454,02	32,014
454,22	48,496
454,42	39,577
454,63	35,003
454,83	33,070
455,03	43,102
455,24	36,900
455,44	37,149
455,64	35,403
455,84	35,071
456,05	33,819
456,25	29,340
456,45	34,159
456,65	36,980
456,86	39,692
457,06	39,197
457,26	39,304
457,47	39,702
457,67	33,750
457,87	29,999
458,07	38,319
458,28	38,018
458,48	42,112
458,68	31,312
458,88	40,516
459,09	32,410
459,29	40,022
459,49	32,121
459,69	37,175
459,90	38,153
460,10	35,701
460,30	39,856
460,50	32,262
460,71	38,385
460,91	30,460
461,11	39,670
461,31	34,710
461,52	39,207
461,72	37,115
461,92	33,309
462,12	43,563
462,32	32,349
462,53	34,432
462,73	33,432
462,93	35,168
463,13	39,120
463,34	35,121
463,54	35,598
463,74	35,646
463,94	32,865
464,14	39,221
464,35	32,530
464,55	40,246
464,75	44,136
464,95	36,843
465,16	30,228
465,36	39,286
465,56	35,713
465,76	34,474
465,96	35,684
466,17	37,297
466,37	35,511
466,57	37,852
466,77	39,934
466,97	34,011
467,18	39,324
467,38	38,604
467,58	44,148
467,78	42,198
467,98	39,541
468,19	35,390
468,39	37,512
468,59	33,779
468,79	35,750
468,99	38,000
469,19	34,049
469,40	35,012
469,60	33,015
469,80	34,504
470,00	37,735
470,20	39,718
470,41	33,381
470,61	40,260
470,81	37,759
471,01	33,155
471,21	38,103
471,41	40,230
471,62	36,410
471,82	33,319
472,02	36,545
472,22	36,001
472,42	33,929
472,62	38,297
472,83	31,712
473,03	36,359
473,23	34,660
473,43	39,242
473,63	37,617
473,83	34,982
474,03	37,132
474,24	36,973
474,44	33,514
474,64	38,309
474,84	32,659
475,04	33,005
475,24	38,815
475,45	37,169
475,65	34,624
475,85	40,117
476,05	29,976
476,25	33,395
476,45	39,947
476,65	37,072
476,85	34,658
477,06	35,403
477,26	31,696
477,46	34,738
477,66	37,443
477,86	38,705
478,06	37,077
478,26	42,266
478,46	33,971
478,67	37,733
478,87	35,362
479,07	37,736
479,27	36,892
479,47	32,930
479,67	28,299
479,87	31,460
480,07	41,868
480,28	35,428
480,48	34,794
480,68	37,487
480,88	41,790
481,08	40,602
481,28	36,477
481,48	34,869
481,68	36,191
481,88	33,170
482,08	35,188
482,29	36,869
482,49	32,968
482,69	35,707
482,89	34,077
483,09	40,594
483,29	33,779
483,49	29,744
483,69	36,370
483,89	36,002
484,09	34,184
484,29	32,783
484,50	35,524
484,70	36,633
484,90	34,742
485,10	39,555
485,30	38,402
485,50	39,348
485,70	37,785
485,90	34,742
486,10	33,313
486,30	33,646
486,50	36,440
486,70	32,645
486,90	35,668
487,10	38,623
487,30	37,169
487,51	35,458
487,71	34,526
487,91	37,692
488,11	40,767
488,31	34,977
488,51	38,005
488,71	35,287
488,91	35,825
489,11	34,645
489,31	34,067
489,51	36,744
489,71	36,176
489,91	36,426
490,11	36,515
490,31	38,201
490,51	37,606
490,71	38,336
490,91	34,582
491,11	38,467
491,31	38,582
491,51	36,189
491,72	35,053
491,92	35,942
492,12	40,315
492,32	37,233
492,52	39,647
492,72	34,411
492,92	35,353
493,12	37,898
493,32	34,561
493,52	35,733
493,72	35,809
493,92	35,490
494,12	35,033
494,32	36,947
494,52	35,594
494,72	34,239
494,92	33,085
495,12	39,115
495,32	40,063
495,52	37,376
495,72	35,731
495,92	35,300
496,12	40,567
496,32	38,552
496,52	36,343
496,72	35,899
496,92	38,120
497,12	37,612
497,32	37,098
497,52	35,906
497,72	37,107
497,92	36,799
498,12	35,425
498,32	36,762
498,52	33,592
498,72	35,359
498,92	35,348
499,12	35,568
499,32	33,507
499,52	38,280
499,72	35,791
499,92	37,072
500,12	34,784
500,32	36,776
500,52	36,538
500,72	39,629
500,91	40,462
501,11	38,020
501,31	34,858
501,51	36,488
501,71	37,620
501,91	35,862
502,11	33,574
502,31	35,394
502,51	38,237
502,71	36,381
502,91	31,516
503,11	36,462
503,31	39,330
503,51	31,431
503,71	34,304
503,91	36,442
504,11	34,597
504,31	34,062
504,51	34,347
504,71	41,626
504,91	33,099
505,10	39,779
505,30	35,243
505,50	36,168
505,70	34,478
505,90	36,038
506,10	33,266
506,30	36,505
506,50	35,463
506,70	38,475
506,90	35,708
507,10	33,183
507,30	34,091
507,50	35,866
507,70	36,970
507,89	37,087
508,09	35,327
508,29	33,545
508,49	32,728
508,69	36,169
508,89	35,349
509,09	36,492
509,29	34,162
509,49	37,113
509,69	37,483
509,89	38,120
510,09	35,833
510,28	37,994
510,48	36,374
510,68	34,930
510,88	33,891
511,08	35,407
511,28	34,854
511,48	36,291
511,68	31,980
511,88	40,014
512,07	35,063
512,27	32,714
512,47	34,910
512,67	33,203
512,87	32,015
513,07	35,724
513,27	32,005
513,47	34,516
513,67	32,506
513,86	36,723
514,06	36,243
514,26	35,400
514,46	35,744
514,66	32,752
514,86	37,640
515,06	39,149
515,26	37,592
515,45	34,644
515,65	32,936
515,85	37,008
516,05	35,979
516,25	33,409
516,45	37,547
516,65	31,861
516,84	34,544
517,04	37,612
517,24	36,557
517,44	37,383
517,64	37,701
517,84	36,506
518,04	35,396
518,23	36,763
518,43	40,118
518,63	33,875
518,83	32,098
519,03	34,174
519,23	34,855
519,42	38,243
519,62	34,535
519,82	32,777
520,02	34,405
520,22	38,298
520,42	35,198
520,61	36,776
520,81	35,156
521,01	37,220
521,21	33,441
521,41	35,608
521,61	39,941
521,80	33,694
522,00	35,346
522,20	40,049
522,40	35,920
522,60	36,617
522,79	33,469
522,99	39,094
523,19	32,234
523,39	34,146
523,59	35,330
523,78	35,923
523,98	34,490
524,18	38,433
524,38	34,009
524,58	35,296
524,77	36,650
524,97	36,611
525,17	34,675
525,37	34,457
525,57	41,110
525,76	35,300
525,96	39,117
526,16	35,011
526,36	33,821
526,56	33,722
526,75	35,059
526,95	37,909
527,15	35,008
527,35	35,339
527,55	32,155
527,74	33,933
527,94	33,891
528,14	31,116
528,34	34,303
528,53	32,602
528,73	38,779
528,93	38,023
529,13	33,138
529,32	35,316
529,52	37,249
529,72	35,950
529,92	35,648
530,12	34,852
530,31	34,961
530,51	37,696
530,71	35,009
530,91	39,431
531,10	31,037
531,30	35,028
531,50	35,730
531,70	34,985
531,89	39,047
532,09	35,506
532,29	35,528
532,49	34,733
532,68	35,408
532,88	32,959
533,08	34,673
533,28	35,423
533,47	38,357
533,67	38,599
533,87	35,178
534,06	40,560
534,26	33,816
534,46	34,612
534,66	36,056
534,85	37,968
535,05	31,541
535,25	33,046
535,45	34,731
535,64	41,247
535,84	37,149
536,04	32,128
536,23	37,037
536,43	38,217
536,63	36,081
536,83	34,754
537,02	36,808
537,22	33,516
537,42	37,979
537,61	39,789
537,81	36,850
538,01	38,389
538,20	38,290
538,40	34,238
538,60	37,944
538,80	37,093
538,99	38,448
539,19	38,287
539,39	38,470
539,58	40,913
539,78	38,746
539,98	39,829
540,17	37,884
540,37	43,619
540,57	39,873
540,76	42,795
540,96	37,849
541,16	42,074
541,36	41,389
541,55	40,572
541,75	39,341
541,95	43,058
542,14	41,810
542,34	40,062
542,54	39,185
542,73	45,542
542,93	42,454
543,13	43,984
543,32	42,804
543,52	46,330
543,72	41,738
543,91	43,077
544,11	41,390
544,31	38,621
544,50	41,539
544,70	43,140
544,89	41,840
545,09	43,273
545,29	40,283
545,48	42,104
545,68	39,247
545,88	41,847
546,07	38,111
546,27	38,483
546,47	41,045
546,66	38,648
546,86	36,819
547,06	40,175
547,25	37,256
547,45	38,450
547,64	37,909
547,84	41,588
548,04	37,426
548,23	40,969
548,43	37,516
548,63	39,142
548,82	37,845
549,02	38,090
549,21	36,633
549,41	35,992
549,61	38,600
549,80	35,945
550,00	35,928
550,20	35,779
550,39	38,637
550,59	38,179
550,78	37,869
550,98	35,885
551,18	37,529
551,37	37,553
551,57	34,726
551,76	36,581
551,96	35,731
552,16	35,540
552,35	36,364
552,55	35,159
552,74	34,508
552,94	38,658
553,14	30,965
553,33	37,851
553,53	34,418
553,72	35,694
553,92	38,707
554,12	32,843
554,31	35,951
554,51	34,900
554,70	32,740
554,90	35,986
555,09	39,605
555,29	33,517
555,49	37,317
555,68	37,973
555,88	33,109
556,07	34,027
556,27	38,899
556,46	34,529
556,66	34,497
556,86	41,695
557,05	35,673
557,25	34,032
557,44	34,480
557,64	33,265
557,83	36,050
558,03	36,705
558,22	33,054
558,42	35,295
558,62	35,762
558,81	36,431
559,01	36,689
559,20	37,494
559,40	33,656
559,59	34,510
559,79	33,909
559,98	35,264
560,18	35,103
560,37	35,183
560,57	35,479
560,76	33,226
560,96	32,016
561,16	35,092
561,35	32,512
561,55	36,933
561,74	35,783
561,94	35,674
562,13	35,398
562,33	37,342
562,52	35,544
562,72	33,005
562,91	34,203
563,11	34,943
563,30	35,328
563,50	35,409
563,69	33,714
563,89	33,396
564,08	34,752
564,28	34,038
564,47	34,890
564,67	35,212
564,86	34,943
565,06	33,712
565,25	32,524
565,45	33,715
565,64	38,437
565,84	35,248
566,03	30,539
566,23	35,057
566,42	34,340
566,62	35,679
566,81	33,684
567,01	32,655
567,20	35,272
567,40	34,796
567,59	32,721
567,79	37,347
567,98	38,091
568,18	32,312
568,37	35,037
568,57	34,656
568,76	34,819
568,96	34,678
569,15	31,482
569,35	34,365
569,54	36,835
569,73	35,259
569,93	33,401
570,12	34,428
570,32	35,798
570,51	35,162
570,71	35,666
570,90	36,158
571,10	34,310
571,29	33,896
571,49	32,903
571,68	36,241
571,87	37,580
572,07	36,233
572,26	32,053
572,46	34,903
572,65	35,554
572,85	33,780
573,04	36,495
573,24	33,093
573,43	37,694
573,62	36,975
573,82	35,004
574,01	34,851
574,21	32,931
574,40	34,542
574,60	32,242
574,79	37,887
574,98	36,757
575,18	33,717
575,37	33,308
575,57	35,039
575,76	36,008
575,96	35,812
576,15	35,850
576,34	33,688
576,54	34,910
576,73	35,541
576,93	35,938
577,12	36,333
577,31	35,417
577,51	34,748
577,70	35,012
577,90	34,649
578,09	36,059
578,28	35,005
578,48	34,453
578,67	35,180
578,87	36,623
579,06	34,368
579,25	36,629
579,45	37,334
579,64	35,404
579,84	34,435
580,03	35,763
580,22	37,209
580,42	34,975
580,61	36,771
580,81	35,451
581,00	35,022
581,19	37,152
581,39	34,984
581,58	34,326
581,77	35,343
581,97	37,672
582,16	36,148
582,35	35,794
582,55	35,348
582,74	38,184
582,94	35,939
583,13	35,985
583,32	35,519
583,52	37,918
583,71	35,952
583,90	36,194
584,10	37,039
584,29	37,015
584,48	33,807
584,68	35,170
584,87	37,389
585,06	34,833
585,26	33,836
585,45	35,294
585,65	38,933
585,84	35,555
586,03	35,287
586,23	33,823
586,42	36,918
586,61	39,517
586,81	36,144
587,00	35,927
587,19	36,552
587,39	36,855
587,58	33,985
587,77	35,795
587,97	34,004
588,16	36,416
588,35	33,944
588,54	35,624
588,74	36,076
588,93	36,790
589,12	35,160
589,32	34,878
589,51	34,305
589,70	33,378
589,90	33,247
590,09	33,793
590,28	37,833
590,48	33,208
590,67	35,595
590,86	34,690
591,06	34,281
591,25	36,972
591,44	36,061
591,63	35,085
591,83	35,198
592,02	35,818
592,21	35,401
592,41	35,260
592,60	36,943
592,79	35,684
592,98	36,698
593,18	33,658
593,37	34,626
593,56	36,339
593,76	36,082
593,95	34,660
594,14	33,950
594,33	37,525
594,53	36,322
594,72	34,853
594,91	36,069
595,10	34,733
595,30	33,735
595,49	34,110
595,68	35,104
595,88	37,212
596,07	35,003
596,26	36,012
596,45	34,081
596,65	32,682
596,84	33,563
597,03	36,533
597,22	34,917
597,42	36,017
597,61	32,879
597,80	36,003
597,99	33,850
598,19	35,906
598,38	34,910
598,57	34,181
598,76	36,370
598,95	35,273
599,15	35,214
599,34	34,369
599,53	32,517
599,72	34,036
599,92	36,617
600,11	34,833
600,30	36,671
600,49	37,783
600,69	34,184
600,88	35,016
601,07	35,306
601,26	33,584
601,45	32,968
601,65	33,598
601,84	35,498
602,03	33,262
602,22	35,551
602,42	36,112
602,61	34,304
602,80	36,001
602,99	33,557
603,18	33,974
603,38	37,919
603,57	33,999
603,76	32,557
603,95	33,380
604,14	35,253
604,34	33,890
604,53	33,825
604,72	35,527
604,91	35,398
605,10	35,250
605,29	36,590
605,49	32,316
605,68	35,019
605,87	38,037
606,06	34,227
606,25	34,053
606,45	35,579
606,64	33,036
606,83	36,143
607,02	33,223
607,21	36,688
607,40	35,602
607,60	34,811
607,79	34,823
607,98	34,992
608,17	35,181
608,36	35,514
608,55	37,250
608,75	38,302
608,94	38,576
609,13	34,514
609,32	34,867
609,51	37,337
609,70	37,998
609,89	36,053
610,09	35,841
610,28	36,817
610,47	37,466
610,66	38,544
610,85	34,238
611,04	38,672
611,23	35,024
611,43	35,590
611,62	37,050
611,81	36,327
612,00	37,168
612,19	35,150
612,38	36,472
612,57	36,757
612,77	36,474
612,96	36,514
613,15	35,446
613,34	36,255
613,53	34,970
613,72	35,967
613,91	33,325
614,10	35,466
614,29	35,866
614,49	33,528
614,68	33,361
614,87	34,915
615,06	37,875
615,25	34,898
615,44	35,431
615,63	34,648
615,82	32,606
616,01	35,092
616,21	33,227
616,40	35,100
616,59	36,260
616,78	33,787
616,97	33,801
617,16	34,268
617,35	35,172
617,54	33,618
617,73	35,786
617,92	34,353
618,11	35,156
618,31	32,822
618,50	35,731
618,69	32,922
618,88	36,030
619,07	30,580
619,26	32,666
619,45	33,685
619,64	32,315
619,83	33,105
620,02	33,490
620,21	36,228
620,40	32,921
620,59	35,594
620,78	32,263
620,97	34,539
621,17	36,303
621,36	33,843
621,55	32,092
621,74	34,033
621,93	36,868
622,12	34,759
622,31	32,502
622,50	34,271
622,69	34,538
622,88	34,475
623,07	36,353
623,26	34,166
623,45	35,920
623,64	33,688
623,83	34,350
624,02	33,915
624,21	33,842
624,40	33,335
624,59	31,458
624,78	33,574
624,97	35,654
625,16	32,188
625,35	31,262
625,54	31,652
625,73	32,238
625,92	34,606
626,12	34,229
626,31	35,658
626,50	33,526
626,69	32,201
626,88	34,710
627,07	33,376
627,26	33,638
627,45	34,789
627,64	32,361
627,83	34,023
628,02	31,598
628,21	33,791
628,40	34,234
628,59	35,636
628,78	31,902
628,97	33,446
629,16	32,395
629,35	34,168
629,54	33,635
629,73	33,949
629,92	32,509
630,10	34,892
630,29	34,638
630,48	33,182
630,67	32,347
630,86	34,232
631,05	32,729
631,24	33,692
631,43	33,093
631,62	33,426
631,81	32,469
632,00	34,396
632,19	31,813
632,38	32,786
632,57	33,310
632,76	29,134
632,95	33,398
633,14	33,623
633,33	34,160
633,52	32,827
633,71	32,985
633,90	29,872
634,09	32,481
634,28	32,596
634,47	31,235
634,66	34,236
634,85	32,995
635,04	34,519
635,22	32,368
635,41	32,457
635,60	34,205
635,79	33,976
635,98	31,312
636,17	31,475
636,36	30,900
636,55	30,340
636,74	31,610
636,93	32,616
637,12	32,250
637,31	32,176
637,50	31,913
637,69	32,530
637,87	32,965
638,06	31,339
638,25	31,847
638,44	32,019
638,63	31,191
638,82	30,555
639,01	31,739
639,20	32,274
639,39	33,807
639,58	31,792
639,77	32,513
639,95	31,211
640,14	33,699
640,33	31,567
640,52	32,528
640,71	34,687
640,90	31,554
641,09	33,970
641,28	32,379
641,47	34,995
641,66	33,000
641,84	32,910
642,03	30,250
642,22	32,087
642,41	34,438
642,60	31,471
642,79	32,681
642,98	32,326
643,17	33,377
643,35	30,732
643,54	32,939
643,73	32,092
643,92	32,362
644,11	32,669
644,30	32,481
644,49	33,668
644,67	30,902
644,86	32,378
645,05	31,695
645,24	30,612
645,43	31,202
645,62	31,761
645,81	31,154
645,99	31,589
646,18	34,356
646,37	32,085
646,56	31,582
646,75	33,587
646,94	34,976
647,13	30,174
647,31	32,318
647,50	32,316
647,69	34,585
647,88	31,809
648,07	35,260
648,26	37,147
648,44	32,019
648,63	33,965
648,82	31,747
649,01	32,927
649,20	30,840
649,38	33,900
649,57	33,372
649,76	31,473
649,95	33,103
650,14	31,469
650,33	32,764
650,51	31,868
650,70	33,579
650,89	32,832
651,08	31,994
651,27	33,382
651,45	31,775
651,64	32,215
651,83	31,051
652,02	31,701
652,21	31,485
652,39	33,193
652,58	34,254
652,77	34,541
652,96	32,146
653,15	33,924
653,33	33,326
653,52	32,787
653,71	33,332
653,90	34,887
654,09	31,932
654,27	32,591
654,46	34,248
654,65	33,699
654,84	32,703
655,02	34,591
655,21	32,153
655,40	34,281
655,59	33,271
655,77	33,129
655,96	34,301
656,15	34,833
656,34	34,727
656,53	33,957
656,71	35,223
656,90	35,395
657,09	34,153
657,28	33,863
657,46	34,110
657,65	32,594
657,84	32,855
658,03	32,912
658,21	33,486
658,40	31,212
658,59	31,092
658,78	33,068
658,96	31,519
659,15	32,838
659,34	31,443
659,52	32,587
659,71	33,535
659,90	31,481
660,09	31,948
660,27	33,244
660,46	34,325
660,65	33,943
660,84	31,736
661,02	32,953
661,21	32,701
661,40	34,246
661,58	33,112
661,77	33,146
661,96	30,259
662,15	32,136
662,33	32,502
662,52	31,719
662,71	31,752
662,89	31,365
663,08	31,216
663,27	32,832
663,45	30,782
663,64	33,278
663,83	31,924
664,02	31,048
664,20	33,523
664,39	32,701
664,58	31,819
664,76	32,112
664,95	32,266
665,14	33,756
665,32	31,627
665,51	33,304
665,70	33,791
665,88	33,022
666,07	31,560
666,26	34,202
666,44	33,188
666,63	29,710
666,82	30,644
667,00	31,057
667,19	30,204
667,38	32,908
667,56	32,972
667,75	32,218
667,94	32,238
668,12	31,926
668,31	33,480
668,50	33,617
668,68	33,563
668,87	31,194
669,06	32,568
669,24	34,131
669,43	32,025
669,62	32,873
669,80	30,144
669,99	31,493
670,18	32,654
670,36	30,684
670,55	32,485
670,74	30,924
670,92	30,591
671,11	35,208
671,29	29,248
671,48	32,552
671,67	31,812
671,85	31,375
672,04	32,228
672,23	31,202
672,41	31,711
672,60	31,647
672,78	31,544
672,97	31,827
673,16	32,966
673,34	33,483
673,53	31,111
673,71	32,475
673,90	33,283
674,09	31,920
674,27	32,395
674,46	31,915
674,64	30,761
674,83	32,057
675,02	30,547
675,20	30,701
675,39	31,175
675,57	32,155
675,76	31,244
675,95	34,353
676,13	31,644
676,32	31,278
676,50	32,201
676,69	30,465
676,88	32,355
677,06	29,999
677,25	32,581
677,43	34,111
677,62	33,382
677,80	32,618
677,99	31,886
678,18	33,591
678,36	34,921
678,55	31,651
678,73	30,087
678,92	32,743
679,10	32,660
679,29	32,152
679,48	30,140
679,66	32,516
679,85	32,023
680,03	32,686
680,22	31,132
680,40	30,401
680,59	32,360
680,77	31,811
680,96	32,197
681,15	30,495
681,33	32,811
681,52	32,210
681,70	31,272
681,89	32,733
682,07	30,674
682,26	30,713
682,44	32,829
682,63	30,626
682,81	32,229
683,00	31,838
683,18	30,234
683,37	32,665
683,55	31,496
683,74	33,557
683,92	38,431
684,11	32,467
684,29	31,981
684,48	30,413
684,67	31,649
684,85	30,050
685,04	33,417
685,22	31,552
685,41	31,728
685,59	31,556
685,78	29,836
685,96	32,207
686,15	31,896
686,33	31,558
686,52	30,947
686,70	30,585
686,89	31,647
687,07	31,474
687,26	31,417
687,44	30,477
687,62	31,667
687,81	32,796
687,99	31,729
688,18	32,189
688,36	32,938
688,55	33,992
688,73	30,397
688,92	30,886
689,10	30,804
689,29	33,900
689,47	33,376
689,66	30,139
689,84	30,567
690,03	35,348
690,21	30,378
690,40	29,730
690,58	30,969
690,76	29,844
690,95	32,020
691,13	29,460
691,32	31,718
691,50	30,551
691,69	34,067
691,87	31,484
692,06	32,275
692,24	31,101
692,43	31,487
692,61	32,089
692,79	30,711
692,98	30,239
693,16	32,452
693,35	29,204
693,53	32,892
693,72	30,777
693,90	34,476
694,08	29,988
694,27	32,031
694,45	32,957
694,64	34,713
694,82	30,313
695,01	31,212
695,19	29,680
695,37	31,335
695,56	31,527
695,74	32,006
695,93	31,855
696,11	30,356
696,29	32,176
696,48	32,579
696,66	32,198
696,85	29,982
697,03	30,035
697,21	31,577
697,40	33,026
697,58	32,693
697,77	32,752
697,95	30,284
698,13	30,996
698,32	30,675
698,50	30,184
698,69	30,168
698,87	31,900
699,05	33,193
699,24	30,196
699,42	31,623
699,60	29,227
699,79	29,519
699,97	28,837
700,16	30,265
700,34	34,528
700,52	31,116
700,71	30,562
700,89	29,590
701,07	28,370
701,26	30,974
701,44	29,343
701,63	29,675
701,81	31,555
701,99	31,868
702,18	31,243
702,36	31,327
702,54	31,952
702,73	31,207
702,91	30,403
703,09	30,099
703,28	29,370
703,46	31,314
703,64	33,085
703,83	32,557
704,01	31,352
704,19	29,842
704,38	28,932
704,56	31,215
704,74	31,922
704,93	30,054
705,11	30,842
705,29	31,054
705,48	33,258
705,66	30,243
705,84	30,777
706,03	29,477
706,21	29,906
706,39	30,268
706,58	30,528
706,76	31,550
706,94	32,392
707,12	31,217
707,31	30,018
707,49	31,423
707,67	31,071
707,86	33,982
708,04	31,963
708,22	30,524
708,41	32,914
708,59	29,736
708,77	32,297
708,95	31,535
709,14	33,930
709,32	32,261
709,50	30,952
709,69	31,060
709,87	32,087
710,05	29,667
710,23	29,601
710,42	30,118
710,60	30,840
710,78	33,986
710,97	29,912
711,15	30,503
711,33	31,749
711,51	31,568
711,70	29,841
711,88	31,283
712,06	32,963
712,24	32,156
712,43	31,197
712,61	30,387
712,79	30,983
712,97	29,380
713,16	31,614
713,34	28,926
713,52	33,227
713,70	31,147
713,89	30,786
714,07	30,514
714,25	31,272
714,43	31,482
714,62	29,244
714,80	29,162
714,98	28,405
715,16	32,298
715,35	29,614
715,53	30,630
715,71	33,424
715,89	33,335
716,07	32,798
716,26	29,958
716,44	32,763
716,62	31,354
716,80	31,905
716,99	30,908
717,17	34,184
717,35	31,209
717,53	30,016
717,71	29,903
717,90	32,301
718,08	32,765
718,26	31,794
718,44	32,770
718,62	32,716
718,81	31,611
718,99	28,882
719,17	30,325
719,35	30,215
719,53	30,572
719,72	28,648
719,90	30,637
720,08	29,765
720,26	33,691
720,44	29,811
720,62	29,817
720,81	34,214
720,99	32,754
721,17	30,488
721,35	32,265
721,53	28,105
721,72	33,260
721,90	29,981
722,08	31,236
722,26	30,443
722,44	32,436
722,62	28,662
722,81	28,731
722,99	31,108
723,17	29,814
723,35	30,959
723,53	31,194
723,71	31,705
723,89	35,894
724,08	32,804
724,26	29,967
724,44	31,015
724,62	32,207
724,80	28,330
724,98	30,307
725,16	33,868
725,35	30,963
725,53	31,830
725,71	30,856
725,89	30,118
726,07	35,169
726,25	32,834
726,43	29,903
726,61	31,574
726,80	32,793
726,98	30,972
727,16	28,872
727,34	30,737
727,52	29,637
727,70	29,669
727,88	32,276
728,06	28,289
728,25	28,138
728,43	28,686
728,61	30,458
728,79	30,634
728,97	33,072
729,15	30,612
729,33	32,555
729,51	32,219
729,69	31,176
729,87	30,404
730,06	33,034
730,24	33,206
730,42	33,454
730,60	29,867
730,78	30,725
730,96	31,245
731,14	30,525
731,32	30,644
731,50	29,215
731,68	29,191
731,86	32,952
732,04	31,124
732,22	31,338
732,41	38,338
732,59	30,004
732,77	31,213
732,95	31,232
733,13	33,451
733,31	31,753
733,49	29,663
733,67	31,439
733,85	32,342
734,03	30,772
734,21	31,181
734,39	32,861
734,57	31,804
734,75	32,347
734,93	29,617
735,11	31,636
735,29	27,117
735,47	31,071
735,65	29,287
735,84	30,601
736,02	31,343
736,20	34,985
736,38	29,284
736,56	31,991
736,74	31,049
736,92	31,260
737,10	29,481
737,28	32,492
737,46	31,181
737,64	30,965
737,82	30,249
738,00	32,040
738,18	31,944
738,36	31,586
738,54	30,091
738,72	31,764
738,90	31,671
739,08	31,258
739,26	29,583
739,44	29,281
739,62	33,109
739,80	33,046
739,98	31,616
740,16	30,632
740,34	31,143
740,52	33,830
740,70	29,775
740,88	30,046
741,06	31,363
741,24	30,131
741,42	29,778
741,60	30,345
741,78	31,806
741,96	32,933
742,14	32,119
742,32	31,728
742,50	29,261
742,68	33,306
742,86	31,807
743,04	29,574
743,21	32,589
743,39	30,954
743,57	30,801
743,75	32,463
743,93	28,965
744,11	28,239
744,29	31,192
744,47	29,362
744,65	31,683
744,83	29,369
745,01	28,969
745,19	30,213
745,37	36,177
745,55	32,465
745,73	32,682
745,91	30,087
746,09	29,525
746,27	30,361
746,45	30,323
746,62	31,568
746,80	29,399
746,98	29,410
747,16	29,257
747,34	28,966
747,52	31,159
747,70	33,051
747,88	32,423
748,06	31,676
748,24	31,170
748,42	32,630
748,60	30,688
748,78	28,192
748,95	33,943
749,13	34,201
749,31	28,607
749,49	29,949
749,67	32,344
749,85	31,915
750,03	30,778
750,21	31,457
750,39	31,359
750,57	29,824
750,74	31,928
750,92	30,637
751,10	31,716
751,28	29,658
751,46	32,241
751,64	30,663
751,82	31,096
752,00	32,059
752,17	32,629
752,35	31,948
752,53	32,326
752,71	31,220
752,89	30,990
753,07	29,019
753,25	30,167
753,43	28,935
753,60	31,934
753,78	31,920
753,96	31,432
754,14	32,575
754,32	33,195
754,50	31,247
754,68	32,637
754,85	29,152
755,03	31,361
755,21	33,362
755,39	35,515
755,57	30,859
755,75	32,834
755,92	31,898
756,10	31,902
756,28	30,851
756,46	30,009
756,64	30,860
756,82	31,323
756,99	29,260
757,17	29,665
757,35	29,474
757,53	33,907
757,71	33,346
757,89	29,296
758,06	31,658
758,24	31,554
758,42	32,912
758,60	28,896
758,78	30,388
758,95	32,226
759,13	32,884
759,31	31,685
759,49	29,945
759,67	31,161
759,84	29,571
760,02	32,151
760,20	29,262
760,38	31,864
760,56	29,452
760,73	30,122
760,91	29,824
761,09	34,130
761,27	30,265
761,45	31,206
761,62	28,468
761,80	29,915
761,98	30,002
762,16	32,706
762,33	28,860
762,51	32,495
762,69	28,739
762,87	31,372
763,05	32,284
763,22	31,458
763,40	30,606
763,58	31,169
763,76	30,445
763,93	31,611
764,11	33,812
764,29	32,053
764,47	33,251
764,64	33,424
764,82	33,570
765,00	30,948
765,18	28,166
765,35	29,918
765,53	29,324
765,71	31,737
765,89	31,031
766,06	30,779
766,24	31,457
766,42	31,506
766,60	29,170
766,77	29,621
766,95	31,934
767,13	32,282
767,30	29,729
767,48	29,504
767,66	30,128
767,84	28,909
768,01	31,682
768,19	31,552
768,37	29,885
768,54	30,480
768,72	33,151
768,90	31,164
769,08	32,020
769,25	30,214
769,43	30,448
769,61	29,470
769,78	32,795
769,96	30,297
770,14	31,611
770,31	33,082
770,49	35,899
770,67	31,303
770,85	29,805
771,02	31,062
771,20	29,991
771,38	30,763
771,55	32,273
771,73	27,928
771,91	31,553
772,08	30,834
772,26	31,388
772,44	32,339
772,61	32,123
772,79	29,051
772,97	29,677
773,14	29,607
773,32	33,173
773,50	30,800
773,67	32,705
773,85	33,326
774,03	34,889
774,20	32,216
774,38	31,077
774,56	31,121
774,73	27,386
774,91	27,676
775,09	30,298
775,26	31,156
775,44	30,856
775,61	30,727
775,79	29,733
775,97	31,852
776,14	30,497
776,32	32,299
776,50	31,616
776,67	30,578
776,85	32,826
777,03	29,512
777,20	31,721
777,38	33,384
777,55	31,757
777,73	31,308
777,91	27,838
778,08	29,562
778,26	29,769
778,43	31,268
778,61	30,134
778,79	28,421
778,96	32,712
779,14	30,991
779,32	29,870
779,49	29,209
779,67	35,533
779,84	31,819
780,02	32,248
780,20	30,347
780,37	32,821
780,55	25,781
780,72	29,274
780,90	30,993
781,07	31,330
781,25	34,346
781,43	31,418
781,60	31,037
781,78	32,465
781,95	32,545
782,13	29,612
782,30	33,165
782,48	33,556
782,66	30,159
782,83	30,837
783,01	38,471
783,18	32,142
783,36	33,382
783,53	31,491
783,71	29,347
783,89	30,221
784,06	32,170
784,24	30,135
784,41	31,430
784,59	28,411
784,76	35,187
784,94	29,671
785,11	31,997
785,29	30,820
785,46	31,585
785,64	30,096
785,82	33,139
785,99	34,770
786,17	34,384
786,34	30,198
786,52	35,466
786,69	34,112
786,87	31,829
787,04	29,835
787,22	30,191
787,39	30,908
787,57	33,452
787,74	30,887
787,92	34,407
788,09	33,738
788,27	31,123
788,44	31,116
788,62	33,140
788,79	29,735
788,97	31,991
789,14	31,597
789,32	29,679
789,49	31,357
789,67	33,733
789,84	31,185
790,02	33,769
790,19	27,560
790,37	32,903
790,54	31,125
790,72	36,607
790,89	32,436
791,07	33,820
791,24	27,701
791,42	33,907
791,59	34,987
791,77	28,926
791,94	33,276
792,12	30,929
792,29	33,812
792,47	33,585
792,64	33,287
792,81	34,712
792,99	29,114
793,16	30,031
793,34	30,730
793,51	30,153
793,69	32,538
793,86	30,017
794,04	33,424
794,21	36,122
794,39	30,428
794,56	30,379
794,73	34,749
794,91	36,181
795,08	31,401
795,26	30,997
795,43	29,291
795,61	35,631
795,78	30,296
795,95	34,760
796,13	35,771
796,30	34,528
796,48	28,527
796,65	28,785
796,83	34,686
797,00	34,363
797,17	31,577
797,35	31,497
797,52	32,679
797,70	34,606
797,87	33,977
798,04	34,819
798,22	28,347
798,39	32,116
798,57	31,441
798,74	34,109
798,91	31,124
799,09	31,854
799,26	33,017
799,44	33,670
799,61	27,293
799,78	29,629
799,96	37,609
800,13	30,012
800,31	34,816
800,48	34,682
800,65	37,796
800,83	35,915
801,00	31,217
801,17	32,685
801,35	38,630
801,52	37,910
801,70	34,750
801,87	34,119
802,04	33,682
802,22	27,189
802,39	31,829
802,56	35,694
802,74	36,484
802,91	31,130
803,08	30,383
803,26	32,136
803,43	38,314
803,61	29,955
803,78	31,971
803,95	34,474
804,13	32,097
804,30	30,603
804,47	31,980
804,65	34,573
804,82	35,710
804,99	34,062
805,17	31,688
805,34	43,277
805,51	35,884
805,69	31,084
805,86	33,352
806,03	40,768
806,21	36,338
806,38	37,254
806,55	28,482
806,72	34,862
806,90	38,021
807,07	34,170
807,24	30,966
807,42	30,650
807,59	33,530
807,76	27,681
807,94	33,202
808,11	40,534
808,28	37,909
808,45	35,618
808,63	32,258
808,80	38,768
808,97	32,169
809,15	33,604
809,32	35,345
809,49	36,789
809,67	36,860
809,84	35,487
810,01	37,865
810,18	44,200
810,36	39,040
810,53	30,508
810,70	36,935
810,87	35,218
811,05	36,775
811,22	36,054
811,39	31,429
811,57	36,297
811,74	34,402
811,91	38,047
812,08	31,073
812,26	33,137
812,43	31,587
812,60	38,815
812,77	35,141
812,95	37,250
813,12	33,870
813,29	30,071
813,46	34,469
813,64	37,045
813,81	37,198
813,98	33,555
814,15	38,780
814,32	38,428
814,50	36,895
814,67	33,861
814,84	40,178
815,01	34,878
815,19	28,552
815,36	33,124
815,53	32,594
815,70	34,462
815,87	42,251
816,05	32,487
816,22	36,832
816,39	40,471
816,56	40,296
816,74	37,336
816,91	37,870
817,08	38,704
817,25	39,978
817,42	34,898
817,60	36,443
817,77	42,089
817,94	31,482
818,11	33,256
818,28	31,845
818,45	38,942
818,63	35,145
818,80	35,444
818,97	35,466
819,14	35,653
819,31	42,443
819,49	36,427
819,66	29,943
819,83	39,805
820,00	41,295
820,17	35,926
820,34	34,156
820,52	37,772
820,69	40,848
820,86	36,695
821,03	36,135
821,20	39,022
821,37	40,689
821,55	38,054
821,72	30,633
821,89	36,714
822,06	37,241
822,23	32,179
822,40	33,686
822,57	40,571
822,75	40,153
822,92	27,676
823,09	37,751
823,26	40,550
823,43	38,120
823,60	33,072
823,77	29,971
823,94	42,826
824,12	44,949
824,29	31,048
824,46	39,490
824,63	50,081
824,80	40,813
824,97	38,043
825,14	36,360
825,31	37,316
825,49	36,294
825,66	23,233
825,83	37,575
826,00	38,702
826,17	46,711
826,34	39,348
826,51	31,530
826,68	34,380
826,85	33,263
827,02	32,029
827,20	35,022
827,37	32,857
827,54	38,122
827,71	35,748
827,88	39,459
828,05	40,081
828,22	37,109
828,39	36,679
828,56	38,054
828,73	38,679
828,90	37,349
829,07	37,905
829,25	33,508
829,42	38,903
829,59	32,169
829,76	33,856
829,93	39,812
830,10	37,243
830,27	36,255
830,44	30,175
830,61	29,014
830,78	37,578
830,95	42,163
831,12	37,448
831,29	37,008
831,46	28,567
831,63	33,416
831,80	41,351
831,97	36,869
832,14	44,945
832,31	47,957
832,48	33,594
832,65	42,278
832,83	37,990
833,00	42,359
833,17	32,411
833,34	35,863
833,51	41,551
833,68	44,415
833,85	34,036
834,02	32,782
834,19	41,806
834,36	41,157
834,53	32,852
834,70	37,696
834,87	53,683
835,04	38,121
835,21	36,889
835,38	42,485
835,55	36,179
835,72	52,418
835,89	35,301
836,06	31,336
836,23	49,693
836,40	32,845
836,57	36,482
836,74	41,761
836,91	36,210
837,08	50,442
837,25	37,960
837,42	38,381
837,59	32,441
837,76	43,093
837,93	37,303
838,09	40,241
838,26	39,456
838,43	49,033
838,60	49,078
838,77	42,662
838,94	41,566
839,11	52,061
839,28	45,237
839,45	37,961
839,62	37,607
839,79	34,834
839,96	43,130
840,13	40,632
840,30	31,244
840,47	38,182
840,64	44,777
840,81	39,112
840,98	37,564
841,15	48,838
841,32	38,296
841,48	47,094
841,65	39,066
841,82	36,206
841,99	37,504
842,16	48,093
842,33	35,052
842,50	47,786
842,67	31,680
842,84	40,388
843,01	49,316
843,18	43,197
843,35	45,269
843,52	36,772
843,68	41,253
843,85	36,929
844,02	34,035
844,19	37,683
844,36	41,694
844,53	33,929
844,70	30,553
844,87	59,978
845,04	48,556
845,21	22,902
845,37	49,719
845,54	35,492
845,71	40,173
845,88	57,033
846,05	40,281
846,22	31,080
846,39	44,164
846,56	49,269
846,72	26,089
846,89	36,421
847,06	54,227
847,23	46,614
847,40	23,558
847,57	35,856
847,74	34,230
847,90	49,394
848,07	41,163
848,24	40,627
848,41	48,676
848,58	61,133
848,75	41,411
848,92	39,722
849,08	35,013
849,25	35,711
849,42	39,282
849,59	40,896
849,76	32,704
849,93	48,677
850,09	48,045
850,26	22,970
850,43	53,622
850,60	33,015
850,77	29,651
850,94	40,276
851,10	39,247
851,27	39,491
851,44	46,806
851,61	29,002
851,78	58,025
851,95	51,365
852,11	38,358
852,28	24,244
852,45	59,665
852,62	59,071
852,79	51,424
852,95	39,634
853,12	48,497
853,29	39,034
853,46	40,138
853,63	46,326
853,79	41,197
853,96	40,570
854,13	47,727
854,30	40,425
854,46	52,277
854,63	43,847
854,80	51,157
854,97	40,056
855,14	77,950
855,30	64,029
855,47	51,342
855,64	46,614
855,81	44,011
855,97	59,673
856,14	47,570
856,31	26,638
856,48	58,448
856,65	58,214
856,81	36,570
856,98	25,948
857,15	41,797
857,32	52,562
857,48	42,012
857,65	55,458
857,82	55,949
857,99	50,445
858,15	59,381
858,32	45,352
858,49	31,418
858,65	73,045
858,82	45,108
858,99	50,976
859,16	54,915
859,32	51,697
859,49	57,417
859,66	51,915
859,83	59,793
859,99	39,986
860,16	36,371
860,33	51,940
860,49	60,097
860,66	47,577
860,83	39,461
861,00	49,385
861,16	65,184
861,33	60,097
861,50	35,528
861,66	65,612
861,83	58,696
862,00	41,180
862,16	32,708
862,33	49,594
862,50	84,623
862,67	54,356
862,83	45,510
863,00	59,749
863,17	57,310
863,33	38,033
863,50	40,200
863,67	53,618
863,83	57,989
864,00	59,059
864,17	42,179
864,33	34,710
864,50	34,724
864,67	61,369
864,83	32,681
865,00	55,725
865,17	41,193
865,33	54,969
865,50	47,810
865,67	51,536
865,83	64,121
866,00	80,735
866,17	52,008
866,33	52,092
866,50	59,058
866,66	50,651
866,83	48,602
867,00	62,921
867,16	88,531
867,33	96,418
867,50	45,464
867,66	44,196
867,83	52,316
868,00	64,491
868,16	52,741
868,33	54,976
868,49	37,836
868,66	72,553
868,83	63,505
868,99	64,994
869,16	100,488
869,32	67,549
869,49	54,876
869,66	44,911
869,82	98,267
869,99	80,351
870,15	45,437
870,32	63,459
870,49	118,140
870,65	90,585
870,82	57,328
870,98	65,584
871,15	92,545
871,32	80,387
871,48	42,036
871,65	50,163
871,81	56,150
871,98	33,824
872,15	40,870
872,31	38,279
872,48	92,569
872,64	75,026
872,81	60,508
872,97	46,467
873,14	82,800
873,31	92,560
873,47	67,816
873,64	68,546
873,80	93,710
873,97	93,748
874,13	53,737
874,30	42,667
874,46	71,336
874,63	72,427
874,80	56,720
874,96	42,155
875,13	84,901
875,29	52,278
875,46	76,432
875,62	60,160
875,79	86,643
875,95	52,430
876,12	34,852
876,28	37,940
876,45	136,271
876,61	50,227
876,78	65,434
876,94	42,762
877,11	92,347
877,27	127,494
877,44	53,883
877,60	45,241
877,77	79,506
877,94	156,066
878,10	47,895
878,27	81,960
878,43	113,026
878,60	87,043
878,76	83,397
878,93	112,460
879,09	74,710
879,26	112,886
879,42	90,864
879,58	87,169
879,75	101,625
879,91	109,459
880,08	40,570
880,24	62,045
880,41	8,443
880,57	67,827
880,74	122,958
880,90	73,424
881,07	97,342
881,23	134,500
881,40	69,625
881,56	70,552
881,73	182,621
881,89	122,634
882,06	63,496
882,22	152,678
882,38	84,121
882,55	157,893
882,71	94,647
882,88	56,611
883,04	90,612
883,21	97,786
883,37	143,615
883,54	81,988
883,70	210,224
883,86	138,628
884,03	119,806
884,19	102,928
884,36	110,600
884,52	150,254
884,69	140,392
884,85	60,667
885,01	87,499
885,18	164,316
885,34	102,355
885,51	29,896
885,67	119,553
>>>>> Data<<<<< Espectral Procesado Extremo
