Fichero De Datos De SpectraSuite
++++++++++++++++++++++++++++++++++++
Fecha: Wed Apr 22 08:54:53 CEST 2009
Usuario: evoflor
Presente Oscuro Del Espectro: Sí
La Referencia de Presente Del Espectro De: Sí
Muestreados de los componentes de Número de espectros: 1
Espectrómetros: USB4F02353
Tiempo de integración (usec): 500000 (USB4F02353)
Promedio de Espectros Hechos un: 5 (USB4F02353)
El Alisar Del Furgón: 0 (USB4F02353)
Párrafo de de Corregir del la del del de Eléctrica del obscuridad: Sí (USB4F02353)
Estrobo/Lámpara Permitido: No (USB4F02353)
Correct for Detector Non-linearity: No (USB4F02353)
Párrafo de de Corregir del la del del de Externa del luz: No (USB4F02353)
Procesado del espectro de Número de pixeles en: 3648
>>>>> Comienza Data<<<<< Espectral Procesado Del EL
177,79	956,598
178,00	956,598
178,22	956,598
178,44	-9587,049
178,66	497,984
178,88	154,867
179,09	2918,509
179,31	176,056
179,53	-6573,249
179,75	166,984
179,96	-115,773
180,18	202,360
180,40	-302,977
180,62	-163,128
180,83	562,694
181,05	-749,182
181,27	-630,820
181,49	-7,476
181,70	-252,082
181,92	617,559
182,14	229,189
182,36	-868,391
182,58	194,540
182,79	-1101,803
183,01	-11380,235
183,23	408,594
183,45	-50,142
183,66	148,177
183,88	944,094
184,10	804,230
184,32	936,426
184,53	-279,893
184,75	642,632
184,97	-215,322
185,18	1096,528
185,40	314,473
185,62	-751,177
185,84	2597,196
186,05	2874,031
186,27	-5973,938
186,49	-701,121
186,71	210,740
186,92	403,233
187,14	1742,294
187,36	281,950
187,58	781,794
187,79	-559,160
188,01	-1192,281
188,23	163,443
188,45	134,234
188,66	48,966
188,88	266,940
189,10	-394,708
189,31	-148,160
189,53	-194,229
189,75	1051,455
189,97	211,792
190,18	1544,792
190,40	1588,160
190,62	246,119
190,83	496,713
191,05	-202,543
191,27	4431,107
191,49	638,720
191,70	428,392
191,92	531,501
192,14	438,073
192,35	-1629,991
192,57	-808,481
192,79	-1830,209
193,01	578,002
193,22	101,006
193,44	-780,332
193,66	374,507
193,87	468,431
194,09	159,287
194,31	263,544
194,53	-455,948
194,74	389,876
194,96	-46,446
195,18	1038,180
195,39	-1313,284
195,61	-383,087
195,83	2230,973
196,04	373,582
196,26	119,698
196,48	2260,340
196,70	615,067
196,91	142,339
197,13	-25,282
197,35	177,891
197,56	-493,334
197,78	6899,379
198,00	238,440
198,21	328,215
198,43	938,792
198,65	259,335
198,86	137,562
199,08	650,155
199,30	202,018
199,51	817,879
199,73	-2604,472
199,95	282,373
200,16	632,761
200,38	230,360
200,60	3687,587
200,81	-433,607
201,03	6034,928
201,25	776,467
201,46	-756,455
201,68	439,307
201,90	668,409
202,11	503,820
202,33	168,624
202,55	109,294
202,76	776,988
202,98	600,499
203,20	405,888
203,41	-740,502
203,63	620,133
203,85	153,085
204,06	-780,541
204,28	176,803
204,50	-354,692
204,71	553,698
204,93	-16,126
205,15	179,968
205,36	-233,469
205,58	-2908,084
205,80	-1507,149
206,01	-5603,327
206,23	318,202
206,45	552,948
206,66	376,927
206,88	-382,468
207,10	2413,159
207,31	-46141,060
207,53	223,969
207,75	-460,926
207,96	423,509
208,18	355,000
208,39	206,077
208,61	565,181
208,83	8468,568
209,04	342,750
209,26	356,445
209,48	114,042
209,69	-124,046
209,91	865,689
210,13	30,203
210,34	235,386
210,56	306,745
210,77	1250,715
210,99	293,191
211,21	-423,662
211,42	193,849
211,64	452,719
211,86	384,316
212,07	259,851
212,29	673,749
212,50	1422,601
212,72	180,366
212,94	119,732
213,15	212,882
213,37	530,076
213,58	151,136
213,80	340,951
214,02	3306,213
214,23	265,464
214,45	288,374
214,67	-30,929
214,88	-220,778
215,10	1531,452
215,31	679,548
215,53	124,697
215,75	375,615
215,96	496,547
216,18	218,887
216,39	176,370
216,61	487,028
216,83	951,684
217,04	412,549
217,26	-0,899
217,47	242,096
217,69	304,896
217,91	104,310
218,12	1219,422
218,34	133,440
218,55	195,527
218,77	114,505
218,99	174,127
219,20	159,331
219,42	464,432
219,63	110,359
219,85	388,121
220,06	3,807
220,28	111,213
220,50	34,766
220,71	134,946
220,93	504,785
221,14	429,855
221,36	88,706
221,58	66,040
221,79	52,410
222,01	169,183
222,22	128,020
222,44	34,222
222,65	127,916
222,87	75,792
223,09	78,552
223,30	89,197
223,52	336,326
223,73	142,074
223,95	132,506
224,16	136,544
224,38	71,396
224,60	67,870
224,81	-7,421
225,03	118,314
225,24	114,682
225,46	4,570
225,67	10,866
225,89	55,603
226,10	148,016
226,32	127,813
226,54	-19,063
226,75	11,040
226,97	122,270
227,18	77,281
227,40	71,646
227,61	49,814
227,83	54,625
228,04	93,529
228,26	77,542
228,47	33,168
228,69	87,642
228,91	52,842
229,12	119,286
229,34	43,893
229,55	43,981
229,77	37,169
229,98	28,632
230,20	36,272
230,41	-8,859
230,63	58,880
230,84	41,234
231,06	52,547
231,27	4,881
231,49	41,819
231,71	19,363
231,92	21,368
232,14	-9,028
232,35	39,189
232,57	-3,173
232,78	15,711
233,00	24,701
233,21	17,499
233,43	26,210
233,64	-0,262
233,86	25,904
234,07	34,582
234,29	0,840
234,50	9,397
234,72	27,074
234,93	16,262
235,15	6,227
235,36	24,979
235,58	47,428
235,79	38,780
236,01	18,222
236,22	22,443
236,44	37,791
236,65	24,077
236,87	15,307
237,08	13,671
237,30	-3,338
237,51	21,483
237,73	11,481
237,94	8,666
238,16	17,655
238,37	7,136
238,59	0,943
238,80	8,022
239,02	2,773
239,23	20,199
239,45	7,577
239,66	22,910
239,88	24,521
240,09	22,691
240,31	4,723
240,52	6,708
240,74	14,034
240,95	14,525
241,17	12,623
241,38	2,072
241,60	2,160
241,81	24,989
242,03	-0,048
242,24	11,327
242,46	14,023
242,67	0,960
242,89	12,719
243,10	10,938
243,32	10,155
243,53	13,419
243,75	6,372
243,96	11,223
244,18	11,945
244,39	16,283
244,60	4,199
244,82	2,694
245,03	14,106
245,25	9,379
245,46	25,454
245,68	4,922
245,89	27,610
246,11	17,995
246,32	5,495
246,54	11,634
246,75	5,638
246,97	17,724
247,18	19,438
247,39	5,752
247,61	12,649
247,82	14,094
248,04	5,552
248,25	-0,355
248,47	8,738
248,68	9,375
248,90	4,601
249,11	8,776
249,33	17,732
249,54	9,068
249,75	10,686
249,97	2,397
250,18	18,280
250,40	13,207
250,61	5,952
250,83	2,970
251,04	4,596
251,25	13,481
251,47	12,995
251,68	2,801
251,90	9,233
252,11	6,621
252,33	7,884
252,54	5,420
252,76	2,475
252,97	-0,377
253,18	8,514
253,40	10,536
253,61	3,953
253,83	5,079
254,04	6,506
254,25	0,386
254,47	-0,059
254,68	8,239
254,90	4,887
255,11	2,343
255,33	9,337
255,54	3,524
255,75	4,208
255,97	7,768
256,18	4,078
256,40	7,256
256,61	8,243
256,82	4,312
257,04	9,251
257,25	2,902
257,47	8,049
257,68	8,792
257,89	8,059
258,11	7,182
258,32	10,797
258,54	1,889
258,75	13,823
258,96	9,682
259,18	7,383
259,39	4,553
259,61	10,264
259,82	0,833
260,03	1,114
260,25	6,954
260,46	5,081
260,68	4,068
260,89	4,902
261,10	7,424
261,32	6,730
261,53	-0,389
261,75	7,636
261,96	2,777
262,17	16,147
262,39	9,490
262,60	1,825
262,81	5,015
263,03	9,539
263,24	6,423
263,46	2,896
263,67	6,130
263,88	8,643
264,10	4,435
264,31	3,463
264,52	6,156
264,74	5,789
264,95	4,690
265,17	8,387
265,38	7,195
265,59	10,841
265,81	9,134
266,02	1,193
266,23	-1,816
266,45	11,232
266,66	9,510
266,87	4,894
267,09	5,031
267,30	11,069
267,52	12,167
267,73	5,369
267,94	1,073
268,16	5,970
268,37	2,276
268,58	7,148
268,80	-0,324
269,01	6,912
269,22	6,918
269,44	8,365
269,65	6,107
269,86	5,138
270,08	4,703
270,29	1,296
270,50	4,469
270,72	7,005
270,93	1,896
271,14	4,340
271,36	1,216
271,57	8,773
271,78	4,147
272,00	4,889
272,21	6,929
272,42	5,284
272,64	9,389
272,85	2,623
273,06	2,522
273,28	6,014
273,49	1,992
273,70	5,927
273,92	6,838
274,13	5,756
274,34	-3,295
274,56	8,908
274,77	4,959
274,98	11,544
275,20	9,301
275,41	8,171
275,62	2,207
275,84	4,856
276,05	13,894
276,26	2,712
276,47	4,323
276,69	10,122
276,90	10,898
277,11	3,951
277,33	-0,785
277,54	9,660
277,75	4,405
277,97	3,160
278,18	1,535
278,39	11,365
278,61	1,107
278,82	10,037
279,03	7,972
279,24	3,340
279,46	5,705
279,67	10,117
279,88	4,393
280,10	10,227
280,31	4,050
280,52	1,625
280,73	3,293
280,95	7,026
281,16	5,351
281,37	5,399
281,59	4,371
281,80	8,840
282,01	4,548
282,22	0,570
282,44	3,328
282,65	13,369
282,86	3,201
283,08	2,032
283,29	4,560
283,50	1,544
283,71	5,634
283,93	5,879
284,14	2,140
284,35	4,613
284,56	5,093
284,78	0,296
284,99	5,913
285,20	10,724
285,42	5,050
285,63	5,010
285,84	2,350
286,05	3,729
286,27	3,144
286,48	8,907
286,69	8,423
286,90	2,612
287,12	4,646
287,33	3,022
287,54	2,700
287,75	9,937
287,97	3,086
288,18	3,182
288,39	3,778
288,60	5,004
288,82	4,140
289,03	1,674
289,24	7,295
289,45	8,709
289,67	6,107
289,88	4,228
290,09	7,581
290,30	6,192
290,52	1,968
290,73	-0,757
290,94	3,933
291,15	2,278
291,37	4,708
291,58	4,623
291,79	4,122
292,00	3,544
292,21	4,666
292,43	7,267
292,64	-0,354
292,85	5,655
293,06	5,717
293,28	3,066
293,49	1,807
293,70	8,624
293,91	4,282
294,12	3,548
294,34	2,831
294,55	5,056
294,76	6,587
294,97	6,830
295,19	4,446
295,40	4,593
295,61	5,717
295,82	6,255
296,03	5,385
296,25	5,695
296,46	2,048
296,67	2,641
296,88	5,792
297,09	2,678
297,31	2,197
297,52	7,268
297,73	1,998
297,94	2,383
298,15	6,396
298,37	4,328
298,58	4,082
298,79	2,655
299,00	-0,155
299,21	1,891
299,43	1,778
299,64	8,029
299,85	2,723
300,06	1,442
300,27	1,298
300,49	6,014
300,70	7,386
300,91	2,763
301,12	4,532
301,33	7,362
301,54	3,003
301,76	6,074
301,97	4,222
302,18	6,411
302,39	8,021
302,60	2,778
302,82	3,704
303,03	8,481
303,24	4,168
303,45	6,355
303,66	5,101
303,87	0,154
304,09	6,660
304,30	-0,066
304,51	3,982
304,72	0,757
304,93	4,940
305,14	3,620
305,36	3,986
305,57	1,807
305,78	7,115
305,99	3,930
306,20	4,212
306,41	0,462
306,62	1,812
306,84	3,191
307,05	5,155
307,26	3,003
307,47	8,437
307,68	3,310
307,89	3,199
308,11	5,406
308,32	2,891
308,53	1,237
308,74	3,183
308,95	3,511
309,16	8,019
309,37	5,378
309,59	2,026
309,80	4,760
310,01	5,223
310,22	4,465
310,43	6,711
310,64	5,544
310,85	5,542
311,06	2,868
311,28	5,748
311,49	4,522
311,70	7,725
311,91	4,330
312,12	1,817
312,33	2,627
312,54	6,855
312,75	8,206
312,97	2,803
313,18	6,082
313,39	1,271
313,60	3,381
313,81	4,572
314,02	5,772
314,23	6,814
314,44	1,504
314,65	1,720
314,87	1,188
315,08	2,367
315,29	2,561
315,50	5,834
315,71	10,197
315,92	6,509
316,13	1,573
316,34	3,904
316,55	5,415
316,77	0,320
316,98	0,731
317,19	2,765
317,40	6,386
317,61	7,995
317,82	5,936
318,03	1,300
318,24	4,067
318,45	6,717
318,66	5,033
318,87	1,791
319,09	5,617
319,30	5,780
319,51	6,672
319,72	5,117
319,93	6,156
320,14	5,737
320,35	6,968
320,56	1,134
320,77	5,876
320,98	8,100
321,19	7,619
321,40	5,896
321,62	3,496
321,83	-0,666
322,04	3,773
322,25	5,688
322,46	8,358
322,67	7,903
322,88	7,572
323,09	4,817
323,30	8,154
323,51	9,921
323,72	5,031
323,93	2,269
324,14	3,881
324,35	-0,559
324,56	2,268
324,77	1,803
324,99	4,733
325,20	3,628
325,41	4,402
325,62	4,683
325,83	-0,853
326,04	2,124
326,25	5,316
326,46	1,636
326,67	2,653
326,88	4,356
327,09	2,862
327,30	4,174
327,51	3,452
327,72	4,444
327,93	3,226
328,14	4,292
328,35	5,300
328,56	3,542
328,77	6,928
328,98	6,013
329,19	3,794
329,40	5,783
329,61	0,925
329,82	0,144
330,04	4,424
330,25	3,219
330,46	1,041
330,67	3,320
330,88	6,594
331,09	2,376
331,30	4,697
331,51	6,097
331,72	4,631
331,93	5,694
332,14	3,133
332,35	3,798
332,56	3,820
332,77	7,170
332,98	3,502
333,19	3,990
333,40	4,933
333,61	3,512
333,82	5,378
334,03	5,148
334,24	10,468
334,45	5,259
334,66	7,345
334,87	2,848
335,08	2,939
335,29	2,359
335,50	4,623
335,71	1,800
335,92	5,935
336,13	4,355
336,34	1,520
336,55	5,271
336,76	6,837
336,97	3,003
337,18	3,422
337,39	6,007
337,60	6,124
337,81	5,283
338,02	5,889
338,23	2,636
338,44	3,983
338,65	0,396
338,86	4,690
339,07	4,769
339,28	0,997
339,49	3,955
339,70	1,533
339,91	2,502
340,11	8,649
340,32	4,938
340,53	2,677
340,74	-0,509
340,95	2,007
341,16	5,369
341,37	4,732
341,58	3,409
341,79	2,615
342,00	1,692
342,21	-1,593
342,42	2,735
342,63	7,758
342,84	5,150
343,05	4,123
343,26	9,884
343,47	6,597
343,68	0,564
343,89	1,700
344,10	1,125
344,31	2,659
344,52	5,872
344,73	2,764
344,94	0,756
345,14	2,884
345,35	3,280
345,56	0,619
345,77	2,130
345,98	2,930
346,19	5,680
346,40	6,746
346,61	0,121
346,82	5,867
347,03	6,101
347,24	3,871
347,45	3,724
347,66	6,397
347,87	2,622
348,08	8,205
348,28	4,444
348,49	3,150
348,70	5,189
348,91	4,290
349,12	3,967
349,33	-1,642
349,54	4,588
349,75	6,551
349,96	1,623
350,17	5,970
350,38	2,962
350,59	5,071
350,80	2,002
351,00	1,554
351,21	11,062
351,42	3,061
351,63	3,870
351,84	4,059
352,05	8,440
352,26	4,142
352,47	5,669
352,68	6,880
352,89	2,625
353,09	2,415
353,30	1,617
353,51	1,662
353,72	10,012
353,93	7,335
354,14	3,321
354,35	7,200
354,56	8,792
354,77	2,809
354,98	2,760
355,18	5,122
355,39	11,138
355,60	0,661
355,81	3,802
356,02	3,006
356,23	1,733
356,44	6,623
356,65	2,377
356,85	8,551
357,06	9,359
357,27	5,275
357,48	1,849
357,69	9,671
357,90	6,326
358,11	-0,549
358,32	2,761
358,52	8,641
358,73	2,803
358,94	5,276
359,15	3,873
359,36	6,633
359,57	5,226
359,78	7,278
359,98	5,279
360,19	0,395
360,40	2,896
360,61	6,599
360,82	2,427
361,03	12,712
361,24	14,197
361,44	2,249
361,65	2,226
361,86	1,351
362,07	5,859
362,28	11,362
362,49	6,128
362,70	6,973
362,90	4,793
363,11	3,411
363,32	2,049
363,53	2,945
363,74	9,631
363,95	5,997
364,15	4,277
364,36	7,192
364,57	3,394
364,78	0,023
364,99	1,202
365,20	5,627
365,40	7,656
365,61	4,644
365,82	3,424
366,03	7,782
366,24	2,771
366,45	0,002
366,65	0,150
366,86	3,450
367,07	3,857
367,28	1,343
367,49	0,263
367,69	6,976
367,90	3,438
368,11	4,013
368,32	4,593
368,53	7,466
368,73	2,200
368,94	4,379
369,15	6,316
369,36	7,964
369,57	6,200
369,78	1,999
369,98	5,849
370,19	5,502
370,40	1,708
370,61	4,481
370,82	6,883
371,02	9,702
371,23	4,590
371,44	3,384
371,65	3,917
371,85	9,407
372,06	-0,344
372,27	6,602
372,48	3,668
372,69	8,651
372,89	5,343
373,10	7,324
373,31	5,464
373,52	5,350
373,73	7,278
373,93	6,175
374,14	5,097
374,35	4,806
374,56	5,582
374,76	6,070
374,97	3,449
375,18	9,241
375,39	4,682
375,60	5,038
375,80	5,061
376,01	3,681
376,22	8,296
376,43	6,013
376,63	5,572
376,84	7,620
377,05	5,950
377,26	3,620
377,46	4,495
377,67	4,046
377,88	-0,357
378,09	4,367
378,29	5,223
378,50	5,172
378,71	6,981
378,92	1,446
379,12	3,195
379,33	4,670
379,54	9,255
379,75	8,807
379,95	6,025
380,16	6,181
380,37	7,801
380,58	2,878
380,78	5,663
380,99	0,679
381,20	3,978
381,41	8,586
381,61	4,298
381,82	6,017
382,03	6,713
382,24	7,971
382,44	4,832
382,65	5,143
382,86	8,786
383,06	7,257
383,27	8,692
383,48	6,918
383,69	6,709
383,89	3,148
384,10	2,556
384,31	6,755
384,51	9,678
384,72	9,299
384,93	5,293
385,14	2,582
385,34	4,485
385,55	3,816
385,76	-0,747
385,96	11,769
386,17	6,101
386,38	3,271
386,59	11,395
386,79	7,322
387,00	11,218
387,21	9,033
387,41	5,938
387,62	7,258
387,83	12,233
388,03	5,292
388,24	4,264
388,45	5,389
388,66	6,761
388,86	5,424
389,07	5,175
389,28	15,109
389,48	6,904
389,69	6,268
389,90	3,522
390,10	3,320
390,31	8,517
390,52	7,478
390,72	4,285
390,93	6,512
391,14	8,312
391,34	9,619
391,55	5,254
391,76	11,571
391,96	11,887
392,17	5,633
392,38	6,534
392,58	5,743
392,79	8,209
393,00	4,991
393,20	6,553
393,41	5,921
393,62	13,100
393,82	6,553
394,03	8,921
394,24	7,801
394,44	9,207
394,65	9,823
394,86	7,930
395,06	12,404
395,27	7,735
395,48	6,009
395,68	5,020
395,89	8,390
396,10	11,613
396,30	5,192
396,51	5,867
396,72	9,614
396,92	4,148
397,13	10,128
397,34	5,968
397,54	11,406
397,75	7,198
397,95	6,224
398,16	7,338
398,37	10,453
398,57	3,439
398,78	5,955
398,99	10,404
399,19	10,236
399,40	14,284
399,60	8,062
399,81	11,752
400,02	15,203
400,22	11,078
400,43	12,673
400,64	6,120
400,84	4,248
401,05	12,665
401,25	10,736
401,46	7,468
401,67	13,295
401,87	7,817
402,08	5,669
402,29	10,781
402,49	14,716
402,70	11,287
402,90	6,424
403,11	12,073
403,32	7,798
403,52	6,193
403,73	6,880
403,93	14,566
404,14	18,016
404,35	7,909
404,55	6,657
404,76	10,621
404,96	10,237
405,17	16,557
405,38	17,249
405,58	13,002
405,79	14,366
405,99	17,761
406,20	12,807
406,40	13,788
406,61	13,709
406,82	14,023
407,02	12,941
407,23	7,413
407,43	10,846
407,64	9,823
407,85	13,738
408,05	5,274
408,26	24,839
408,46	21,248
408,67	13,992
408,87	13,529
409,08	12,365
409,29	21,675
409,49	19,003
409,70	15,234
409,90	14,783
410,11	15,603
410,31	18,248
410,52	15,899
410,72	15,199
410,93	17,259
411,14	13,978
411,34	10,621
411,55	13,455
411,75	18,787
411,96	18,856
412,16	14,779
412,37	13,593
412,57	16,388
412,78	19,852
412,99	13,262
413,19	17,629
413,40	13,441
413,60	13,894
413,81	16,550
414,01	13,530
414,22	16,540
414,42	14,002
414,63	14,498
414,83	15,667
415,04	21,815
415,24	17,634
415,45	16,010
415,65	18,145
415,86	21,670
416,07	15,871
416,27	21,250
416,48	21,142
416,68	25,189
416,89	14,368
417,09	20,872
417,30	24,807
417,50	13,576
417,71	20,736
417,91	19,867
418,12	18,878
418,32	19,414
418,53	14,861
418,73	20,532
418,94	18,972
419,14	22,097
419,35	17,377
419,55	18,027
419,76	20,740
419,96	23,982
420,17	17,644
420,37	16,537
420,58	21,915
420,78	20,070
420,99	17,946
421,19	22,956
421,40	27,310
421,60	23,599
421,81	16,795
422,01	21,929
422,22	22,857
422,42	22,026
422,63	21,611
422,83	24,419
423,04	27,108
423,24	32,114
423,45	18,146
423,65	20,906
423,86	26,990
424,06	22,731
424,27	18,888
424,47	19,379
424,67	18,138
424,88	22,475
425,08	20,423
425,29	28,111
425,49	17,556
425,70	19,000
425,90	20,143
426,11	20,831
426,31	22,229
426,52	25,913
426,72	23,221
426,93	18,761
427,13	24,633
427,33	19,222
427,54	24,995
427,74	23,617
427,95	27,642
428,15	22,157
428,36	19,800
428,56	21,438
428,77	22,295
428,97	24,129
429,18	21,028
429,38	22,543
429,58	22,999
429,79	25,372
429,99	20,035
430,20	22,931
430,40	26,868
430,61	19,170
430,81	18,381
431,01	22,871
431,22	26,355
431,42	24,489
431,63	14,739
431,83	22,979
432,04	26,506
432,24	25,072
432,44	24,184
432,65	22,211
432,85	22,709
433,06	24,039
433,26	21,187
433,47	23,137
433,67	21,046
433,87	22,297
434,08	21,350
434,28	19,370
434,49	23,350
434,69	31,212
434,89	26,916
435,10	22,087
435,30	29,208
435,51	19,529
435,71	23,313
435,91	20,093
436,12	22,664
436,32	22,930
436,53	23,823
436,73	21,865
436,93	24,372
437,14	24,122
437,34	22,686
437,55	19,380
437,75	25,559
437,95	27,238
438,16	20,102
438,36	22,758
438,57	23,907
438,77	21,132
438,97	25,020
439,18	23,538
439,38	23,314
439,58	19,687
439,79	22,352
439,99	19,154
440,20	28,835
440,40	25,623
440,60	22,517
440,81	23,222
441,01	29,607
441,21	26,043
441,42	24,249
441,62	25,083
441,83	25,896
442,03	22,621
442,23	25,626
442,44	26,109
442,64	24,169
442,84	20,482
443,05	26,791
443,25	22,317
443,45	26,931
443,66	22,489
443,86	21,024
444,06	26,755
444,27	21,345
444,47	28,755
444,67	24,718
444,88	24,306
445,08	23,541
445,28	22,086
445,49	25,717
445,69	23,937
445,90	28,180
446,10	26,677
446,30	21,128
446,51	24,417
446,71	26,616
446,91	27,696
447,12	30,706
447,32	20,867
447,52	24,297
447,72	28,425
447,93	20,536
448,13	19,899
448,33	30,460
448,54	27,794
448,74	19,660
448,94	24,413
449,15	31,060
449,35	23,900
449,55	26,744
449,76	26,027
449,96	24,814
450,16	26,642
450,37	22,191
450,57	27,578
450,77	22,702
450,98	20,472
451,18	30,087
451,38	25,907
451,58	32,176
451,79	24,229
451,99	25,105
452,19	26,996
452,40	34,049
452,60	18,311
452,80	27,067
453,00	26,696
453,21	20,810
453,41	29,632
453,61	23,406
453,82	26,618
454,02	25,368
454,22	40,265
454,42	26,764
454,63	21,717
454,83	23,324
455,03	31,870
455,24	25,196
455,44	29,060
455,64	22,607
455,84	25,920
456,05	19,372
456,25	19,055
456,45	25,367
456,65	24,021
456,86	27,064
457,06	27,089
457,26	28,666
457,47	29,478
457,67	24,664
457,87	21,327
458,07	27,024
458,28	25,550
458,48	32,717
458,68	20,336
458,88	31,313
459,09	26,280
459,29	29,761
459,49	19,550
459,69	25,703
459,90	25,641
460,10	25,698
460,30	30,510
460,50	22,065
460,71	26,053
460,91	23,403
461,11	29,203
461,31	29,896
461,52	29,773
461,72	26,736
461,92	23,558
462,12	29,404
462,32	20,232
462,53	20,577
462,73	23,289
462,93	25,569
463,13	28,622
463,34	20,947
463,54	27,641
463,74	26,200
463,94	21,055
464,14	28,483
464,35	22,920
464,55	29,284
464,75	31,350
464,95	25,548
465,16	21,415
465,36	30,743
465,56	23,934
465,76	23,682
465,96	27,757
466,17	26,896
466,37	23,409
466,57	31,206
466,77	27,871
466,97	23,803
467,18	30,396
467,38	28,219
467,58	31,353
467,78	29,951
467,98	26,733
468,19	24,508
468,39	28,727
468,59	20,548
468,79	25,294
468,99	25,435
469,19	21,668
469,40	25,367
469,60	22,727
469,80	22,163
470,00	24,450
470,20	29,021
470,41	23,568
470,61	26,780
470,81	29,792
471,01	24,780
471,21	28,115
471,41	26,593
471,62	26,039
471,82	22,905
472,02	22,944
472,22	21,932
472,42	22,669
472,62	28,949
472,83	22,491
473,03	28,180
473,23	24,289
473,43	27,818
473,63	26,684
473,83	26,728
474,03	27,225
474,24	28,762
474,44	24,156
474,64	25,219
474,84	22,398
475,04	23,727
475,24	30,542
475,45	25,616
475,65	23,815
475,85	26,420
476,05	18,812
476,25	23,633
476,45	27,198
476,65	27,759
476,85	23,030
477,06	28,906
477,26	20,475
477,46	25,689
477,66	26,659
477,86	26,161
478,06	25,649
478,26	30,889
478,46	23,089
478,67	29,307
478,87	22,629
479,07	25,118
479,27	26,816
479,47	23,070
479,67	18,038
479,87	22,367
480,07	29,567
480,28	26,551
480,48	24,471
480,68	26,552
480,88	31,280
481,08	29,838
481,28	27,562
481,48	26,064
481,68	23,446
481,88	21,829
482,08	24,913
482,29	27,140
482,49	23,101
482,69	24,486
482,89	22,878
483,09	31,077
483,29	23,607
483,49	21,361
483,69	24,837
483,89	25,299
484,09	21,274
484,29	22,624
484,50	26,574
484,70	28,529
484,90	23,622
485,10	25,976
485,30	28,574
485,50	30,372
485,70	27,082
485,90	24,208
486,10	22,333
486,30	23,996
486,50	23,670
486,70	21,224
486,90	24,844
487,10	26,931
487,30	25,610
487,51	27,719
487,71	22,334
487,91	25,293
488,11	27,485
488,31	22,980
488,51	24,774
488,71	22,792
488,91	24,676
489,11	23,504
489,31	22,104
489,51	26,529
489,71	26,100
489,91	24,583
490,11	24,581
490,31	26,747
490,51	27,555
490,71	27,728
490,91	23,735
491,11	24,844
491,31	28,227
491,51	27,247
491,72	24,888
491,92	25,908
492,12	28,100
492,32	25,913
492,52	27,166
492,72	22,885
492,92	24,719
493,12	27,276
493,32	23,471
493,52	23,076
493,72	24,971
493,92	25,531
494,12	24,161
494,32	24,562
494,52	25,191
494,72	24,347
494,92	24,396
495,12	27,062
495,32	30,698
495,52	25,985
495,72	25,989
495,92	24,944
496,12	28,537
496,32	24,122
496,52	24,384
496,72	26,546
496,92	25,075
497,12	25,502
497,32	27,357
497,52	25,712
497,72	28,266
497,92	25,277
498,12	23,910
498,32	26,117
498,52	23,784
498,72	23,175
498,92	23,890
499,12	25,361
499,32	22,781
499,52	27,381
499,72	23,890
499,92	27,623
500,12	27,641
500,32	23,254
500,52	26,956
500,72	27,708
500,91	27,517
501,11	25,870
501,31	25,087
501,51	26,625
501,71	27,349
501,91	25,992
502,11	22,781
502,31	25,156
502,51	25,963
502,71	26,708
502,91	22,344
503,11	24,973
503,31	27,344
503,51	20,669
503,71	24,945
503,91	25,004
504,11	23,793
504,31	25,271
504,51	24,098
504,71	29,117
504,91	23,785
505,10	25,550
505,30	24,437
505,50	26,269
505,70	23,625
505,90	25,029
506,10	22,787
506,30	26,009
506,50	26,510
506,70	28,791
506,90	25,286
507,10	22,499
507,30	22,298
507,50	25,069
507,70	27,393
507,89	26,405
508,09	24,070
508,29	22,265
508,49	21,072
508,69	25,503
508,89	23,194
509,09	25,224
509,29	25,383
509,49	27,114
509,69	28,082
509,89	28,030
510,09	25,752
510,28	26,889
510,48	25,834
510,68	23,112
510,88	25,446
511,08	25,464
511,28	24,209
511,48	24,340
511,68	21,885
511,88	29,292
512,07	24,639
512,27	22,898
512,47	24,760
512,67	24,507
512,87	19,941
513,07	26,184
513,27	22,146
513,47	22,831
513,67	22,089
513,86	25,921
514,06	25,799
514,26	24,709
514,46	26,525
514,66	23,518
514,86	26,157
515,06	30,339
515,26	26,992
515,45	23,501
515,65	21,288
515,85	23,691
516,05	23,070
516,25	22,757
516,45	26,226
516,65	22,089
516,84	23,624
517,04	29,193
517,24	24,457
517,44	25,604
517,64	27,634
517,84	26,467
518,04	25,295
518,23	27,781
518,43	28,510
518,63	24,873
518,83	22,876
519,03	24,673
519,23	25,115
519,42	24,803
519,62	24,732
519,82	24,910
520,02	22,711
520,22	25,476
520,42	24,140
520,61	27,180
520,81	25,569
521,01	28,216
521,21	21,741
521,41	22,758
521,61	28,427
521,80	23,894
522,00	23,293
522,20	27,583
522,40	24,966
522,60	23,716
522,79	23,530
522,99	28,645
523,19	19,611
523,39	24,979
523,59	26,758
523,78	25,582
523,98	23,358
524,18	25,310
524,38	21,872
524,58	22,654
524,77	26,987
524,97	26,914
525,17	24,457
525,37	24,106
525,57	30,555
525,76	26,723
525,96	28,584
526,16	25,498
526,36	24,757
526,56	24,545
526,75	25,700
526,95	26,787
527,15	24,028
527,35	26,508
527,55	23,354
527,74	23,226
527,94	23,226
528,14	23,219
528,34	25,030
528,53	24,003
528,73	29,664
528,93	26,845
529,13	24,176
529,32	25,822
529,52	24,614
529,72	24,178
529,92	23,924
530,12	23,282
530,31	25,166
530,51	28,393
530,71	23,876
530,91	29,480
531,10	22,179
531,30	25,527
531,50	23,466
531,70	25,163
531,89	26,977
532,09	24,092
532,29	24,943
532,49	24,253
532,68	23,508
532,88	21,957
533,08	24,306
533,28	26,080
533,47	25,112
533,67	25,996
533,87	24,979
534,06	31,706
534,26	24,564
534,46	24,446
534,66	26,118
534,85	25,939
535,05	21,560
535,25	21,816
535,45	22,354
535,64	28,593
535,84	25,154
536,04	22,267
536,23	28,431
536,43	28,925
536,63	24,514
536,83	25,340
537,02	25,448
537,22	23,443
537,42	27,339
537,61	27,174
537,81	26,117
538,01	27,758
538,20	26,259
538,40	25,004
538,60	27,082
538,80	26,232
538,99	28,978
539,19	26,609
539,39	27,398
539,58	27,862
539,78	26,449
539,98	27,533
540,17	27,005
540,37	32,427
540,57	28,572
540,76	27,899
540,96	24,556
541,16	28,697
541,36	28,755
541,55	27,562
541,75	28,148
541,95	30,919
542,14	27,484
542,34	26,239
542,54	26,708
542,73	31,843
542,93	28,729
543,13	29,543
543,32	27,813
543,52	32,625
543,72	28,656
543,91	32,033
544,11	30,516
544,31	25,629
544,50	27,741
544,70	29,737
544,89	28,180
545,09	31,854
545,29	28,178
545,48	29,030
545,68	25,857
545,88	28,860
546,07	27,615
546,27	27,834
546,47	30,935
546,66	25,781
546,86	25,340
547,06	26,958
547,25	25,360
547,45	25,508
547,64	27,866
547,84	28,097
548,04	26,755
548,23	30,627
548,43	25,824
548,63	28,114
548,82	26,420
549,02	27,137
549,21	24,666
549,41	23,960
549,61	27,401
549,80	24,716
550,00	24,850
550,20	24,409
550,39	26,671
550,59	26,483
550,78	27,283
550,98	24,724
551,18	27,281
551,37	25,458
551,57	24,847
551,76	27,321
551,96	24,627
552,16	23,780
552,35	25,830
552,55	23,215
552,74	22,894
552,94	28,169
553,14	22,315
553,33	25,293
553,53	24,192
553,72	24,674
553,92	26,046
554,12	23,478
554,31	24,452
554,51	23,404
554,70	22,823
554,90	23,252
555,09	26,931
555,29	24,815
555,49	25,410
555,68	27,337
555,88	22,918
556,07	22,400
556,27	29,085
556,46	23,761
556,66	23,216
556,86	29,941
557,05	26,472
557,25	22,950
557,44	23,265
557,64	21,284
557,83	24,571
558,03	25,079
558,22	21,514
558,42	24,872
558,62	25,019
558,81	27,588
559,01	25,902
559,20	24,953
559,40	24,519
559,59	24,343
559,79	22,703
559,98	23,884
560,18	24,898
560,37	26,040
560,57	22,843
560,76	21,420
560,96	21,447
561,16	24,544
561,35	23,059
561,55	25,285
561,74	25,990
561,94	24,935
562,13	25,200
562,33	24,315
562,52	25,347
562,72	23,055
562,91	23,466
563,11	23,505
563,30	25,340
563,50	23,769
563,69	23,069
563,89	22,392
564,08	26,515
564,28	22,256
564,47	27,100
564,67	23,508
564,86	21,766
565,06	23,368
565,25	21,506
565,45	23,043
565,64	28,223
565,84	23,916
566,03	21,824
566,23	25,031
566,42	24,379
566,62	23,114
566,81	23,416
567,01	22,952
567,20	24,772
567,40	24,015
567,59	22,455
567,79	28,379
567,98	26,294
568,18	23,177
568,37	25,993
568,57	24,281
568,76	24,144
568,96	25,813
569,15	22,637
569,35	23,755
569,54	27,558
569,73	25,107
569,93	23,938
570,12	22,046
570,32	25,000
570,51	23,128
570,71	25,414
570,90	25,800
571,10	23,501
571,29	23,790
571,49	22,851
571,68	24,736
571,87	25,033
572,07	26,067
572,26	20,193
572,46	24,095
572,65	24,255
572,85	22,227
573,04	25,251
573,24	23,442
573,43	26,139
573,62	25,753
573,82	24,491
574,01	23,774
574,21	20,800
574,40	22,951
574,60	21,629
574,79	27,405
574,98	23,824
575,18	22,861
575,37	21,932
575,57	23,549
575,76	25,060
575,96	23,481
576,15	24,324
576,34	23,597
576,54	24,232
576,73	23,983
576,93	23,757
577,12	25,027
577,31	24,396
577,51	22,466
577,70	23,807
577,90	23,292
578,09	24,820
578,28	22,651
578,48	24,443
578,67	24,030
578,87	25,166
579,06	23,615
579,25	24,734
579,45	24,665
579,64	22,984
579,84	23,299
580,03	24,413
580,22	24,949
580,42	24,484
580,61	24,764
580,81	23,926
581,00	24,187
581,19	25,210
581,39	24,164
581,58	23,960
581,77	24,228
581,97	26,547
582,16	24,188
582,35	22,844
582,55	23,817
582,74	26,228
582,94	26,477
583,13	24,719
583,32	24,652
583,52	25,435
583,71	24,941
583,90	24,361
584,10	25,921
584,29	25,852
584,48	23,843
584,68	23,357
584,87	25,907
585,06	25,142
585,26	23,352
585,45	23,849
585,65	27,000
585,84	24,519
586,03	23,643
586,23	23,869
586,42	24,988
586,61	28,873
586,81	25,446
587,00	24,499
587,19	25,326
587,39	26,300
587,58	25,233
587,77	24,538
587,97	23,213
588,16	24,926
588,35	24,846
588,54	23,333
588,74	25,680
588,93	27,785
589,12	25,924
589,32	23,776
589,51	24,217
589,70	23,213
589,90	22,428
590,09	22,411
590,28	27,141
590,48	23,409
590,67	26,618
590,86	25,437
591,06	24,044
591,25	25,518
591,44	25,318
591,63	25,309
591,83	24,886
592,02	25,234
592,21	24,287
592,41	25,446
592,60	26,435
592,79	25,617
592,98	26,495
593,18	23,230
593,37	24,514
593,56	25,302
593,76	24,868
593,95	24,154
594,14	23,758
594,33	26,649
594,53	24,985
594,72	23,568
594,91	26,760
595,10	23,644
595,30	24,367
595,49	23,753
595,68	26,230
595,88	27,257
596,07	26,100
596,26	25,031
596,45	24,694
596,65	22,265
596,84	24,980
597,03	25,631
597,22	23,718
597,42	26,702
597,61	23,806
597,80	25,052
597,99	23,702
598,19	26,243
598,38	23,945
598,57	24,384
598,76	26,082
598,95	24,886
599,15	25,772
599,34	24,106
599,53	24,263
599,72	23,358
599,92	26,021
600,11	25,379
600,30	25,439
600,49	27,657
600,69	23,498
600,88	25,391
601,07	24,254
601,26	22,718
601,45	23,043
601,65	23,783
601,84	25,815
602,03	22,898
602,22	25,235
602,42	25,763
602,61	23,487
602,80	25,654
602,99	25,266
603,18	24,499
603,38	28,275
603,57	23,579
603,76	23,370
603,95	23,120
604,14	26,281
604,34	23,182
604,53	24,147
604,72	25,557
604,91	25,342
605,10	24,249
605,29	26,501
605,49	23,665
605,68	25,214
605,87	29,209
606,06	25,000
606,25	24,559
606,45	25,557
606,64	25,193
606,83	27,055
607,02	24,905
607,21	27,711
607,40	26,378
607,60	24,770
607,79	24,435
607,98	26,926
608,17	25,399
608,36	26,725
608,55	27,937
608,75	29,867
608,94	29,797
609,13	26,576
609,32	27,763
609,51	30,037
609,70	30,826
609,89	28,207
610,09	28,438
610,28	29,940
610,47	29,379
610,66	29,989
610,85	27,720
611,04	31,614
611,23	28,866
611,43	28,769
611,62	29,905
611,81	28,665
612,00	29,697
612,19	28,123
612,38	30,084
612,57	29,507
612,77	28,427
612,96	27,954
613,15	27,955
613,34	28,316
613,53	28,084
613,72	28,135
613,91	25,583
614,10	26,821
614,29	29,322
614,49	25,950
614,68	25,840
614,87	26,617
615,06	29,646
615,25	26,207
615,44	28,762
615,63	27,602
615,82	24,448
616,01	27,730
616,21	23,782
616,40	27,001
616,59	28,183
616,78	25,293
616,97	25,386
617,16	24,556
617,35	27,149
617,54	26,315
617,73	27,061
617,92	26,864
618,11	26,635
618,31	26,142
618,50	27,427
618,69	26,471
618,88	26,805
619,07	24,004
619,26	25,737
619,45	24,415
619,64	23,625
619,83	25,427
620,02	25,186
620,21	27,994
620,40	27,285
620,59	27,245
620,78	24,634
620,97	26,428
621,17	28,659
621,36	25,208
621,55	25,641
621,74	26,406
621,93	27,225
622,12	26,738
622,31	25,281
622,50	26,970
622,69	29,150
622,88	26,795
623,07	28,995
623,26	26,547
623,45	29,403
623,64	25,570
623,83	25,445
624,02	26,111
624,21	27,404
624,40	25,127
624,59	23,875
624,78	25,250
624,97	29,599
625,16	24,143
625,35	23,130
625,54	23,961
625,73	23,411
625,92	28,170
626,12	28,066
626,31	26,189
626,50	26,134
626,69	25,753
626,88	25,717
627,07	25,322
627,26	25,926
627,45	27,018
627,64	24,867
627,83	26,040
628,02	24,607
628,21	26,484
628,40	26,915
628,59	27,562
628,78	25,193
628,97	25,139
629,16	25,077
629,35	27,948
629,54	27,049
629,73	27,176
629,92	24,876
630,10	26,784
630,29	27,795
630,48	25,391
630,67	25,355
630,86	28,111
631,05	25,601
631,24	27,074
631,43	24,345
631,62	25,577
631,81	24,705
632,00	25,965
632,19	23,400
632,38	27,478
632,57	26,958
632,76	23,549
632,95	24,900
633,14	26,097
633,33	28,018
633,52	26,004
633,71	25,496
633,90	22,382
634,09	25,195
634,28	26,715
634,47	25,286
634,66	26,565
634,85	24,856
635,04	27,872
635,22	24,137
635,41	25,368
635,60	28,327
635,79	28,170
635,98	24,843
636,17	25,310
636,36	23,208
636,55	23,557
636,74	24,591
636,93	25,048
637,12	24,523
637,31	23,189
637,50	23,966
637,69	24,801
637,87	26,929
638,06	23,506
638,25	23,748
638,44	23,726
638,63	23,529
638,82	24,420
639,01	24,087
639,20	25,559
639,39	25,973
639,58	24,889
639,77	25,056
639,95	24,963
640,14	26,381
640,33	25,732
640,52	25,299
640,71	27,478
640,90	25,132
641,09	27,596
641,28	25,615
641,47	26,174
641,66	25,631
641,84	27,566
642,03	22,163
642,22	25,494
642,41	28,390
642,60	25,031
642,79	25,440
642,98	25,822
643,17	26,382
643,35	24,067
643,54	25,300
643,73	24,755
643,92	25,031
644,11	25,400
644,30	25,491
644,49	26,717
644,67	25,034
644,86	25,139
645,05	25,142
645,24	25,868
645,43	24,830
645,62	26,725
645,81	23,598
645,99	25,619
646,18	26,584
646,37	26,492
646,56	25,189
646,75	25,383
646,94	26,705
647,13	23,727
647,31	26,354
647,50	23,303
647,69	28,137
647,88	25,104
648,07	26,746
648,26	28,770
648,44	25,163
648,63	26,185
648,82	24,808
649,01	26,282
649,20	24,401
649,38	26,582
649,57	25,637
649,76	24,125
649,95	26,773
650,14	23,514
650,33	25,686
650,51	26,021
650,70	25,671
650,89	26,133
651,08	26,106
651,27	26,432
651,45	23,866
651,64	24,830
651,83	24,858
652,02	24,990
652,21	24,187
652,39	26,056
652,58	26,458
652,77	27,932
652,96	24,991
653,15	26,917
653,33	25,475
653,52	26,053
653,71	25,755
653,90	26,232
654,09	23,989
654,27	24,650
654,46	26,859
654,65	25,221
654,84	24,674
655,02	25,543
655,21	24,722
655,40	25,948
655,59	24,826
655,77	26,095
655,96	25,886
656,15	26,201
656,34	25,950
656,53	25,126
656,71	26,142
656,90	26,437
657,09	25,789
657,28	26,407
657,46	24,996
657,65	24,031
657,84	24,636
658,03	25,766
658,21	25,512
658,40	25,482
658,59	24,079
658,78	24,858
658,96	24,003
659,15	26,682
659,34	25,253
659,52	25,871
659,71	25,833
659,90	25,385
660,09	24,439
660,27	25,906
660,46	28,849
660,65	25,615
660,84	24,944
661,02	26,874
661,21	26,660
661,40	27,428
661,58	26,854
661,77	26,496
661,96	23,489
662,15	26,022
662,33	25,876
662,52	25,339
662,71	25,932
662,89	24,760
663,08	26,688
663,27	27,110
663,45	24,425
663,64	25,641
663,83	24,243
664,02	23,512
664,20	27,459
664,39	24,427
664,58	26,107
664,76	24,187
664,95	26,941
665,14	26,017
665,32	25,063
665,51	27,058
665,70	26,166
665,88	27,020
666,07	24,262
666,26	26,696
666,44	27,793
666,63	23,925
666,82	24,848
667,00	25,010
667,19	25,712
667,38	27,288
667,56	25,484
667,75	27,027
667,94	26,332
668,12	24,794
668,31	27,158
668,50	26,200
668,68	26,436
668,87	25,260
669,06	25,092
669,24	27,214
669,43	24,553
669,62	25,429
669,80	25,102
669,99	24,360
670,18	24,917
670,36	24,006
670,55	27,683
670,74	24,558
670,92	22,345
671,11	27,831
671,29	23,104
671,48	25,501
671,67	26,032
671,85	25,846
672,04	25,073
672,23	24,419
672,41	24,892
672,60	26,608
672,78	25,243
672,97	25,394
673,16	26,399
673,34	26,615
673,53	25,209
673,71	25,971
673,90	27,502
674,09	25,913
674,27	25,833
674,46	26,371
674,64	25,243
674,83	25,290
675,02	23,387
675,20	24,437
675,39	24,525
675,57	24,557
675,76	24,535
675,95	27,268
676,13	25,577
676,32	25,141
676,50	26,156
676,69	22,839
676,88	24,356
677,06	23,665
677,25	24,854
677,43	27,907
677,62	26,917
677,80	26,280
677,99	25,315
678,18	27,424
678,36	27,577
678,55	24,779
678,73	23,445
678,92	24,705
679,10	25,274
679,29	24,530
679,48	21,728
679,66	24,967
679,85	26,319
680,03	25,309
680,22	24,424
680,40	24,805
680,59	25,567
680,77	23,814
680,96	25,742
681,15	25,641
681,33	27,653
681,52	26,392
681,70	25,207
681,89	26,457
682,07	24,811
682,26	24,713
682,44	25,762
682,63	24,239
682,81	26,917
683,00	26,245
683,18	23,354
683,37	26,329
683,55	24,912
683,74	26,218
683,92	30,892
684,11	25,620
684,29	25,610
684,48	24,998
684,67	24,649
684,85	25,057
685,04	25,934
685,22	24,344
685,41	24,254
685,59	25,879
685,78	23,303
685,96	24,746
686,15	23,824
686,33	24,891
686,52	24,772
686,70	25,088
686,89	25,819
687,07	26,494
687,26	25,342
687,44	25,429
687,62	26,128
687,81	26,623
687,99	26,324
688,18	25,305
688,36	27,474
688,55	27,986
688,73	26,156
688,92	24,867
689,10	24,657
689,29	26,461
689,47	26,632
689,66	23,526
689,84	24,024
690,03	29,027
690,21	24,381
690,40	23,977
690,58	24,398
690,76	24,323
690,95	24,465
691,13	22,991
691,32	26,027
691,50	24,711
691,69	27,303
691,87	25,380
692,06	25,450
692,24	24,965
692,43	25,539
692,61	26,149
692,79	24,437
692,98	23,083
693,16	27,399
693,35	23,955
693,53	27,490
693,72	24,926
693,90	27,976
694,08	24,330
694,27	24,716
694,45	25,952
694,64	27,785
694,82	24,725
695,01	25,562
695,19	23,674
695,37	24,279
695,56	24,433
695,74	25,840
695,93	25,736
696,11	25,133
696,29	25,202
696,48	26,179
696,66	26,460
696,85	23,822
697,03	24,073
697,21	25,571
697,40	27,560
697,58	25,770
697,77	26,325
697,95	24,862
698,13	25,788
698,32	23,815
698,50	22,979
698,69	24,520
698,87	25,964
699,05	27,495
699,24	24,408
699,42	25,170
699,60	23,112
699,79	24,386
699,97	23,433
700,16	23,108
700,34	28,398
700,52	24,946
700,71	25,038
700,89	24,223
701,07	23,862
701,26	25,305
701,44	24,132
701,63	24,731
701,81	26,418
701,99	25,700
702,18	25,457
702,36	25,154
702,54	26,366
702,73	25,993
702,91	24,434
703,09	23,770
703,28	22,760
703,46	25,781
703,64	26,208
703,83	26,576
704,01	25,886
704,19	25,689
704,38	23,831
704,56	25,210
704,74	27,609
704,93	24,403
705,11	25,312
705,29	25,018
705,48	28,515
705,66	25,945
705,84	25,790
706,03	22,803
706,21	25,033
706,39	25,251
706,58	24,144
706,76	26,699
706,94	26,631
707,12	24,938
707,31	24,519
707,49	25,169
707,67	24,918
707,86	28,573
708,04	27,113
708,22	24,601
708,41	26,727
708,59	25,023
708,77	26,181
708,95	25,924
709,14	26,874
709,32	26,321
709,50	24,395
709,69	27,106
709,87	24,864
710,05	24,923
710,23	24,635
710,42	24,300
710,60	26,130
710,78	27,888
710,97	24,535
711,15	25,322
711,33	25,661
711,51	25,504
711,70	24,752
711,88	26,183
712,06	28,731
712,24	26,687
712,43	25,317
712,61	25,110
712,79	25,673
712,97	23,997
713,16	26,212
713,34	23,545
713,52	27,189
713,70	25,946
713,89	23,802
714,07	24,219
714,25	24,778
714,43	26,355
714,62	22,431
714,80	23,245
714,98	22,206
715,16	23,421
715,35	22,605
715,53	24,982
715,71	27,728
715,89	26,634
716,07	26,145
716,26	25,248
716,44	26,849
716,62	25,968
716,80	25,189
716,99	24,591
717,17	27,542
717,35	25,379
717,53	22,717
717,71	24,570
717,90	24,384
718,08	27,095
718,26	24,730
718,44	26,998
718,62	26,518
718,81	25,762
718,99	24,012
719,17	24,659
719,35	24,811
719,53	25,109
719,72	22,364
719,90	23,324
720,08	24,825
720,26	27,614
720,44	24,269
720,62	23,441
720,81	28,526
720,99	26,933
721,17	25,162
721,35	26,141
721,53	23,276
721,72	27,045
721,90	25,375
722,08	24,650
722,26	25,972
722,44	25,081
722,62	24,120
722,81	23,036
722,99	24,843
723,17	24,672
723,35	24,814
723,53	25,513
723,71	26,422
723,89	30,151
724,08	24,806
724,26	24,595
724,44	26,467
724,62	26,325
724,80	21,510
724,98	24,415
725,16	27,335
725,35	25,927
725,53	25,531
725,71	25,373
725,89	24,956
726,07	30,533
726,25	27,874
726,43	22,409
726,61	25,059
726,80	26,469
726,98	24,652
727,16	23,406
727,34	25,821
727,52	24,300
727,70	25,424
727,88	26,058
728,06	21,416
728,25	23,144
728,43	23,150
728,61	24,849
728,79	23,763
728,97	26,114
729,15	25,262
729,33	28,121
729,51	26,856
729,69	24,949
729,87	25,634
730,06	26,693
730,24	25,443
730,42	27,331
730,60	24,908
730,78	26,177
730,96	23,643
731,14	26,545
731,32	24,377
731,50	24,423
731,68	23,955
731,86	28,324
732,04	25,320
732,22	25,411
732,41	31,845
732,59	24,986
732,77	26,000
732,95	25,216
733,13	26,181
733,31	27,143
733,49	23,495
733,67	26,472
733,85	27,054
734,03	25,569
734,21	24,445
734,39	25,565
734,57	25,282
734,75	27,223
734,93	23,584
735,11	26,898
735,29	23,233
735,47	25,641
735,65	23,544
735,84	23,956
736,02	24,823
736,20	27,530
736,38	24,243
736,56	26,017
736,74	24,320
736,92	24,495
737,10	24,372
737,28	26,106
737,46	24,852
737,64	25,302
737,82	23,937
738,00	26,906
738,18	25,310
738,36	27,391
738,54	24,979
738,72	25,230
738,90	26,574
739,08	25,280
739,26	23,896
739,44	26,499
739,62	29,171
739,80	25,490
739,98	25,063
740,16	24,468
740,34	25,340
740,52	28,761
740,70	23,919
740,88	25,486
741,06	27,475
741,24	25,924
741,42	24,917
741,60	23,867
741,78	26,413
741,96	26,194
742,14	27,005
742,32	24,293
742,50	24,144
742,68	26,698
742,86	25,163
743,04	22,654
743,21	27,864
743,39	24,694
743,57	24,784
743,75	25,744
743,93	23,676
744,11	20,964
744,29	24,759
744,47	24,270
744,65	25,715
744,83	24,167
745,01	23,237
745,19	23,456
745,37	29,291
745,55	27,274
745,73	27,448
745,91	24,661
746,09	25,481
746,27	24,341
746,45	24,676
746,62	25,022
746,80	24,617
746,98	24,528
747,16	22,354
747,34	23,636
747,52	23,456
747,70	26,526
747,88	25,440
748,06	27,685
748,24	26,562
748,42	28,273
748,60	23,890
748,78	22,516
748,95	27,745
749,13	30,258
749,31	24,639
749,49	24,369
749,67	26,431
749,85	25,612
750,03	26,015
750,21	25,653
750,39	25,380
750,57	23,103
750,74	26,279
750,92	25,161
751,10	27,130
751,28	23,194
751,46	26,299
751,64	25,503
751,82	26,106
752,00	26,565
752,17	26,965
752,35	27,360
752,53	25,937
752,71	26,155
752,89	25,429
753,07	23,773
753,25	24,774
753,43	23,342
753,60	26,615
753,78	25,258
753,96	26,395
754,14	26,864
754,32	28,353
754,50	25,817
754,68	26,453
754,85	24,027
755,03	26,409
755,21	27,266
755,39	28,957
755,57	26,500
755,75	27,036
755,92	25,376
756,10	24,640
756,28	24,727
756,46	25,298
756,64	25,753
756,82	26,407
756,99	24,539
757,17	23,065
757,35	23,311
757,53	29,327
757,71	29,232
757,89	23,317
758,06	26,238
758,24	26,640
758,42	26,745
758,60	24,079
758,78	26,339
758,95	27,270
759,13	25,858
759,31	26,439
759,49	23,474
759,67	26,229
759,84	24,226
760,02	26,008
760,20	24,157
760,38	26,901
760,56	22,983
760,73	23,745
760,91	24,953
761,09	27,550
761,27	24,001
761,45	26,176
761,62	21,544
761,80	24,905
761,98	25,325
762,16	27,893
762,33	23,582
762,51	24,858
762,69	23,692
762,87	25,660
763,05	26,504
763,22	24,642
763,40	26,052
763,58	25,499
763,76	24,208
763,93	26,854
764,11	27,532
764,29	26,454
764,47	25,688
764,64	28,443
764,82	27,956
765,00	25,935
765,18	23,700
765,35	24,652
765,53	23,125
765,71	27,978
765,89	24,631
766,06	24,337
766,24	26,040
766,42	24,818
766,60	23,515
766,77	24,147
766,95	24,333
767,13	26,012
767,30	24,987
767,48	24,159
767,66	24,056
767,84	23,522
768,01	25,318
768,19	25,364
768,37	24,169
768,54	24,467
768,72	25,955
768,90	24,313
769,08	24,424
769,25	25,376
769,43	25,666
769,61	24,042
769,78	26,234
769,96	25,000
770,14	25,195
770,31	28,633
770,49	28,778
770,67	24,893
770,85	24,517
771,02	26,827
771,20	24,909
771,38	26,123
771,55	25,879
771,73	22,203
771,91	27,036
772,08	26,622
772,26	24,915
772,44	25,489
772,61	27,629
772,79	25,197
772,97	23,546
773,14	23,827
773,32	25,963
773,50	24,495
773,67	26,551
773,85	27,566
774,03	28,161
774,20	26,298
774,38	25,970
774,56	26,770
774,73	22,781
774,91	23,557
775,09	24,731
775,26	26,275
775,44	27,300
775,61	25,980
775,79	24,330
775,97	26,761
776,14	25,089
776,32	26,591
776,50	26,162
776,67	25,633
776,85	25,590
777,03	20,689
777,20	26,725
777,38	27,268
777,55	26,511
777,73	25,902
777,91	22,617
778,08	25,663
778,26	24,384
778,43	26,904
778,61	24,420
778,79	22,606
778,96	28,172
779,14	23,935
779,32	24,946
779,49	23,723
779,67	28,207
779,84	23,600
780,02	26,876
780,20	23,616
780,37	28,279
780,55	20,548
780,72	24,884
780,90	24,501
781,07	25,745
781,25	29,109
781,43	26,054
781,60	25,843
781,78	26,343
781,95	27,049
782,13	24,398
782,30	26,809
782,48	27,272
782,66	25,349
782,83	25,044
783,01	31,174
783,18	27,071
783,36	29,911
783,53	27,555
783,71	23,334
783,89	25,390
784,06	25,711
784,24	25,672
784,41	25,913
784,59	23,081
784,76	30,926
784,94	22,518
785,11	28,025
785,29	24,988
785,46	25,146
785,64	23,173
785,82	27,566
785,99	28,953
786,17	28,858
786,34	22,164
786,52	29,033
786,69	27,896
786,87	26,583
787,04	24,851
787,22	24,270
787,39	26,114
787,57	29,575
787,74	24,313
787,92	29,728
788,09	28,280
788,27	27,660
788,44	24,962
788,62	30,288
788,79	24,887
788,97	24,797
789,14	25,544
789,32	26,290
789,49	24,718
789,67	27,590
789,84	24,216
790,02	28,421
790,19	22,677
790,37	28,628
790,54	25,091
790,72	31,516
790,89	26,305
791,07	29,797
791,24	22,137
791,42	27,272
791,59	29,903
791,77	25,341
791,94	26,077
792,12	24,098
792,29	27,535
792,47	26,459
792,64	26,480
792,81	28,300
792,99	23,104
793,16	25,155
793,34	26,652
793,51	26,889
793,69	28,387
793,86	25,707
794,04	27,280
794,21	26,397
794,39	22,793
794,56	25,582
794,73	29,500
794,91	29,414
795,08	26,048
795,26	24,874
795,43	23,111
795,61	29,796
795,78	24,400
795,95	27,574
796,13	28,457
796,30	28,646
796,48	24,912
796,65	22,475
796,83	28,780
797,00	29,390
797,17	24,624
797,35	24,859
797,52	24,752
797,70	27,731
797,87	26,643
798,04	29,530
798,22	23,065
798,39	25,274
798,57	25,934
798,74	27,308
798,91	22,300
799,09	27,050
799,26	26,602
799,44	27,816
799,61	23,288
799,78	24,673
799,96	29,992
800,13	22,639
800,31	30,563
800,48	28,368
800,65	30,748
800,83	28,513
801,00	25,814
801,17	26,709
801,35	30,362
801,52	30,845
801,70	29,279
801,87	27,060
802,04	29,314
802,22	22,380
802,39	28,331
802,56	29,507
802,74	28,214
802,91	25,225
803,08	25,124
803,26	29,049
803,43	30,598
803,61	22,745
803,78	26,593
803,95	30,114
804,13	27,611
804,30	21,459
804,47	28,695
804,65	27,679
804,82	28,533
804,99	29,251
805,17	24,377
805,34	33,812
805,51	29,065
805,69	26,784
805,86	30,967
806,03	33,178
806,21	31,672
806,38	30,521
806,55	24,813
806,72	28,835
806,90	33,013
807,07	27,664
807,24	24,079
807,42	22,078
807,59	27,504
807,76	23,878
807,94	28,633
808,11	32,030
808,28	30,719
808,45	26,982
808,63	26,470
808,80	31,201
808,97	27,241
809,15	27,790
809,32	27,358
809,49	25,300
809,67	27,752
809,84	29,501
810,01	31,424
810,18	38,366
810,36	30,175
810,53	26,833
810,70	30,474
810,87	25,924
811,05	28,209
811,22	29,515
811,39	26,392
811,57	28,338
811,74	25,519
811,91	30,041
812,08	25,558
812,26	27,246
812,43	23,955
812,60	32,738
812,77	28,935
812,95	27,813
813,12	28,401
813,29	26,821
813,46	28,091
813,64	30,225
813,81	30,331
813,98	29,883
814,15	30,729
814,32	34,428
814,50	28,725
814,67	27,220
814,84	31,658
815,01	28,834
815,19	25,407
815,36	27,400
815,53	28,440
815,70	26,768
815,87	26,246
816,05	26,039
816,22	29,342
816,39	32,003
816,56	33,157
816,74	32,651
816,91	31,634
817,08	32,293
817,25	36,763
817,42	32,263
817,60	31,234
817,77	34,167
817,94	24,459
818,11	25,314
818,28	23,928
818,45	31,269
818,63	29,550
818,80	29,802
818,97	26,646
819,14	32,521
819,31	36,295
819,49	29,842
819,66	21,651
819,83	34,779
820,00	35,479
820,17	26,326
820,34	26,836
820,52	32,327
820,69	32,241
820,86	29,784
821,03	30,956
821,20	31,851
821,37	34,851
821,55	28,238
821,72	25,941
821,89	31,869
822,06	35,929
822,23	26,866
822,40	26,186
822,57	32,075
822,75	32,578
822,92	20,279
823,09	32,042
823,26	32,682
823,43	35,195
823,60	27,894
823,77	26,775
823,94	32,993
824,12	34,157
824,29	26,278
824,46	36,433
824,63	38,785
824,80	33,450
824,97	28,025
825,14	26,811
825,31	33,152
825,49	28,562
825,66	13,673
825,83	27,486
826,00	29,719
826,17	41,173
826,34	31,323
826,51	25,019
826,68	29,165
826,85	28,296
827,02	22,727
827,20	30,595
827,37	27,287
827,54	31,038
827,71	32,224
827,88	31,306
828,05	29,573
828,22	33,684
828,39	28,966
828,56	32,046
828,73	30,184
828,90	30,699
829,07	30,962
829,25	30,906
829,42	27,159
829,59	25,218
829,76	23,966
829,93	28,720
830,10	29,404
830,27	29,145
830,44	26,953
830,61	20,120
830,78	26,203
830,95	33,251
831,12	28,464
831,29	28,975
831,46	22,678
831,63	24,153
831,80	34,217
831,97	25,078
832,14	35,777
832,31	35,496
832,48	25,353
832,65	30,255
832,83	27,158
833,00	31,524
833,17	25,236
833,34	34,099
833,51	33,874
833,68	37,012
833,85	29,133
834,02	28,695
834,19	37,604
834,36	31,156
834,53	26,417
834,70	28,978
834,87	43,521
835,04	30,072
835,21	30,756
835,38	30,919
835,55	23,961
835,72	40,960
835,89	27,324
836,06	29,265
836,23	43,972
836,40	30,432
836,57	30,142
836,74	28,816
836,91	34,844
837,08	42,405
837,25	27,676
837,42	28,276
837,59	20,337
837,76	34,725
837,93	35,726
838,09	33,669
838,26	27,706
838,43	40,959
838,60	38,690
838,77	29,911
838,94	33,777
839,11	50,873
839,28	34,817
839,45	31,115
839,62	25,075
839,79	25,635
839,96	33,334
840,13	33,453
840,30	27,698
840,47	24,366
840,64	36,642
840,81	26,657
840,98	31,867
841,15	42,995
841,32	25,874
841,48	35,058
841,65	31,012
841,82	29,839
841,99	28,768
842,16	36,478
842,33	28,923
842,50	37,413
842,67	15,609
842,84	27,039
843,01	35,752
843,18	25,714
843,35	39,370
843,52	26,692
843,68	35,670
843,85	28,672
844,02	22,074
844,19	26,802
844,36	34,927
844,53	25,270
844,70	21,980
844,87	46,510
845,04	34,673
845,21	21,293
845,37	42,251
845,54	31,286
845,71	32,263
845,88	54,838
846,05	28,140
846,22	21,457
846,39	32,833
846,56	40,218
846,72	14,874
846,89	36,582
847,06	45,551
847,23	33,645
847,40	22,490
847,57	29,615
847,74	28,675
847,90	47,465
848,07	32,743
848,24	35,104
848,41	43,306
848,58	46,132
848,75	39,014
848,92	23,028
849,08	33,779
849,25	19,744
849,42	23,593
849,59	28,384
849,76	28,917
849,93	38,432
850,09	39,362
850,26	15,292
850,43	52,585
850,60	19,582
850,77	21,157
850,94	33,000
851,10	33,612
851,27	28,552
851,44	40,741
851,61	26,655
851,78	52,714
851,95	45,061
852,11	31,729
852,28	23,892
852,45	49,999
852,62	47,216
852,79	43,329
852,95	28,045
853,12	46,517
853,29	33,633
853,46	29,501
853,63	42,662
853,79	27,721
853,96	32,106
854,13	44,957
854,30	34,470
854,46	50,507
854,63	20,769
854,80	32,500
854,97	20,750
855,14	61,713
855,30	48,484
855,47	37,035
855,64	38,618
855,81	27,396
855,97	44,955
856,14	28,920
856,31	20,549
856,48	43,055
856,65	51,555
856,81	41,165
856,98	22,108
857,15	21,425
857,32	56,005
857,48	24,286
857,65	48,383
857,82	47,373
857,99	41,464
858,15	46,167
858,32	39,038
858,49	25,297
858,65	52,159
858,82	36,291
858,99	40,825
859,16	42,770
859,32	38,215
859,49	50,240
859,66	50,136
859,83	31,725
859,99	31,901
860,16	25,664
860,33	36,609
860,49	43,851
860,66	40,730
860,83	32,041
861,00	34,833
861,16	57,213
861,33	51,723
861,50	25,558
861,66	44,091
861,83	42,764
862,00	38,997
862,16	24,734
862,33	44,761
862,50	75,439
862,67	36,962
862,83	35,550
863,00	43,284
863,17	50,097
863,33	44,558
863,50	19,105
863,67	42,800
863,83	52,683
864,00	52,253
864,17	29,429
864,33	24,116
864,50	32,863
864,67	48,430
864,83	29,193
865,00	38,369
865,17	26,956
865,33	55,703
865,50	31,923
865,67	29,971
865,83	46,826
866,00	64,291
866,17	43,506
866,33	46,441
866,50	44,985
866,66	47,159
866,83	39,022
867,00	44,023
867,16	74,915
867,33	84,069
867,50	36,478
867,66	41,202
867,83	43,544
868,00	32,947
868,16	27,716
868,33	42,214
868,49	26,054
868,66	61,116
868,83	35,175
868,99	50,729
869,16	79,822
869,32	69,554
869,49	39,976
869,66	28,886
869,82	72,464
869,99	64,096
870,15	40,067
870,32	44,813
870,49	109,575
870,65	76,234
870,82	51,874
870,98	59,110
871,15	82,463
871,32	73,751
871,48	43,707
871,65	42,908
871,81	61,652
871,98	24,610
872,15	22,560
872,31	33,877
872,48	78,136
872,64	35,834
872,81	37,476
872,97	31,103
873,14	97,137
873,31	72,225
873,47	43,205
873,64	73,023
873,80	110,516
873,97	88,790
874,13	40,416
874,30	34,238
874,46	56,679
874,63	64,744
874,80	18,325
874,96	63,084
875,13	73,379
875,29	36,760
875,46	67,047
875,62	39,689
875,79	104,378
875,95	57,211
876,12	30,775
876,28	19,182
876,45	86,041
876,61	23,480
876,78	42,324
876,94	10,563
877,11	71,743
877,27	129,698
877,44	68,738
877,60	51,721
877,77	60,373
877,94	143,366
878,10	36,457
878,27	84,484
878,43	118,931
878,60	69,593
878,76	36,782
878,93	79,749
879,09	43,194
879,26	127,578
879,42	82,528
879,58	66,745
879,75	92,986
879,91	123,932
880,08	29,020
880,24	57,136
880,41	12,931
880,57	75,451
880,74	136,949
880,90	45,287
881,07	42,002
881,23	153,963
881,40	64,430
881,56	49,722
881,73	140,653
881,89	87,552
882,06	42,809
882,22	124,529
882,38	102,299
882,55	151,724
882,71	70,346
882,88	52,465
883,04	79,326
883,21	138,372
883,37	107,276
883,54	77,024
883,70	199,122
883,86	133,200
884,03	107,189
884,19	47,367
884,36	107,907
884,52	145,821
884,69	155,231
884,85	59,328
885,01	86,816
885,18	135,132
885,34	91,642
885,51	29,705
885,67	92,530
>>>>> Data<<<<< Espectral Procesado Extremo
