Fichero De Datos De SpectraSuite
++++++++++++++++++++++++++++++++++++
Fecha: Wed Apr 22 09:00:31 CEST 2009
Usuario: evoflor
Presente Oscuro Del Espectro: Sí
La Referencia de Presente Del Espectro De: Sí
Muestreados de los componentes de Número de espectros: 1
Espectrómetros: USB4F02353
Tiempo de integración (usec): 500000 (USB4F02353)
Promedio de Espectros Hechos un: 5 (USB4F02353)
El Alisar Del Furgón: 0 (USB4F02353)
Párrafo de de Corregir del la del del de Eléctrica del obscuridad: Sí (USB4F02353)
Estrobo/Lámpara Permitido: No (USB4F02353)
Correct for Detector Non-linearity: No (USB4F02353)
Párrafo de de Corregir del la del del de Externa del luz: No (USB4F02353)
Procesado del espectro de Número de pixeles en: 3648
>>>>> Comienza Data<<<<< Espectral Procesado Del EL
177,79	884,389
178,00	884,389
178,22	884,389
178,44	-9097,330
178,66	522,845
178,88	275,872
179,09	529,820
179,31	154,263
179,53	-5981,745
179,75	494,542
179,96	-415,256
180,18	278,380
180,40	-379,141
180,62	-216,636
180,83	309,294
181,05	-1030,035
181,27	-663,123
181,49	128,827
181,70	-120,520
181,92	330,256
182,14	143,262
182,36	-1026,293
182,58	200,133
182,79	-846,412
183,01	-10583,366
183,23	344,278
183,45	-95,930
183,66	151,883
183,88	719,065
184,10	660,443
184,32	1074,890
184,53	-380,643
184,75	613,747
184,97	-127,434
185,18	924,800
185,40	208,376
185,62	-379,422
185,84	395,327
186,05	2928,855
186,27	-6374,397
186,49	-938,680
186,71	281,939
186,92	453,906
187,14	1743,589
187,36	318,497
187,58	1102,926
187,79	-970,420
188,01	-1453,042
188,23	140,630
188,45	74,706
188,66	-54,006
188,88	196,578
189,10	-343,003
189,31	-87,892
189,53	-138,860
189,75	1152,283
189,97	99,220
190,18	446,630
190,40	1665,555
190,62	191,789
190,83	516,407
191,05	-122,997
191,27	6625,835
191,49	550,531
191,70	766,214
191,92	497,784
192,14	421,517
192,35	-2215,895
192,57	-1021,772
192,79	-2494,692
193,01	588,099
193,22	-774,419
193,44	-454,313
193,66	380,416
193,87	1224,870
194,09	166,074
194,31	265,143
194,53	-437,743
194,74	317,641
194,96	48,450
195,18	629,255
195,39	-1277,115
195,61	-324,582
195,83	2578,693
196,04	265,495
196,26	157,732
196,48	2067,981
196,70	446,236
196,91	241,647
197,13	-63,882
197,35	291,410
197,56	-736,364
197,78	6890,690
198,00	592,477
198,21	235,564
198,43	815,352
198,65	257,360
198,86	124,845
199,08	528,738
199,30	297,219
199,51	1141,008
199,73	-2285,538
199,95	223,673
200,16	647,768
200,38	192,300
200,60	2505,896
200,81	-532,389
201,03	13129,665
201,25	698,793
201,46	-450,882
201,68	484,323
201,90	548,857
202,11	296,884
202,33	201,949
202,55	113,490
202,76	680,195
202,98	668,443
203,20	278,900
203,41	-1654,738
203,63	629,882
203,85	241,984
204,06	-798,905
204,28	240,763
204,50	-308,877
204,71	496,105
204,93	157,543
205,15	141,468
205,36	-164,370
205,58	2197,012
205,80	-2887,165
206,01	-5581,409
206,23	301,398
206,45	445,584
206,66	459,225
206,88	-408,634
207,10	3454,275
207,31	-52980,795
207,53	225,311
207,75	304,795
207,96	386,877
208,18	221,561
208,39	204,002
208,61	648,252
208,83	7855,867
209,04	414,131
209,26	450,722
209,48	87,919
209,69	-77,145
209,91	1053,795
210,13	79,448
210,34	92,602
210,56	340,775
210,77	1806,739
210,99	296,779
211,21	-457,261
211,42	223,161
211,64	652,897
211,86	328,651
212,07	152,250
212,29	613,870
212,50	1155,296
212,72	200,709
212,94	151,568
213,15	246,754
213,37	519,223
213,58	177,064
213,80	323,507
214,02	3407,995
214,23	245,946
214,45	244,012
214,67	54,630
214,88	-9,938
215,10	1150,459
215,31	-475,673
215,53	130,592
215,75	348,537
215,96	556,397
216,18	133,248
216,39	274,476
216,61	536,312
216,83	1058,577
217,04	323,774
217,26	85,740
217,47	900,000
217,69	340,265
217,91	91,462
218,12	1382,640
218,34	138,116
218,55	231,911
218,77	47,482
218,99	140,852
219,20	219,853
219,42	532,789
219,63	106,913
219,85	297,182
220,06	-83,626
220,28	149,194
220,50	75,810
220,71	70,247
220,93	483,899
221,14	388,043
221,36	111,419
221,58	137,109
221,79	129,227
222,01	273,479
222,22	170,450
222,44	73,245
222,65	256,308
222,87	96,079
223,09	74,404
223,30	132,427
223,52	125,619
223,73	79,110
223,95	121,199
224,16	48,643
224,38	54,408
224,60	80,044
224,81	-79,812
225,03	88,274
225,24	84,961
225,46	12,663
225,67	22,116
225,89	89,442
226,10	145,341
226,32	47,713
226,54	0,543
226,75	4,848
226,97	172,899
227,18	100,718
227,40	96,336
227,61	51,783
227,83	58,135
228,04	88,544
228,26	62,031
228,47	35,559
228,69	81,029
228,91	37,233
229,12	109,395
229,34	35,278
229,55	74,037
229,77	53,668
229,98	22,904
230,20	29,258
230,41	4,427
230,63	69,055
230,84	54,212
231,06	59,059
231,27	2,119
231,49	29,984
231,71	34,958
231,92	13,069
232,14	-9,137
232,35	36,631
232,57	11,206
232,78	15,091
233,00	37,974
233,21	20,942
233,43	19,090
233,64	12,558
233,86	27,480
234,07	36,552
234,29	5,634
234,50	15,174
234,72	35,683
234,93	9,031
235,15	2,456
235,36	11,121
235,58	42,036
235,79	27,096
236,01	14,146
236,22	28,175
236,44	36,248
236,65	14,262
236,87	21,556
237,08	7,536
237,30	-9,915
237,51	26,880
237,73	19,236
237,94	9,608
238,16	18,938
238,37	11,253
238,59	0,321
238,80	10,234
239,02	10,707
239,23	27,281
239,45	9,607
239,66	21,039
239,88	22,321
240,09	19,794
240,31	7,195
240,52	0,484
240,74	17,117
240,95	13,485
241,17	11,307
241,38	11,794
241,60	2,181
241,81	23,309
242,03	-1,124
242,24	10,083
242,46	16,180
242,67	-3,804
242,89	18,951
243,10	13,654
243,32	17,270
243,53	15,234
243,75	4,929
243,96	12,811
244,18	13,344
244,39	15,601
244,60	3,323
244,82	6,356
245,03	14,969
245,25	9,904
245,46	25,305
245,68	5,865
245,89	31,947
246,11	21,235
246,32	15,647
246,54	11,053
246,75	6,397
246,97	18,910
247,18	20,074
247,39	8,257
247,61	14,898
247,82	15,499
248,04	3,813
248,25	7,892
248,47	10,286
248,68	11,277
248,90	4,862
249,11	9,445
249,33	20,424
249,54	9,453
249,75	11,722
249,97	6,283
250,18	18,525
250,40	16,404
250,61	9,041
250,83	2,649
251,04	9,565
251,25	14,357
251,47	14,631
251,68	5,038
251,90	13,782
252,11	8,671
252,33	7,231
252,54	5,881
252,76	1,343
252,97	2,131
253,18	8,589
253,40	9,431
253,61	6,149
253,83	9,265
254,04	9,842
254,25	2,967
254,47	1,181
254,68	9,583
254,90	7,255
255,11	3,496
255,33	10,215
255,54	5,402
255,75	7,219
255,97	8,876
256,18	2,453
256,40	7,578
256,61	10,293
256,82	5,691
257,04	12,142
257,25	5,668
257,47	8,394
257,68	12,957
257,89	6,498
258,11	7,920
258,32	13,300
258,54	2,069
258,75	17,451
258,96	11,516
259,18	9,702
259,39	4,049
259,61	10,890
259,82	3,667
260,03	3,266
260,25	8,676
260,46	7,380
260,68	8,338
260,89	6,111
261,10	7,042
261,32	4,655
261,53	1,438
261,75	9,682
261,96	6,844
262,17	19,868
262,39	11,261
262,60	3,630
262,81	6,442
263,03	14,485
263,24	7,652
263,46	4,951
263,67	9,471
263,88	10,428
264,10	5,070
264,31	5,842
264,52	5,674
264,74	9,321
264,95	6,977
265,17	10,136
265,38	9,051
265,59	14,411
265,81	10,012
266,02	2,605
266,23	0,627
266,45	12,207
266,66	13,177
266,87	7,426
267,09	6,265
267,30	13,324
267,52	12,919
267,73	8,271
267,94	5,095
268,16	7,341
268,37	2,720
268,58	9,364
268,80	1,179
269,01	6,871
269,22	10,411
269,44	11,249
269,65	9,244
269,86	4,702
270,08	6,847
270,29	2,627
270,50	6,017
270,72	9,464
270,93	6,889
271,14	6,833
271,36	6,210
271,57	9,724
271,78	6,396
272,00	7,991
272,21	8,608
272,42	8,503
272,64	13,013
272,85	5,331
273,06	3,207
273,28	8,180
273,49	3,889
273,70	8,149
273,92	9,052
274,13	5,490
274,34	0,701
274,56	9,504
274,77	6,164
274,98	13,950
275,20	10,583
275,41	8,795
275,62	3,382
275,84	7,327
276,05	14,668
276,26	4,822
276,47	4,921
276,69	9,737
276,90	11,896
277,11	5,091
277,33	3,183
277,54	11,781
277,75	9,523
277,97	3,570
278,18	5,608
278,39	11,862
278,61	4,575
278,82	14,047
279,03	8,799
279,24	5,351
279,46	8,264
279,67	12,371
279,88	8,679
280,10	10,777
280,31	5,808
280,52	2,153
280,73	4,595
280,95	7,803
281,16	6,354
281,37	6,063
281,59	7,308
281,80	10,586
282,01	5,587
282,22	3,849
282,44	5,439
282,65	11,722
282,86	6,850
283,08	5,560
283,29	5,772
283,50	3,356
283,71	10,080
283,93	5,930
284,14	5,159
284,35	6,405
284,56	5,516
284,78	1,695
284,99	7,850
285,20	12,183
285,42	4,549
285,63	5,754
285,84	1,813
286,05	4,689
286,27	6,191
286,48	8,934
286,69	9,630
286,90	5,392
287,12	5,594
287,33	5,234
287,54	4,983
287,75	11,292
287,97	4,705
288,18	5,555
288,39	6,283
288,60	6,725
288,82	7,462
289,03	5,958
289,24	7,693
289,45	11,427
289,67	7,759
289,88	4,613
290,09	10,025
290,30	5,863
290,52	3,702
290,73	2,927
290,94	4,574
291,15	4,788
291,37	8,331
291,58	4,002
291,79	8,087
292,00	6,562
292,21	6,770
292,43	6,419
292,64	2,367
292,85	7,529
293,06	9,498
293,28	5,146
293,49	6,139
293,70	9,625
293,91	1,254
294,12	5,883
294,34	5,324
294,55	8,029
294,76	8,842
294,97	8,487
295,19	5,620
295,40	5,439
295,61	6,589
295,82	7,726
296,03	6,503
296,25	7,987
296,46	3,511
296,67	3,569
296,88	6,985
297,09	4,325
297,31	3,486
297,52	7,171
297,73	4,518
297,94	4,008
298,15	6,762
298,37	3,929
298,58	4,527
298,79	6,081
299,00	0,408
299,21	5,382
299,43	3,022
299,64	10,304
299,85	5,139
300,06	2,534
300,27	3,379
300,49	8,513
300,70	8,370
300,91	3,137
301,12	5,229
301,33	9,514
301,54	4,027
301,76	8,270
301,97	5,028
302,18	7,277
302,39	9,417
302,60	6,276
302,82	3,912
303,03	12,350
303,24	5,478
303,45	6,840
303,66	7,305
303,87	2,637
304,09	7,762
304,30	2,698
304,51	4,694
304,72	2,947
304,93	7,193
305,14	5,165
305,36	4,193
305,57	3,264
305,78	7,357
305,99	6,209
306,20	6,539
306,41	4,460
306,62	3,579
306,84	4,834
307,05	6,879
307,26	4,666
307,47	10,420
307,68	5,353
307,89	4,685
308,11	7,258
308,32	6,608
308,53	3,297
308,74	2,868
308,95	3,294
309,16	9,185
309,37	5,232
309,59	3,189
309,80	5,554
310,01	6,684
310,22	6,612
310,43	8,541
310,64	8,556
310,85	7,062
311,06	3,195
311,28	7,408
311,49	6,192
311,70	9,611
311,91	5,445
312,12	2,926
312,33	3,863
312,54	5,680
312,75	10,053
312,97	4,303
313,18	8,059
313,39	2,297
313,60	6,597
313,81	2,225
314,02	6,181
314,23	8,498
314,44	5,692
314,65	4,054
314,87	3,224
315,08	4,020
315,29	4,571
315,50	7,922
315,71	10,730
315,92	10,105
316,13	2,802
316,34	5,268
316,55	7,376
316,77	2,104
316,98	3,350
317,19	3,871
317,40	8,049
317,61	9,308
317,82	7,109
318,03	2,285
318,24	5,286
318,45	10,893
318,66	6,901
318,87	3,519
319,09	6,221
319,30	6,180
319,51	7,336
319,72	7,537
319,93	7,439
320,14	9,463
320,35	7,898
320,56	3,317
320,77	6,853
320,98	9,423
321,19	9,307
321,40	7,341
321,62	4,821
321,83	-0,344
322,04	6,295
322,25	7,075
322,46	11,039
322,67	8,062
322,88	9,637
323,09	7,186
323,30	9,637
323,51	10,218
323,72	6,268
323,93	3,506
324,14	5,151
324,35	0,821
324,56	4,964
324,77	4,305
324,99	6,042
325,20	4,135
325,41	6,392
325,62	5,377
325,83	1,582
326,04	3,158
326,25	5,604
326,46	3,008
326,67	7,566
326,88	5,299
327,09	4,046
327,30	5,136
327,51	5,258
327,72	5,299
327,93	5,445
328,14	1,621
328,35	6,726
328,56	6,191
328,77	9,417
328,98	7,109
329,19	4,111
329,40	7,029
329,61	4,198
329,82	3,026
330,04	8,387
330,25	7,161
330,46	7,857
330,67	4,636
330,88	7,768
331,09	3,643
331,30	7,206
331,51	6,451
331,72	8,909
331,93	5,478
332,14	3,140
332,35	7,400
332,56	4,270
332,77	10,798
332,98	5,460
333,19	5,327
333,40	6,034
333,61	4,369
333,82	6,855
334,03	6,790
334,24	12,360
334,45	6,963
334,66	7,553
334,87	6,395
335,08	2,495
335,29	3,357
335,50	5,327
335,71	4,570
335,92	7,524
336,13	7,351
336,34	2,446
336,55	5,973
336,76	7,205
336,97	4,827
337,18	3,977
337,39	5,811
337,60	7,744
337,81	5,439
338,02	7,400
338,23	5,164
338,44	6,072
338,65	2,243
338,86	7,638
339,07	5,983
339,28	3,690
339,49	5,661
339,70	3,111
339,91	3,173
340,11	10,888
340,32	3,946
340,53	3,552
340,74	3,737
340,95	4,229
341,16	4,010
341,37	7,666
341,58	5,949
341,79	3,590
342,00	5,003
342,21	0,242
342,42	5,456
342,63	9,206
342,84	7,132
343,05	4,015
343,26	8,564
343,47	7,585
343,68	4,248
343,89	3,115
344,10	3,855
344,31	5,706
344,52	6,116
344,73	2,249
344,94	2,756
345,14	5,945
345,35	2,999
345,56	1,304
345,77	2,720
345,98	5,574
346,19	6,078
346,40	8,206
346,61	1,525
346,82	6,678
347,03	10,148
347,24	2,732
347,45	6,088
347,66	9,065
347,87	2,453
348,08	11,335
348,28	4,276
348,49	5,455
348,70	6,557
348,91	6,285
349,12	5,478
349,33	1,031
349,54	6,369
349,75	6,246
349,96	5,341
350,17	7,750
350,38	2,159
350,59	4,072
350,80	3,927
351,00	3,722
351,21	11,459
351,42	3,548
351,63	5,918
351,84	5,460
352,05	6,793
352,26	5,875
352,47	6,436
352,68	8,260
352,89	6,130
353,09	3,775
353,30	2,934
353,51	2,931
353,72	10,490
353,93	9,156
354,14	5,325
354,35	5,870
354,56	8,757
354,77	2,491
354,98	3,742
355,18	8,661
355,39	10,583
355,60	2,220
355,81	7,529
356,02	5,240
356,23	3,771
356,44	6,862
356,65	4,928
356,85	9,070
357,06	9,490
357,27	7,276
357,48	2,651
357,69	8,848
357,90	8,332
358,11	-0,795
358,32	2,960
358,52	7,533
358,73	4,679
358,94	3,863
359,15	6,028
359,36	7,959
359,57	5,718
359,78	9,489
359,98	7,948
360,19	2,697
360,40	4,741
360,61	10,558
360,82	3,438
361,03	13,786
361,24	17,461
361,44	3,980
361,65	7,708
361,86	4,277
362,07	8,243
362,28	11,164
362,49	7,714
362,70	7,405
362,90	5,477
363,11	3,524
363,32	1,844
363,53	5,261
363,74	12,514
363,95	8,907
364,15	5,252
364,36	9,647
364,57	3,760
364,78	4,828
364,99	3,333
365,20	8,383
365,40	10,153
365,61	5,982
365,82	4,711
366,03	11,074
366,24	3,434
366,45	0,958
366,65	2,569
366,86	6,797
367,07	4,808
367,28	1,477
367,49	4,690
367,69	10,116
367,90	6,030
368,11	7,309
368,32	3,608
368,53	9,429
368,73	5,322
368,94	6,160
369,15	7,908
369,36	8,965
369,57	6,880
369,78	5,659
369,98	8,305
370,19	10,682
370,40	2,757
370,61	6,393
370,82	7,789
371,02	12,240
371,23	6,540
371,44	4,353
371,65	3,654
371,85	12,311
372,06	3,117
372,27	7,004
372,48	5,129
372,69	9,961
372,89	7,124
373,10	6,075
373,31	7,278
373,52	7,415
373,73	10,066
373,93	7,960
374,14	4,622
374,35	8,395
374,56	6,472
374,76	7,164
374,97	6,794
375,18	10,616
375,39	7,308
375,60	8,790
375,80	3,875
376,01	4,887
376,22	9,941
376,43	7,688
376,63	8,891
376,84	8,695
377,05	8,290
377,26	5,838
377,46	5,905
377,67	5,219
377,88	4,046
378,09	7,930
378,29	8,005
378,50	5,611
378,71	7,056
378,92	4,301
379,12	3,566
379,33	5,738
379,54	7,240
379,75	9,370
379,95	7,634
380,16	8,878
380,37	9,227
380,58	4,155
380,78	10,219
380,99	4,322
381,20	7,506
381,41	9,659
381,61	6,107
381,82	7,103
382,03	9,961
382,24	10,059
382,44	7,431
382,65	9,718
382,86	11,608
383,06	12,347
383,27	6,977
383,48	8,823
383,69	7,304
383,89	5,701
384,10	5,822
384,31	7,076
384,51	12,897
384,72	12,323
384,93	6,649
385,14	4,406
385,34	5,522
385,55	5,341
385,76	3,515
385,96	11,616
386,17	7,408
386,38	5,090
386,59	13,374
386,79	8,735
387,00	14,819
387,21	13,323
387,41	9,524
387,62	9,941
387,83	10,630
388,03	8,135
388,24	9,269
388,45	10,623
388,66	9,451
388,86	7,612
389,07	6,916
389,28	18,760
389,48	11,030
389,69	8,271
389,90	5,039
390,10	7,746
390,31	12,516
390,52	9,484
390,72	8,157
390,93	9,765
391,14	10,862
391,34	12,385
391,55	11,542
391,76	13,677
391,96	17,358
392,17	9,580
392,38	9,994
392,58	11,063
392,79	8,264
393,00	9,660
393,20	9,652
393,41	10,937
393,62	16,395
393,82	11,568
394,03	12,391
394,24	12,438
394,44	13,503
394,65	14,015
394,86	11,148
395,06	16,242
395,27	11,858
395,48	12,938
395,68	10,593
395,89	12,214
396,10	17,134
396,30	9,507
396,51	8,663
396,72	14,430
396,92	9,685
397,13	15,982
397,34	9,491
397,54	14,289
397,75	11,511
397,95	10,723
398,16	14,590
398,37	14,889
398,57	8,958
398,78	12,102
398,99	12,585
399,19	17,067
399,40	22,940
399,60	13,234
399,81	17,324
400,02	20,586
400,22	17,594
400,43	18,650
400,64	13,553
400,84	11,730
401,05	16,807
401,25	16,466
401,46	13,279
401,67	19,434
401,87	14,600
402,08	11,392
402,29	18,249
402,49	20,711
402,70	17,587
402,90	13,355
403,11	17,610
403,32	12,668
403,52	13,868
403,73	16,296
403,93	21,412
404,14	26,371
404,35	16,319
404,55	13,050
404,76	19,085
404,96	18,177
405,17	22,282
405,38	23,601
405,58	18,126
405,79	23,475
405,99	23,346
406,20	20,278
406,40	19,382
406,61	18,924
406,82	21,207
407,02	21,744
407,23	17,262
407,43	21,501
407,64	13,837
407,85	19,655
408,05	13,116
408,26	29,104
408,46	27,242
408,67	19,496
408,87	21,206
409,08	17,120
409,29	25,246
409,49	26,485
409,70	22,628
409,90	22,801
410,11	26,180
410,31	25,182
410,52	21,914
410,72	21,647
410,93	25,074
411,14	22,107
411,34	20,107
411,55	21,512
411,75	23,913
411,96	25,419
412,16	24,548
412,37	20,876
412,57	25,331
412,78	27,662
412,99	22,011
413,19	27,067
413,40	23,639
413,60	23,345
413,81	24,560
414,01	20,979
414,22	22,071
414,42	24,633
414,63	22,483
414,83	24,168
415,04	29,942
415,24	22,810
415,45	22,510
415,65	29,332
415,86	31,312
416,07	22,285
416,27	28,440
416,48	28,306
416,68	35,674
416,89	22,410
417,09	27,373
417,30	32,044
417,50	23,594
417,71	28,624
417,91	28,831
418,12	25,681
418,32	27,265
418,53	22,459
418,73	27,749
418,94	25,755
419,14	29,095
419,35	23,596
419,55	28,008
419,76	29,894
419,96	28,430
420,17	23,509
420,37	26,205
420,58	31,910
420,78	32,179
420,99	25,674
421,19	31,721
421,40	33,662
421,60	33,168
421,81	25,276
422,01	29,197
422,22	30,350
422,42	30,466
422,63	34,681
422,83	30,105
423,04	34,953
423,24	39,368
423,45	28,110
423,65	27,361
423,86	34,350
424,06	32,030
424,27	26,231
424,47	28,204
424,67	26,451
424,88	31,547
425,08	29,292
425,29	34,077
425,49	25,828
425,70	28,068
425,90	28,021
426,11	30,577
426,31	31,543
426,52	32,287
426,72	30,073
426,93	28,944
427,13	34,903
427,33	26,271
427,54	31,221
427,74	31,406
427,95	36,214
428,15	29,875
428,36	30,550
428,56	27,323
428,77	31,159
428,97	32,691
429,18	28,249
429,38	31,196
429,58	30,941
429,79	33,115
429,99	26,990
430,20	30,058
430,40	35,941
430,61	29,394
430,81	28,918
431,01	32,790
431,22	34,038
431,42	34,522
431,63	29,461
431,83	31,902
432,04	34,125
432,24	36,533
432,44	32,628
432,65	31,242
432,85	33,368
433,06	33,461
433,26	29,710
433,47	29,291
433,67	28,839
433,87	30,214
434,08	30,588
434,28	28,299
434,49	30,670
434,69	42,477
434,89	34,353
435,10	29,323
435,30	37,966
435,51	27,745
435,71	28,362
435,91	29,689
436,12	31,336
436,32	29,428
436,53	32,464
436,73	33,404
436,93	32,322
437,14	30,586
437,34	31,826
437,55	28,453
437,75	32,822
437,95	37,008
438,16	29,421
438,36	32,184
438,57	31,337
438,77	30,730
438,97	32,152
439,18	35,518
439,38	30,595
439,58	30,391
439,79	30,466
439,99	29,407
440,20	38,193
440,40	35,980
440,60	35,007
440,81	31,635
441,01	33,327
441,21	32,499
441,42	32,549
441,62	34,119
441,83	34,708
442,03	29,764
442,23	35,769
442,44	33,077
442,64	37,306
442,84	30,293
443,05	33,230
443,25	32,162
443,45	34,081
443,66	35,897
443,86	28,185
444,06	34,153
444,27	30,889
444,47	37,419
444,67	31,667
444,88	35,002
445,08	32,387
445,28	28,732
445,49	37,058
445,69	31,609
445,90	38,218
446,10	36,709
446,30	30,736
446,51	32,460
446,71	35,182
446,91	36,201
447,12	38,648
447,32	29,879
447,52	32,888
447,72	36,849
447,93	30,324
448,13	29,777
448,33	37,922
448,54	34,603
448,74	29,422
448,94	31,456
449,15	38,750
449,35	28,609
449,55	36,000
449,76	31,011
449,96	29,284
450,16	34,187
450,37	30,881
450,57	33,265
450,77	30,453
450,98	30,254
451,18	36,430
451,38	35,258
451,58	37,059
451,79	30,414
451,99	32,818
452,19	37,575
452,40	42,722
452,60	27,720
452,80	37,018
453,00	32,582
453,21	28,472
453,41	33,714
453,61	32,451
453,82	34,115
454,02	28,369
454,22	47,139
454,42	35,695
454,63	31,919
454,83	29,186
455,03	37,932
455,24	31,915
455,44	35,792
455,64	30,464
455,84	33,402
456,05	29,989
456,25	26,946
456,45	31,891
456,65	33,543
456,86	35,663
457,06	36,073
457,26	33,893
457,47	38,621
457,67	32,240
457,87	29,673
458,07	35,418
458,28	35,080
458,48	39,853
458,68	26,942
458,88	38,937
459,09	30,489
459,29	39,552
459,49	30,281
459,69	33,817
459,90	34,142
460,10	33,878
460,30	37,291
460,50	29,949
460,71	35,504
460,91	29,093
461,11	34,525
461,31	33,430
461,52	35,754
461,72	34,293
461,92	33,196
462,12	44,088
462,32	30,288
462,53	34,861
462,73	33,773
462,93	33,925
463,13	36,713
463,34	30,442
463,54	34,541
463,74	31,674
463,94	32,452
464,14	35,394
464,35	28,861
464,55	38,273
464,75	40,159
464,95	31,885
465,16	28,597
465,36	40,530
465,56	29,881
465,76	28,888
465,96	34,988
466,17	32,622
466,37	31,565
466,57	36,337
466,77	35,127
466,97	31,507
467,18	39,271
467,38	35,544
467,58	40,845
467,78	38,413
467,98	34,252
468,19	32,267
468,39	33,266
468,59	30,167
468,79	35,150
468,99	34,447
469,19	32,311
469,40	31,581
469,60	31,269
469,80	31,380
470,00	34,113
470,20	35,919
470,41	31,345
470,61	35,751
470,81	37,097
471,01	33,179
471,21	35,492
471,41	34,849
471,62	32,913
471,82	30,174
472,02	32,853
472,22	29,594
472,42	31,663
472,62	36,543
472,83	27,154
473,03	36,557
473,23	32,553
473,43	38,691
473,63	34,816
473,83	33,078
474,03	34,220
474,24	36,211
474,44	33,443
474,64	31,465
474,84	29,575
475,04	30,704
475,24	36,592
475,45	33,576
475,65	32,866
475,85	38,290
476,05	26,226
476,25	32,357
476,45	33,677
476,65	36,786
476,85	30,161
477,06	33,173
477,26	31,097
477,46	31,073
477,66	34,565
477,86	32,779
478,06	31,302
478,26	38,769
478,46	31,674
478,67	35,489
478,87	32,650
479,07	32,552
479,27	32,679
479,47	30,294
479,67	25,929
479,87	31,499
480,07	37,088
480,28	32,383
480,48	30,022
480,68	34,960
480,88	38,112
481,08	36,869
481,28	32,243
481,48	33,085
481,68	32,779
481,88	28,418
482,08	32,307
482,29	34,377
482,49	30,913
482,69	32,853
482,89	31,781
483,09	36,423
483,29	31,027
483,49	26,065
483,69	32,659
483,89	32,231
484,09	29,318
484,29	28,857
484,50	33,182
484,70	35,231
484,90	31,551
485,10	31,947
485,30	33,186
485,50	36,688
485,70	33,062
485,90	29,664
486,10	30,278
486,30	27,924
486,50	31,782
486,70	29,101
486,90	30,816
487,10	33,407
487,30	32,494
487,51	30,968
487,71	30,297
487,91	32,225
488,11	35,048
488,31	31,308
488,51	32,605
488,71	31,129
488,91	30,783
489,11	30,767
489,31	31,784
489,51	35,154
489,71	31,261
489,91	30,559
490,11	34,160
490,31	35,155
490,51	31,878
490,71	36,402
490,91	31,206
491,11	32,451
491,31	34,529
491,51	33,063
491,72	31,233
491,92	31,527
492,12	35,896
492,32	35,278
492,52	34,466
492,72	31,063
492,92	31,653
493,12	35,355
493,32	29,070
493,52	29,988
493,72	32,314
493,92	32,965
494,12	29,807
494,32	33,892
494,52	32,403
494,72	32,343
494,92	33,668
495,12	34,559
495,32	38,187
495,52	33,766
495,72	32,823
495,92	33,441
496,12	34,858
496,32	34,430
496,52	33,892
496,72	33,201
496,92	34,995
497,12	33,615
497,32	35,073
497,52	32,716
497,72	33,481
497,92	32,338
498,12	32,505
498,32	32,022
498,52	32,821
498,72	32,525
498,92	30,658
499,12	35,453
499,32	29,099
499,52	36,358
499,72	33,246
499,92	37,234
500,12	34,966
500,32	32,854
500,52	34,442
500,72	36,828
500,91	37,945
501,11	34,790
501,31	31,984
501,51	35,277
501,71	36,813
501,91	35,829
502,11	32,079
502,31	34,046
502,51	34,676
502,71	35,397
502,91	32,382
503,11	33,419
503,31	36,518
503,51	29,744
503,71	33,430
503,91	35,012
504,11	33,682
504,31	35,503
504,51	32,339
504,71	38,459
504,91	32,824
505,10	36,345
505,30	34,391
505,50	36,394
505,70	33,463
505,90	36,102
506,10	31,552
506,30	34,930
506,50	35,429
506,70	36,668
506,90	35,217
507,10	33,345
507,30	32,865
507,50	33,410
507,70	35,948
507,89	36,223
508,09	32,306
508,29	33,445
508,49	31,468
508,69	33,462
508,89	33,669
509,09	33,530
509,29	33,845
509,49	36,687
509,69	35,629
509,89	36,066
510,09	34,386
510,28	34,998
510,48	34,773
510,68	33,857
510,88	35,409
511,08	34,815
511,28	32,567
511,48	33,764
511,68	29,059
511,88	38,142
512,07	31,241
512,27	33,529
512,47	33,285
512,67	31,792
512,87	31,483
513,07	35,723
513,27	31,987
513,47	34,566
513,67	29,662
513,86	34,505
514,06	35,093
514,26	34,943
514,46	35,978
514,66	33,860
514,86	35,601
515,06	39,279
515,26	37,729
515,45	34,441
515,65	32,814
515,85	36,603
516,05	33,845
516,25	31,841
516,45	36,642
516,65	32,368
516,84	33,831
517,04	37,441
517,24	33,397
517,44	35,237
517,64	35,630
517,84	37,143
518,04	35,429
518,23	36,997
518,43	37,230
518,63	33,874
518,83	29,474
519,03	34,961
519,23	33,522
519,42	34,321
519,62	32,077
519,82	33,398
520,02	33,619
520,22	36,224
520,42	32,359
520,61	36,444
520,81	33,535
521,01	36,327
521,21	32,284
521,41	33,111
521,61	37,863
521,80	33,609
522,00	33,664
522,20	41,138
522,40	35,150
522,60	34,508
522,79	33,206
522,99	37,994
523,19	30,213
523,39	33,438
523,59	35,067
523,78	32,466
523,98	33,293
524,18	36,429
524,38	30,209
524,58	34,149
524,77	36,310
524,97	35,127
525,17	34,551
525,37	32,183
525,57	39,196
525,76	37,030
525,96	37,313
526,16	33,294
526,36	32,279
526,56	34,181
526,75	35,877
526,95	36,389
527,15	33,693
527,35	35,181
527,55	32,479
527,74	32,070
527,94	32,051
528,14	31,063
528,34	35,990
528,53	31,971
528,73	38,306
528,93	34,385
529,13	32,927
529,32	36,120
529,52	34,052
529,72	32,903
529,92	32,456
530,12	33,059
530,31	35,198
530,51	35,329
530,71	32,032
530,91	39,464
531,10	31,623
531,30	35,675
531,50	31,719
531,70	35,717
531,89	37,468
532,09	32,628
532,29	32,982
532,49	34,799
532,68	35,754
532,88	32,500
533,08	32,425
533,28	35,160
533,47	36,496
533,67	36,290
533,87	34,804
534,06	42,779
534,26	32,054
534,46	34,644
534,66	33,458
534,85	35,277
535,05	31,589
535,25	30,337
535,45	34,114
535,64	37,588
535,84	36,552
536,04	30,598
536,23	35,463
536,43	35,878
536,63	34,134
536,83	33,873
537,02	32,771
537,22	31,515
537,42	34,401
537,61	35,645
537,81	33,055
538,01	34,117
538,20	35,158
538,40	31,289
538,60	34,749
538,80	31,956
538,99	34,112
539,19	32,443
539,39	32,368
539,58	33,258
539,78	31,674
539,98	31,029
540,17	30,298
540,37	34,135
540,57	29,310
540,76	31,491
540,96	26,419
541,16	30,769
541,36	29,854
541,55	27,632
541,75	26,292
541,95	30,256
542,14	26,429
542,34	24,690
542,54	25,948
542,73	30,622
542,93	26,023
543,13	27,508
543,32	26,116
543,52	28,411
543,72	24,952
543,91	28,487
544,11	26,288
544,31	23,512
544,50	26,476
544,70	27,898
544,89	27,609
545,09	28,675
545,29	29,625
545,48	30,311
545,68	25,184
545,88	29,139
546,07	28,283
546,27	28,562
546,47	30,847
546,66	30,124
546,86	29,246
547,06	29,953
547,25	28,966
547,45	31,194
547,64	31,161
547,84	33,780
548,04	30,315
548,23	36,339
548,43	34,284
548,63	34,070
548,82	32,964
549,02	33,136
549,21	31,587
549,41	32,378
549,61	32,728
549,80	30,061
550,00	32,803
550,20	29,978
550,39	33,375
550,59	33,170
550,78	35,212
550,98	33,031
551,18	34,281
551,37	33,597
551,57	33,059
551,76	34,763
551,96	33,752
552,16	32,726
552,35	34,095
552,55	30,633
552,74	32,653
552,94	35,336
553,14	30,771
553,33	35,887
553,53	33,295
553,72	34,313
553,92	36,894
554,12	32,481
554,31	34,071
554,51	34,710
554,70	30,631
554,90	32,415
555,09	38,600
555,29	33,349
555,49	33,575
555,68	38,077
555,88	31,195
556,07	33,079
556,27	38,776
556,46	36,569
556,66	30,051
556,86	39,413
557,05	35,531
557,25	33,309
557,44	33,223
557,64	32,825
557,83	34,619
558,03	33,384
558,22	31,952
558,42	34,248
558,62	35,628
558,81	35,805
559,01	34,400
559,20	35,494
559,40	33,109
559,59	35,077
559,79	30,971
559,98	34,287
560,18	33,597
560,37	35,281
560,57	35,187
560,76	32,036
560,96	31,405
561,16	33,279
561,35	32,401
561,55	36,529
561,74	36,268
561,94	36,332
562,13	32,723
562,33	35,614
562,52	35,710
562,72	32,697
562,91	34,131
563,11	34,245
563,30	35,341
563,50	34,056
563,69	32,423
563,89	31,473
564,08	35,781
564,28	31,942
564,47	35,032
564,67	34,447
564,86	33,645
565,06	34,353
565,25	32,106
565,45	32,764
565,64	38,240
565,84	33,325
566,03	31,604
566,23	35,340
566,42	34,940
566,62	33,172
566,81	33,408
567,01	32,547
567,20	31,994
567,40	32,877
567,59	30,586
567,79	37,256
567,98	37,394
568,18	31,808
568,37	36,905
568,57	32,872
568,76	33,805
568,96	34,494
569,15	31,372
569,35	35,066
569,54	37,319
569,73	34,880
569,93	33,844
570,12	34,518
570,32	36,912
570,51	33,794
570,71	35,665
570,90	35,355
571,10	34,454
571,29	33,709
571,49	33,166
571,68	34,020
571,87	35,817
572,07	35,484
572,26	29,992
572,46	33,660
572,65	33,790
572,85	32,225
573,04	35,072
573,24	33,009
573,43	36,050
573,62	35,427
573,82	34,457
574,01	33,264
574,21	31,721
574,40	32,402
574,60	30,984
574,79	36,847
574,98	33,590
575,18	33,697
575,37	30,622
575,57	33,975
575,76	35,519
575,96	33,244
576,15	34,944
576,34	31,761
576,54	34,821
576,73	32,951
576,93	32,228
577,12	34,658
577,31	33,753
577,51	32,396
577,70	32,662
577,90	33,324
578,09	33,363
578,28	32,043
578,48	33,058
578,67	33,234
578,87	34,315
579,06	32,446
579,25	33,587
579,45	35,391
579,64	32,780
579,84	32,102
580,03	33,966
580,22	33,480
580,42	31,742
580,61	34,126
580,81	33,405
581,00	33,288
581,19	35,806
581,39	33,175
581,58	32,829
581,77	31,605
581,97	35,267
582,16	33,305
582,35	33,444
582,55	34,333
582,74	34,478
582,94	34,368
583,13	32,431
583,32	33,417
583,52	34,418
583,71	32,690
583,90	34,029
584,10	34,885
584,29	34,179
584,48	32,484
584,68	32,556
584,87	33,953
585,06	32,743
585,26	32,105
585,45	33,232
585,65	34,918
585,84	33,754
586,03	31,764
586,23	31,407
586,42	33,136
586,61	37,190
586,81	34,798
587,00	31,546
587,19	33,304
587,39	35,587
587,58	33,418
587,77	32,630
587,97	30,766
588,16	32,065
588,35	31,901
588,54	33,027
588,74	32,342
588,93	36,571
589,12	34,189
589,32	32,632
589,51	33,933
589,70	33,044
589,90	32,089
590,09	31,366
590,28	34,898
590,48	31,903
590,67	33,713
590,86	32,465
591,06	32,069
591,25	35,471
591,44	33,571
591,63	33,985
591,83	33,087
592,02	33,576
592,21	33,062
592,41	33,810
592,60	34,566
592,79	33,722
592,98	34,897
593,18	30,819
593,37	32,550
593,56	33,746
593,76	33,943
593,95	32,402
594,14	32,596
594,33	33,972
594,53	33,900
594,72	30,806
594,91	35,313
595,10	33,071
595,30	33,929
595,49	33,407
595,68	35,032
595,88	34,856
596,07	34,215
596,26	34,488
596,45	32,976
596,65	31,643
596,84	32,786
597,03	34,139
597,22	32,924
597,42	33,755
597,61	31,463
597,80	34,267
597,99	32,880
598,19	33,763
598,38	33,716
598,57	32,404
598,76	35,335
598,95	35,101
599,15	33,985
599,34	32,579
599,53	31,645
599,72	32,826
599,92	34,159
600,11	33,730
600,30	34,549
600,49	35,876
600,69	32,425
600,88	34,596
601,07	33,238
601,26	32,293
601,45	32,054
601,65	31,731
601,84	33,509
602,03	31,489
602,22	33,643
602,42	35,151
602,61	33,046
602,80	33,223
602,99	32,243
603,18	31,937
603,38	35,579
603,57	32,863
603,76	32,594
603,95	31,618
604,14	35,573
604,34	31,439
604,53	31,940
604,72	33,158
604,91	33,935
605,10	33,109
605,29	35,466
605,49	31,068
605,68	35,754
605,87	36,697
606,06	33,202
606,25	32,548
606,45	34,442
606,64	31,929
606,83	35,352
607,02	32,432
607,21	34,139
607,40	34,602
607,60	31,351
607,79	32,295
607,98	32,583
608,17	33,104
608,36	29,968
608,55	31,899
608,75	32,651
608,94	31,746
609,13	29,426
609,32	30,548
609,51	31,190
609,70	31,002
609,89	29,989
610,09	29,628
610,28	29,321
610,47	30,049
610,66	29,220
610,85	27,008
611,04	31,072
611,23	26,960
611,43	27,219
611,62	29,253
611,81	27,915
612,00	29,261
612,19	28,871
612,38	31,269
612,57	31,268
612,77	31,567
612,96	29,489
613,15	30,617
613,34	31,694
613,53	29,567
613,72	32,898
613,91	28,787
614,10	31,570
614,29	32,517
614,49	31,300
614,68	30,415
614,87	32,593
615,06	33,563
615,25	32,315
615,44	33,168
615,63	33,574
615,82	30,746
616,01	34,079
616,21	30,271
616,40	32,623
616,59	34,593
616,78	31,301
616,97	31,118
617,16	31,499
617,35	32,646
617,54	32,236
617,73	33,856
617,92	31,776
618,11	32,244
618,31	32,324
618,50	33,627
618,69	30,567
618,88	33,099
619,07	28,705
619,26	30,132
619,45	31,484
619,64	30,019
619,83	33,359
620,02	31,707
620,21	34,167
620,40	32,215
620,59	32,805
620,78	31,313
620,97	33,465
621,17	34,829
621,36	31,282
621,55	31,334
621,74	33,519
621,93	33,295
622,12	32,986
622,31	31,075
622,50	33,309
622,69	33,822
622,88	32,372
623,07	34,692
623,26	32,590
623,45	34,478
623,64	32,848
623,83	32,203
624,02	33,852
624,21	32,642
624,40	31,354
624,59	30,360
624,78	33,011
624,97	35,528
625,16	30,986
625,35	29,248
625,54	30,009
625,73	30,973
625,92	34,752
626,12	33,324
626,31	34,218
626,50	33,679
626,69	32,643
626,88	32,830
627,07	31,241
627,26	32,986
627,45	34,112
627,64	30,455
627,83	32,371
628,02	30,974
628,21	32,205
628,40	32,410
628,59	34,063
628,78	29,773
628,97	31,802
629,16	30,893
629,35	32,237
629,54	32,786
629,73	33,611
629,92	30,218
630,10	33,139
630,29	32,599
630,48	31,057
630,67	31,064
630,86	32,499
631,05	31,882
631,24	32,526
631,43	31,898
631,62	33,034
631,81	30,010
632,00	31,485
632,19	28,517
632,38	32,754
632,57	33,682
632,76	30,318
632,95	32,008
633,14	34,383
633,33	33,736
633,52	32,991
633,71	32,571
633,90	30,290
634,09	32,006
634,28	32,857
634,47	31,765
634,66	32,752
634,85	33,194
635,04	34,991
635,22	31,570
635,41	32,288
635,60	34,373
635,79	34,456
635,98	31,542
636,17	31,058
636,36	29,656
636,55	31,033
636,74	31,406
636,93	31,216
637,12	32,271
637,31	31,639
637,50	32,811
637,69	32,162
637,87	34,188
638,06	30,516
638,25	30,532
638,44	32,908
638,63	30,614
638,82	30,879
639,01	31,239
639,20	31,626
639,39	34,067
639,58	32,773
639,77	33,189
639,95	31,221
640,14	33,380
640,33	32,517
640,52	32,116
640,71	35,446
640,90	30,963
641,09	33,383
641,28	30,851
641,47	32,743
641,66	33,170
641,84	34,174
642,03	29,820
642,22	32,231
642,41	35,272
642,60	30,956
642,79	32,405
642,98	33,030
643,17	33,628
643,35	30,638
643,54	31,823
643,73	31,143
643,92	32,641
644,11	32,177
644,30	32,202
644,49	34,163
644,67	32,503
644,86	31,854
645,05	31,942
645,24	31,100
645,43	32,460
645,62	31,864
645,81	31,246
645,99	31,287
646,18	34,221
646,37	32,734
646,56	33,205
646,75	33,120
646,94	34,297
647,13	30,781
647,31	31,293
647,50	31,738
647,69	34,574
647,88	33,266
648,07	32,689
648,26	36,737
648,44	30,836
648,63	33,139
648,82	31,150
649,01	32,736
649,20	30,166
649,38	31,894
649,57	32,022
649,76	30,532
649,95	32,680
650,14	32,471
650,33	32,894
650,51	34,042
650,70	31,763
650,89	34,146
651,08	31,763
651,27	33,582
651,45	31,440
651,64	30,762
651,83	32,342
652,02	31,209
652,21	31,386
652,39	33,420
652,58	34,174
652,77	35,658
652,96	31,850
653,15	34,069
653,33	33,085
653,52	33,031
653,71	33,484
653,90	33,402
654,09	31,685
654,27	31,801
654,46	33,640
654,65	32,962
654,84	32,782
655,02	33,798
655,21	32,231
655,40	34,825
655,59	32,699
655,77	33,712
655,96	33,679
656,15	34,801
656,34	33,763
656,53	32,767
656,71	33,460
656,90	34,375
657,09	32,723
657,28	33,854
657,46	33,085
657,65	32,558
657,84	32,521
658,03	33,108
658,21	33,040
658,40	31,455
658,59	31,646
658,78	32,618
658,96	32,153
659,15	32,998
659,34	30,812
659,52	32,525
659,71	32,411
659,90	30,677
660,09	33,020
660,27	33,455
660,46	33,906
660,65	32,713
660,84	30,872
661,02	33,474
661,21	33,727
661,40	33,779
661,58	32,889
661,77	31,935
661,96	30,988
662,15	33,437
662,33	31,769
662,52	32,750
662,71	32,161
662,89	30,703
663,08	31,924
663,27	32,998
663,45	31,802
663,64	32,799
663,83	31,590
664,02	30,508
664,20	34,553
664,39	31,352
664,58	32,815
664,76	32,051
664,95	32,592
665,14	32,832
665,32	31,707
665,51	32,821
665,70	32,941
665,88	34,008
666,07	32,061
666,26	35,335
666,44	32,992
666,63	29,618
666,82	31,160
667,00	31,294
667,19	31,298
667,38	32,173
667,56	32,663
667,75	34,047
667,94	31,085
668,12	32,303
668,31	32,725
668,50	31,785
668,68	33,523
668,87	31,851
669,06	32,261
669,24	33,774
669,43	32,204
669,62	32,638
669,80	30,064
669,99	32,280
670,18	32,879
670,36	30,971
670,55	33,814
670,74	31,087
670,92	29,800
671,11	34,563
671,29	30,420
671,48	31,555
671,67	32,769
671,85	32,219
672,04	32,546
672,23	31,748
672,41	31,391
672,60	32,243
672,78	32,165
672,97	30,973
673,16	32,273
673,34	33,744
673,53	31,874
673,71	32,764
673,90	32,582
674,09	32,980
674,27	33,173
674,46	31,796
674,64	32,520
674,83	32,358
675,02	30,468
675,20	31,671
675,39	30,400
675,57	31,582
675,76	31,755
675,95	35,526
676,13	32,080
676,32	31,411
676,50	32,589
676,69	30,943
676,88	32,917
677,06	30,968
677,25	32,668
677,43	33,302
677,62	33,296
677,80	31,923
677,99	32,414
678,18	34,034
678,36	33,718
678,55	31,025
678,73	29,960
678,92	32,811
679,10	32,327
679,29	31,465
679,48	29,840
679,66	33,101
679,85	31,492
680,03	32,531
680,22	31,180
680,40	31,532
680,59	31,826
680,77	31,040
680,96	32,681
681,15	31,791
681,33	33,737
681,52	31,239
681,70	31,881
681,89	35,256
682,07	30,951
682,26	31,980
682,44	33,353
682,63	33,506
682,81	32,248
683,00	32,173
683,18	29,708
683,37	33,058
683,55	30,959
683,74	33,557
683,92	37,476
684,11	32,582
684,29	30,961
684,48	31,051
684,67	31,601
684,85	30,618
685,04	32,591
685,22	32,446
685,41	32,265
685,59	32,034
685,78	30,384
685,96	30,390
686,15	31,086
686,33	30,900
686,52	32,443
686,70	31,056
686,89	32,943
687,07	32,298
687,26	31,108
687,44	31,815
687,62	31,840
687,81	33,689
687,99	33,503
688,18	32,024
688,36	31,661
688,55	34,211
688,73	31,745
688,92	30,371
689,10	31,997
689,29	33,605
689,47	33,643
689,66	31,532
689,84	30,912
690,03	33,897
690,21	31,393
690,40	30,653
690,58	31,423
690,76	31,032
690,95	32,643
691,13	31,386
691,32	31,917
691,50	31,100
691,69	33,758
691,87	32,286
692,06	30,902
692,24	31,432
692,43	32,440
692,61	32,513
692,79	30,932
692,98	30,411
693,16	33,108
693,35	29,720
693,53	32,670
693,72	32,465
693,90	33,653
694,08	31,030
694,27	32,070
694,45	32,496
694,64	34,371
694,82	30,631
695,01	32,066
695,19	29,736
695,37	31,720
695,56	30,574
695,74	32,121
695,93	33,887
696,11	31,575
696,29	31,801
696,48	33,583
696,66	33,167
696,85	30,303
697,03	30,525
697,21	32,966
697,40	33,649
697,58	32,818
697,77	32,634
697,95	31,967
698,13	31,545
698,32	29,144
698,50	30,886
698,69	29,737
698,87	32,298
699,05	34,456
699,24	31,704
699,42	31,986
699,60	28,940
699,79	31,191
699,97	29,527
700,16	29,544
700,34	35,641
700,52	32,371
700,71	31,538
700,89	30,869
701,07	30,068
701,26	31,848
701,44	29,890
701,63	31,481
701,81	32,938
701,99	32,753
702,18	31,538
702,36	30,740
702,54	33,577
702,73	31,177
702,91	31,555
703,09	30,437
703,28	29,639
703,46	32,397
703,64	32,374
703,83	31,875
704,01	32,396
704,19	31,325
704,38	30,807
704,56	32,615
704,74	33,495
704,93	30,798
705,11	30,690
705,29	31,912
705,48	33,894
705,66	31,263
705,84	31,404
706,03	29,125
706,21	30,971
706,39	32,068
706,58	30,183
706,76	31,679
706,94	31,355
707,12	31,046
707,31	30,385
707,49	31,281
707,67	30,789
707,86	34,968
708,04	31,932
708,22	30,604
708,41	33,198
708,59	30,415
708,77	31,521
708,95	31,173
709,14	34,617
709,32	32,820
709,50	30,009
709,69	32,275
709,87	30,323
710,05	30,398
710,23	30,156
710,42	30,361
710,60	32,307
710,78	33,379
710,97	31,864
711,15	31,066
711,33	32,279
711,51	31,814
711,70	29,613
711,88	31,615
712,06	33,613
712,24	32,883
712,43	32,617
712,61	28,841
712,79	31,303
712,97	30,134
713,16	31,542
713,34	29,391
713,52	33,372
713,70	30,751
713,89	30,923
714,07	30,834
714,25	31,931
714,43	33,107
714,62	30,972
714,80	30,195
714,98	28,289
715,16	31,707
715,35	30,612
715,53	31,273
715,71	34,855
715,89	34,737
716,07	32,818
716,26	31,453
716,44	33,505
716,62	33,025
716,80	31,697
716,99	31,446
717,17	34,377
717,35	31,805
717,53	30,213
717,71	31,273
717,90	33,445
718,08	33,525
718,26	31,771
718,44	32,592
718,62	33,427
718,81	32,578
718,99	30,500
719,17	30,806
719,35	31,952
719,53	31,847
719,72	29,694
719,90	29,840
720,08	30,235
720,26	33,342
720,44	29,921
720,62	31,062
720,81	34,575
720,99	33,365
721,17	30,442
721,35	32,941
721,53	29,537
721,72	33,460
721,90	30,530
722,08	30,173
722,26	33,056
722,44	32,747
722,62	30,690
722,81	30,932
722,99	30,468
723,17	30,836
723,35	32,202
723,53	32,911
723,71	33,205
723,89	35,764
724,08	32,060
724,26	31,086
724,44	31,308
724,62	32,588
724,80	28,139
724,98	30,880
725,16	34,938
725,35	32,679
725,53	32,277
725,71	30,541
725,89	31,666
726,07	35,956
726,25	34,205
726,43	30,010
726,61	32,111
726,80	32,909
726,98	30,772
727,16	29,381
727,34	32,000
727,52	31,013
727,70	31,846
727,88	31,801
728,06	29,810
728,25	29,181
728,43	30,255
728,61	29,524
728,79	31,003
728,97	33,436
729,15	31,088
729,33	34,458
729,51	32,564
729,69	31,901
729,87	31,396
730,06	32,424
730,24	32,092
730,42	34,136
730,60	31,790
730,78	32,896
730,96	32,108
731,14	32,021
731,32	31,583
731,50	31,373
731,68	30,099
731,86	33,858
732,04	31,569
732,22	31,071
732,41	37,963
732,59	31,018
732,77	33,093
732,95	31,075
733,13	33,567
733,31	33,587
733,49	29,827
733,67	33,089
733,85	33,671
734,03	31,047
734,21	31,227
734,39	32,824
734,57	32,797
734,75	33,033
734,93	30,436
735,11	33,826
735,29	28,871
735,47	32,685
735,65	30,610
735,84	30,674
736,02	31,318
736,20	35,264
736,38	30,010
736,56	31,821
736,74	31,943
736,92	30,151
737,10	31,104
737,28	32,735
737,46	32,495
737,64	33,080
737,82	31,465
738,00	32,971
738,18	31,157
738,36	34,089
738,54	31,814
738,72	32,696
738,90	31,125
739,08	32,806
739,26	29,242
739,44	31,713
739,62	35,809
739,80	32,404
739,98	32,895
740,16	31,777
740,34	31,871
740,52	35,026
740,70	30,831
740,88	33,061
741,06	33,035
741,24	32,391
741,42	30,713
741,60	31,226
741,78	32,658
741,96	31,972
742,14	33,905
742,32	32,593
742,50	30,427
742,68	32,563
742,86	31,268
743,04	29,124
743,21	33,923
743,39	31,491
743,57	31,750
743,75	33,239
743,93	30,336
744,11	28,849
744,29	31,560
744,47	30,092
744,65	32,504
744,83	32,054
745,01	30,614
745,19	31,100
745,37	35,372
745,55	32,268
745,73	34,144
745,91	31,693
746,09	30,990
746,27	30,022
746,45	31,137
746,62	33,162
746,80	30,885
746,98	31,010
747,16	29,699
747,34	31,170
747,52	31,050
747,70	32,391
747,88	32,507
748,06	33,146
748,24	32,085
748,42	35,916
748,60	31,846
748,78	28,299
748,95	34,575
749,13	37,838
749,31	30,841
749,49	31,755
749,67	32,226
749,85	31,586
750,03	32,269
750,21	30,303
750,39	35,195
750,57	31,187
750,74	33,855
750,92	31,030
751,10	32,264
751,28	29,492
751,46	33,369
751,64	32,093
751,82	33,234
752,00	33,152
752,17	33,973
752,35	33,111
752,53	32,031
752,71	31,100
752,89	31,805
753,07	31,330
753,25	31,566
753,43	30,311
753,60	33,255
753,78	32,404
753,96	33,840
754,14	33,633
754,32	34,047
754,50	32,013
754,68	35,119
754,85	29,513
755,03	34,017
755,21	33,303
755,39	34,849
755,57	33,346
755,75	33,900
755,92	31,749
756,10	31,799
756,28	32,310
756,46	31,278
756,64	31,767
756,82	34,215
756,99	30,978
757,17	29,548
757,35	29,440
757,53	34,912
757,71	35,772
757,89	30,428
758,06	32,584
758,24	32,997
758,42	32,244
758,60	30,162
758,78	32,508
758,95	33,952
759,13	33,046
759,31	32,140
759,49	30,329
759,67	32,255
759,84	29,852
760,02	31,160
760,20	31,787
760,38	33,939
760,56	28,548
760,73	30,405
760,91	31,602
761,09	35,333
761,27	30,466
761,45	31,146
761,62	29,003
761,80	29,724
761,98	32,277
762,16	33,738
762,33	30,310
762,51	32,743
762,69	31,152
762,87	32,031
763,05	33,150
763,22	31,250
763,40	31,127
763,58	32,243
763,76	31,902
763,93	32,654
764,11	34,664
764,29	32,491
764,47	33,767
764,64	33,752
764,82	34,370
765,00	31,243
765,18	30,142
765,35	32,960
765,53	31,962
765,71	33,191
765,89	32,287
766,06	32,048
766,24	32,047
766,42	31,216
766,60	29,995
766,77	30,111
766,95	31,572
767,13	32,751
767,30	32,213
767,48	30,153
767,66	31,000
767,84	29,388
768,01	30,749
768,19	33,017
768,37	30,464
768,54	31,528
768,72	32,854
768,90	30,432
769,08	34,063
769,25	31,493
769,43	32,190
769,61	31,478
769,78	32,505
769,96	31,341
770,14	32,510
770,31	35,636
770,49	36,055
770,67	30,655
770,85	31,671
771,02	32,674
771,20	32,481
771,38	32,953
771,55	31,629
771,73	30,099
771,91	33,211
772,08	33,211
772,26	32,681
772,44	31,774
772,61	32,136
772,79	31,368
772,97	30,209
773,14	30,910
773,32	34,271
773,50	30,538
773,67	33,460
773,85	34,388
774,03	34,745
774,20	32,525
774,38	32,116
774,56	31,596
774,73	29,620
774,91	30,592
775,09	30,166
775,26	30,423
775,44	32,531
775,61	32,414
775,79	30,307
775,97	35,221
776,14	31,568
776,32	32,255
776,50	32,344
776,67	33,597
776,85	33,745
777,03	29,616
777,20	32,351
777,38	34,608
777,55	32,483
777,73	32,241
777,91	29,431
778,08	31,942
778,26	29,354
778,43	33,899
778,61	31,817
778,79	30,224
778,96	33,562
779,14	31,159
779,32	30,321
779,49	29,163
779,67	37,317
779,84	33,818
780,02	32,217
780,20	31,266
780,37	34,048
780,55	26,808
780,72	32,350
780,90	30,853
781,07	34,086
781,25	34,438
781,43	32,999
781,60	32,107
781,78	32,965
781,95	34,440
782,13	32,145
782,30	34,031
782,48	33,401
782,66	31,316
782,83	30,616
783,01	39,734
783,18	35,532
783,36	36,190
783,53	33,463
783,71	28,589
783,89	32,278
784,06	32,392
784,24	30,503
784,41	33,350
784,59	30,200
784,76	35,742
784,94	31,030
785,11	33,686
785,29	31,332
785,46	33,728
785,64	30,833
785,82	35,282
785,99	33,738
786,17	33,044
786,34	29,635
786,52	36,814
786,69	34,689
786,87	30,702
787,04	32,519
787,22	31,594
787,39	32,481
787,57	35,427
787,74	31,984
787,92	35,494
788,09	33,100
788,27	32,816
788,44	29,831
788,62	37,155
788,79	30,678
788,97	31,719
789,14	31,155
789,32	32,644
789,49	30,990
789,67	34,310
789,84	31,219
790,02	37,193
790,19	28,558
790,37	32,813
790,54	31,262
790,72	36,377
790,89	33,926
791,07	36,057
791,24	28,848
791,42	34,507
791,59	35,873
791,77	29,846
791,94	34,073
792,12	33,726
792,29	34,588
792,47	34,922
792,64	35,210
792,81	34,146
792,99	31,518
793,16	30,171
793,34	32,068
793,51	32,274
793,69	36,152
793,86	31,528
794,04	34,523
794,21	36,422
794,39	30,226
794,56	33,220
794,73	35,933
794,91	37,304
795,08	33,514
795,26	33,528
795,43	29,992
795,61	37,669
795,78	30,120
795,95	38,006
796,13	34,042
796,30	36,424
796,48	32,527
796,65	29,812
796,83	35,156
797,00	34,723
797,17	31,357
797,35	32,870
797,52	34,986
797,70	35,399
797,87	33,321
798,04	36,183
798,22	30,255
798,39	32,155
798,57	31,523
798,74	34,067
798,91	29,950
799,09	32,365
799,26	33,712
799,44	32,667
799,61	30,922
799,78	31,603
799,96	37,125
800,13	29,527
800,31	36,149
800,48	36,451
800,65	37,075
800,83	33,996
801,00	32,050
801,17	34,094
801,35	36,723
801,52	36,630
801,70	36,697
801,87	33,042
802,04	34,900
802,22	27,674
802,39	33,123
802,56	38,654
802,74	37,620
802,91	31,260
803,08	33,051
803,26	34,950
803,43	38,427
803,61	29,010
803,78	31,492
803,95	36,681
804,13	35,561
804,30	30,032
804,47	34,843
804,65	34,572
804,82	33,635
804,99	35,958
805,17	31,757
805,34	42,091
805,51	38,128
805,69	30,638
805,86	35,583
806,03	43,458
806,21	36,666
806,38	36,454
806,55	29,426
806,72	35,757
806,90	40,254
807,07	34,332
807,24	33,398
807,42	30,785
807,59	34,643
807,76	27,979
807,94	34,696
808,11	38,316
808,28	37,809
808,45	34,288
808,63	35,615
808,80	38,638
808,97	32,863
809,15	37,748
809,32	33,993
809,49	33,152
809,67	37,342
809,84	38,021
810,01	39,056
810,18	44,071
810,36	38,546
810,53	31,956
810,70	37,487
810,87	35,612
811,05	38,587
811,22	33,056
811,39	31,212
811,57	34,608
811,74	35,244
811,91	37,588
812,08	34,051
812,26	34,142
812,43	32,758
812,60	41,467
812,77	35,111
812,95	36,458
813,12	33,068
813,29	37,708
813,46	36,715
813,64	37,763
813,81	35,433
813,98	35,329
814,15	36,538
814,32	39,674
814,50	33,191
814,67	31,837
814,84	42,331
815,01	33,269
815,19	33,079
815,36	32,901
815,53	32,853
815,70	33,878
815,87	43,098
816,05	36,251
816,22	38,945
816,39	38,561
816,56	39,381
816,74	39,700
816,91	41,238
817,08	43,748
817,25	43,978
817,42	39,463
817,60	35,396
817,77	41,360
817,94	32,322
818,11	34,352
818,28	31,997
818,45	36,756
818,63	34,670
818,80	34,660
818,97	36,851
819,14	35,898
819,31	44,406
819,49	38,806
819,66	30,472
819,83	40,387
820,00	38,936
820,17	31,671
820,34	37,178
820,52	41,143
820,69	40,623
820,86	34,767
821,03	38,973
821,20	40,116
821,37	43,838
821,55	35,943
821,72	30,795
821,89	37,048
822,06	39,634
822,23	32,717
822,40	31,363
822,57	40,536
822,75	42,178
822,92	30,863
823,09	40,242
823,26	43,017
823,43	40,284
823,60	34,352
823,77	34,198
823,94	41,766
824,12	41,510
824,29	33,476
824,46	40,076
824,63	54,284
824,80	43,618
824,97	38,389
825,14	36,501
825,31	39,606
825,49	34,441
825,66	22,986
825,83	34,592
826,00	39,673
826,17	46,472
826,34	36,724
826,51	35,774
826,68	33,905
826,85	34,974
827,02	30,064
827,20	32,956
827,37	33,188
827,54	40,272
827,71	39,255
827,88	38,357
828,05	38,030
828,22	38,681
828,39	34,744
828,56	38,129
828,73	39,088
828,90	41,087
829,07	35,291
829,25	33,349
829,42	37,149
829,59	31,615
829,76	34,331
829,93	41,338
830,10	37,626
830,27	35,058
830,44	31,734
830,61	27,490
830,78	37,703
830,95	39,792
831,12	39,727
831,29	39,251
831,46	31,676
831,63	34,350
831,80	41,183
831,97	36,429
832,14	46,070
832,31	42,488
832,48	35,253
832,65	41,204
832,83	32,183
833,00	41,767
833,17	33,677
833,34	39,990
833,51	39,711
833,68	50,390
833,85	40,270
834,02	31,243
834,19	42,587
834,36	43,079
834,53	34,663
834,70	37,741
834,87	51,804
835,04	34,983
835,21	36,265
835,38	42,386
835,55	34,433
835,72	57,627
835,89	33,459
836,06	33,476
836,23	53,615
836,40	33,942
836,57	33,821
836,74	38,213
836,91	34,066
837,08	48,955
837,25	38,200
837,42	34,424
837,59	26,182
837,76	45,511
837,93	35,293
838,09	38,947
838,26	38,897
838,43	52,884
838,60	45,918
838,77	38,069
838,94	43,607
839,11	52,534
839,28	40,372
839,45	40,469
839,62	39,308
839,79	35,622
839,96	41,223
840,13	38,852
840,30	32,108
840,47	35,587
840,64	47,771
840,81	40,466
840,98	37,454
841,15	49,230
841,32	37,273
841,48	51,285
841,65	41,191
841,82	36,937
841,99	39,390
842,16	46,839
842,33	38,984
842,50	44,818
842,67	28,025
842,84	39,063
843,01	46,933
843,18	37,078
843,35	39,390
843,52	42,393
843,68	41,945
843,85	39,285
844,02	31,273
844,19	40,593
844,36	43,589
844,53	38,903
844,70	26,215
844,87	56,771
845,04	49,222
845,21	26,300
845,37	53,528
845,54	36,656
845,71	39,441
845,88	57,499
846,05	41,791
846,22	24,903
846,39	38,508
846,56	48,115
846,72	26,563
846,89	37,108
847,06	52,294
847,23	42,763
847,40	27,721
847,57	31,731
847,74	36,241
847,90	47,869
848,07	44,160
848,24	45,995
848,41	44,084
848,58	59,194
848,75	47,064
848,92	39,316
849,08	41,040
849,25	27,883
849,42	30,302
849,59	47,864
849,76	25,614
849,93	48,409
850,09	49,104
850,26	26,631
850,43	56,706
850,60	27,888
850,77	35,261
850,94	40,630
851,10	41,059
851,27	32,386
851,44	43,922
851,61	32,065
851,78	60,358
851,95	52,802
852,11	43,468
852,28	23,207
852,45	53,019
852,62	57,846
852,79	51,053
852,95	37,318
853,12	47,893
853,29	39,030
853,46	38,864
853,63	42,450
853,79	34,320
853,96	36,668
854,13	58,667
854,30	40,339
854,46	61,112
854,63	28,453
854,80	39,336
854,97	41,006
855,14	75,086
855,30	51,904
855,47	51,020
855,64	44,807
855,81	40,105
855,97	58,602
856,14	34,320
856,31	31,407
856,48	53,871
856,65	62,119
856,81	49,395
856,98	38,673
857,15	35,453
857,32	55,788
857,48	36,557
857,65	63,151
857,82	55,944
857,99	52,246
858,15	55,673
858,32	47,839
858,49	36,313
858,65	70,879
858,82	42,478
858,99	47,226
859,16	53,883
859,32	48,285
859,49	58,086
859,66	58,770
859,83	51,076
859,99	44,376
860,16	33,545
860,33	46,652
860,49	50,655
860,66	43,824
860,83	37,805
861,00	41,983
861,16	65,381
861,33	56,356
861,50	32,460
861,66	45,465
861,83	56,622
862,00	43,417
862,16	44,223
862,33	42,640
862,50	76,670
862,67	49,319
862,83	46,664
863,00	44,131
863,17	59,760
863,33	51,289
863,50	24,989
863,67	58,042
863,83	62,343
864,00	63,150
864,17	41,195
864,33	29,753
864,50	35,618
864,67	61,362
864,83	30,566
865,00	58,915
865,17	27,877
865,33	66,258
865,50	46,057
865,67	45,338
865,83	63,515
866,00	78,059
866,17	53,262
866,33	58,968
866,50	54,478
866,66	49,719
866,83	46,346
867,00	63,718
867,16	81,981
867,33	94,734
867,50	41,859
867,66	55,358
867,83	54,259
868,00	44,079
868,16	66,324
868,33	55,923
868,49	45,930
868,66	79,789
868,83	38,123
868,99	59,011
869,16	84,265
869,32	74,426
869,49	66,160
869,66	46,644
869,82	74,156
869,99	76,396
870,15	47,247
870,32	52,358
870,49	124,954
870,65	95,853
870,82	56,339
870,98	59,007
871,15	92,066
871,32	76,122
871,48	53,211
871,65	54,704
871,81	69,237
871,98	34,691
872,15	38,539
872,31	38,268
872,48	80,437
872,64	69,714
872,81	61,548
872,97	40,959
873,14	81,366
873,31	67,921
873,47	63,919
873,64	78,685
873,80	87,735
873,97	96,576
874,13	79,099
874,30	53,010
874,46	75,934
874,63	74,499
874,80	48,289
874,96	55,442
875,13	79,693
875,29	40,374
875,46	65,183
875,62	26,216
875,79	99,582
875,95	42,366
876,12	37,070
876,28	50,355
876,45	124,464
876,61	34,571
876,78	48,892
876,94	42,060
877,11	74,638
877,27	162,737
877,44	81,350
877,60	58,148
877,77	98,734
877,94	164,726
878,10	34,541
878,27	88,277
878,43	119,040
878,60	36,289
878,76	77,303
878,93	95,071
879,09	68,152
879,26	121,585
879,42	78,136
879,58	45,218
879,75	116,493
879,91	111,645
880,08	55,975
880,24	75,282
880,41	41,518
880,57	56,944
880,74	128,442
880,90	45,374
881,07	88,123
881,23	120,018
881,40	88,852
881,56	58,386
881,73	154,128
881,89	104,128
882,06	51,838
882,22	140,527
882,38	123,619
882,55	164,441
882,71	82,321
882,88	73,251
883,04	91,575
883,21	137,737
883,37	146,251
883,54	104,315
883,70	251,580
883,86	130,793
884,03	111,755
884,19	76,255
884,36	126,045
884,52	152,543
884,69	88,189
884,85	-14,575
885,01	77,962
885,18	147,736
885,34	80,231
885,51	29,870
885,67	97,229
>>>>> Data<<<<< Espectral Procesado Extremo
