Fichero De Datos De SpectraSuite
++++++++++++++++++++++++++++++++++++
Fecha: Wed Apr 22 09:01:56 CEST 2009
Usuario: evoflor
Presente Oscuro Del Espectro: Sí
La Referencia de Presente Del Espectro De: Sí
Muestreados de los componentes de Número de espectros: 1
Espectrómetros: USB4F02353
Tiempo de integración (usec): 500000 (USB4F02353)
Promedio de Espectros Hechos un: 5 (USB4F02353)
El Alisar Del Furgón: 0 (USB4F02353)
Párrafo de de Corregir del la del del de Eléctrica del obscuridad: Sí (USB4F02353)
Estrobo/Lámpara Permitido: No (USB4F02353)
Correct for Detector Non-linearity: No (USB4F02353)
Párrafo de de Corregir del la del del de Externa del luz: No (USB4F02353)
Procesado del espectro de Número de pixeles en: 3648
>>>>> Comienza Data<<<<< Espectral Procesado Del EL
177,79	840,974
178,00	840,974
178,22	840,974
178,44	-7716,288
178,66	646,229
178,88	211,338
179,09	2217,224
179,31	213,584
179,53	-5040,758
179,75	354,293
179,96	-126,371
180,18	245,299
180,40	-263,187
180,62	-154,128
180,83	571,410
181,05	-797,040
181,27	-643,274
181,49	130,018
181,70	-339,284
181,92	337,766
182,14	132,315
182,36	-1096,031
182,58	202,698
182,79	-1056,636
183,01	-9366,928
183,23	308,602
183,45	-105,636
183,66	18,573
183,88	976,797
184,10	934,313
184,32	891,313
184,53	-335,357
184,75	557,486
184,97	-206,248
185,18	1070,956
185,40	203,546
185,62	-733,745
185,84	2112,817
186,05	3715,509
186,27	-6735,362
186,49	-1367,331
186,71	245,169
186,92	525,160
187,14	1824,062
187,36	417,133
187,58	1161,070
187,79	-610,743
188,01	-1261,342
188,23	117,906
188,45	213,058
188,66	-16,443
188,88	163,410
189,10	-387,541
189,31	-148,030
189,53	-41,734
189,75	1257,273
189,97	284,021
190,18	-393,125
190,40	1492,912
190,62	305,160
190,83	391,910
191,05	-344,494
191,27	8949,912
191,49	649,877
191,70	171,693
191,92	591,743
192,14	467,443
192,35	-1623,857
192,57	-1102,475
192,79	-2072,558
193,01	655,335
193,22	543,997
193,44	-576,527
193,66	475,702
193,87	825,482
194,09	115,023
194,31	284,254
194,53	-386,781
194,74	455,960
194,96	-188,418
195,18	825,395
195,39	-1459,450
195,61	-369,454
195,83	2890,742
196,04	384,178
196,26	271,207
196,48	2444,209
196,70	392,096
196,91	191,688
197,13	-341,166
197,35	300,412
197,56	-583,930
197,78	5375,097
198,00	376,550
198,21	514,765
198,43	639,409
198,65	323,653
198,86	120,199
199,08	704,881
199,30	102,033
199,51	802,967
199,73	-2738,820
199,95	249,663
200,16	738,219
200,38	177,025
200,60	2568,270
200,81	-792,615
201,03	9897,129
201,25	532,248
201,46	-60,067
201,68	506,180
201,90	945,771
202,11	440,023
202,33	119,930
202,55	128,679
202,76	639,097
202,98	859,674
203,20	295,817
203,41	-809,390
203,63	476,634
203,85	145,711
204,06	-364,600
204,28	196,991
204,50	-294,614
204,71	450,222
204,93	178,834
205,15	31,902
205,36	-233,285
205,58	-2185,413
205,80	-3288,790
206,01	-32,290
206,23	290,505
206,45	415,200
206,66	378,996
206,88	-429,468
207,10	3350,212
207,31	-53513,245
207,53	81,377
207,75	-174,015
207,96	444,630
208,18	428,894
208,39	260,893
208,61	831,111
208,83	7516,146
209,04	512,689
209,26	375,201
209,48	105,366
209,69	-109,738
209,91	943,625
210,13	54,609
210,34	117,455
210,56	248,251
210,77	1812,457
210,99	295,150
211,21	-320,087
211,42	206,826
211,64	753,878
211,86	316,758
212,07	209,774
212,29	681,670
212,50	1173,421
212,72	203,515
212,94	188,031
213,15	196,001
213,37	628,765
213,58	156,124
213,80	362,423
214,02	2679,991
214,23	245,319
214,45	302,432
214,67	54,380
214,88	-39,966
215,10	1095,957
215,31	1219,053
215,53	94,212
215,75	357,028
215,96	549,407
216,18	168,387
216,39	281,344
216,61	486,870
216,83	1131,543
217,04	364,670
217,26	81,345
217,47	470,257
217,69	294,248
217,91	89,615
218,12	1639,223
218,34	152,330
218,55	202,441
218,77	52,661
218,99	160,275
219,20	212,355
219,42	488,174
219,63	107,124
219,85	213,296
220,06	-216,907
220,28	135,450
220,50	40,763
220,71	146,712
220,93	464,235
221,14	425,810
221,36	86,111
221,58	124,676
221,79	59,533
222,01	196,531
222,22	156,769
222,44	50,549
222,65	197,809
222,87	45,703
223,09	97,057
223,30	64,308
223,52	131,761
223,73	86,011
223,95	47,710
224,16	76,495
224,38	67,525
224,60	74,014
224,81	-32,354
225,03	84,206
225,24	81,154
225,46	-2,681
225,67	28,115
225,89	54,505
226,10	135,095
226,32	141,601
226,54	18,684
226,75	15,632
226,97	149,357
227,18	98,637
227,40	38,998
227,61	40,971
227,83	29,281
228,04	111,046
228,26	93,399
228,47	36,443
228,69	95,139
228,91	69,324
229,12	123,315
229,34	21,094
229,55	63,100
229,77	24,205
229,98	30,535
230,20	38,490
230,41	-10,861
230,63	88,269
230,84	25,602
231,06	60,270
231,27	-20,497
231,49	50,386
231,71	19,735
231,92	20,261
232,14	-11,316
232,35	36,844
232,57	7,512
232,78	13,275
233,00	23,600
233,21	19,567
233,43	18,499
233,64	-7,075
233,86	41,115
234,07	35,132
234,29	-2,860
234,50	0,234
234,72	32,935
234,93	17,849
235,15	5,655
235,36	14,664
235,58	52,746
235,79	28,372
236,01	6,847
236,22	28,662
236,44	38,891
236,65	18,677
236,87	17,012
237,08	9,992
237,30	-6,136
237,51	20,311
237,73	19,655
237,94	4,289
238,16	12,179
238,37	10,649
238,59	6,920
238,80	10,133
239,02	3,422
239,23	25,284
239,45	6,919
239,66	19,113
239,88	24,872
240,09	21,769
240,31	7,223
240,52	0,855
240,74	11,965
240,95	11,210
241,17	6,038
241,38	8,797
241,60	5,578
241,81	16,736
242,03	-0,474
242,24	8,691
242,46	14,349
242,67	-0,291
242,89	14,349
243,10	10,372
243,32	14,326
243,53	15,578
243,75	5,259
243,96	10,992
244,18	10,824
244,39	16,364
244,60	1,960
244,82	4,336
245,03	14,820
245,25	8,439
245,46	24,007
245,68	-0,729
245,89	28,578
246,11	17,113
246,32	6,701
246,54	6,745
246,75	3,950
246,97	14,130
247,18	15,552
247,39	8,544
247,61	10,554
247,82	13,299
248,04	2,151
248,25	4,866
248,47	5,223
248,68	8,051
248,90	5,763
249,11	12,259
249,33	17,056
249,54	10,044
249,75	11,280
249,97	1,969
250,18	17,843
250,40	13,832
250,61	4,696
250,83	1,298
251,04	9,713
251,25	10,488
251,47	8,723
251,68	3,571
251,90	9,165
252,11	6,741
252,33	7,563
252,54	4,710
252,76	2,903
252,97	0,061
253,18	6,701
253,40	8,479
253,61	3,170
253,83	7,357
254,04	9,503
254,25	3,513
254,47	0,520
254,68	10,901
254,90	6,473
255,11	3,948
255,33	9,650
255,54	5,807
255,75	3,203
255,97	7,510
256,18	3,806
256,40	6,345
256,61	6,653
256,82	3,405
257,04	11,102
257,25	5,015
257,47	6,619
257,68	9,014
257,89	7,054
258,11	2,817
258,32	11,217
258,54	4,448
258,75	15,429
258,96	6,058
259,18	4,700
259,39	2,761
259,61	11,305
259,82	2,960
260,03	1,166
260,25	6,787
260,46	4,240
260,68	3,068
260,89	0,134
261,10	8,910
261,32	5,975
261,53	-1,120
261,75	7,846
261,96	4,428
262,17	19,350
262,39	12,181
262,60	0,688
262,81	2,232
263,03	10,465
263,24	9,561
263,46	1,936
263,67	6,126
263,88	8,717
264,10	1,657
264,31	4,790
264,52	4,729
264,74	7,396
264,95	5,275
265,17	6,773
265,38	5,861
265,59	10,332
265,81	8,290
266,02	2,459
266,23	0,319
266,45	10,933
266,66	9,350
266,87	4,613
267,09	2,286
267,30	7,933
267,52	10,758
267,73	8,127
267,94	0,794
268,16	7,956
268,37	2,196
268,58	6,317
268,80	-0,328
269,01	8,120
269,22	6,398
269,44	6,626
269,65	8,196
269,86	4,793
270,08	4,953
270,29	1,733
270,50	5,433
270,72	7,844
270,93	2,385
271,14	2,794
271,36	2,632
271,57	7,422
271,78	2,959
272,00	1,843
272,21	7,441
272,42	3,775
272,64	9,987
272,85	2,441
273,06	1,661
273,28	5,579
273,49	-0,206
273,70	6,219
273,92	6,785
274,13	4,751
274,34	-2,558
274,56	7,754
274,77	4,557
274,98	10,131
275,20	8,123
275,41	6,592
275,62	-0,078
275,84	4,971
276,05	11,954
276,26	2,538
276,47	4,319
276,69	9,946
276,90	8,942
277,11	2,695
277,33	1,572
277,54	7,212
277,75	7,297
277,97	2,874
278,18	2,845
278,39	9,247
278,61	0,454
278,82	8,542
279,03	6,753
279,24	0,785
279,46	6,096
279,67	10,692
279,88	4,890
280,10	10,020
280,31	4,287
280,52	2,456
280,73	0,797
280,95	7,209
281,16	5,480
281,37	4,587
281,59	5,455
281,80	9,057
282,01	1,409
282,22	0,657
282,44	3,882
282,65	12,914
282,86	5,360
283,08	2,007
283,29	3,395
283,50	0,672
283,71	4,898
283,93	3,988
284,14	2,246
284,35	4,864
284,56	4,383
284,78	-1,202
284,99	4,206
285,20	9,018
285,42	4,092
285,63	4,775
285,84	2,535
286,05	4,192
286,27	2,832
286,48	8,217
286,69	8,684
286,90	4,370
287,12	3,141
287,33	2,917
287,54	3,401
287,75	9,189
287,97	3,740
288,18	1,430
288,39	5,211
288,60	3,424
288,82	2,470
289,03	2,640
289,24	6,510
289,45	7,399
289,67	4,932
289,88	2,471
290,09	8,682
290,30	3,280
290,52	1,524
290,73	0,150
290,94	2,551
291,15	4,590
291,37	4,087
291,58	3,215
291,79	3,448
292,00	4,478
292,21	4,645
292,43	6,517
292,64	0,354
292,85	4,683
293,06	5,287
293,28	3,658
293,49	3,270
293,70	9,407
293,91	0,486
294,12	4,100
294,34	3,170
294,55	5,001
294,76	5,636
294,97	6,671
295,19	4,042
295,40	4,813
295,61	4,144
295,82	4,840
296,03	3,489
296,25	5,183
296,46	1,733
296,67	3,134
296,88	5,510
297,09	2,296
297,31	1,017
297,52	5,376
297,73	1,781
297,94	2,203
298,15	6,223
298,37	4,106
298,58	2,521
298,79	4,898
299,00	-2,246
299,21	3,674
299,43	0,347
299,64	8,375
299,85	1,732
300,06	1,677
300,27	3,923
300,49	7,275
300,70	7,822
300,91	2,218
301,12	3,923
301,33	7,108
301,54	2,101
301,76	4,246
301,97	2,092
302,18	6,441
302,39	7,086
302,60	2,478
302,82	3,549
303,03	8,896
303,24	3,454
303,45	6,369
303,66	5,048
303,87	1,610
304,09	5,545
304,30	0,743
304,51	2,720
304,72	1,611
304,93	3,887
305,14	2,653
305,36	3,884
305,57	-0,406
305,78	6,151
305,99	4,211
306,20	3,530
306,41	1,500
306,62	2,457
306,84	3,321
307,05	3,851
307,26	1,845
307,47	9,150
307,68	3,901
307,89	3,673
308,11	7,464
308,32	4,906
308,53	2,820
308,74	0,929
308,95	2,837
309,16	8,235
309,37	3,673
309,59	1,955
309,80	4,980
310,01	6,047
310,22	4,960
310,43	6,123
310,64	5,491
310,85	4,979
311,06	1,129
311,28	5,595
311,49	4,704
311,70	9,314
311,91	2,419
312,12	0,711
312,33	3,090
312,54	3,941
312,75	8,006
312,97	1,240
313,18	6,697
313,39	1,804
313,60	4,095
313,81	3,571
314,02	4,075
314,23	5,200
314,44	1,139
314,65	2,082
314,87	0,583
315,08	2,656
315,29	0,874
315,50	5,384
315,71	8,926
315,92	6,473
316,13	1,431
316,34	4,224
316,55	6,465
316,77	-0,387
316,98	2,747
317,19	0,815
317,40	4,985
317,61	8,714
317,82	5,719
318,03	0,150
318,24	4,594
318,45	7,603
318,66	4,359
318,87	1,635
319,09	4,710
319,30	5,213
319,51	4,820
319,72	3,951
319,93	5,559
320,14	5,978
320,35	6,060
320,56	1,644
320,77	5,406
320,98	8,223
321,19	8,063
321,40	4,797
321,62	4,646
321,83	-0,669
322,04	5,290
322,25	5,593
322,46	9,265
322,67	5,740
322,88	7,054
323,09	3,742
323,30	7,054
323,51	8,867
323,72	5,242
323,93	1,792
324,14	3,644
324,35	-0,833
324,56	1,876
324,77	2,320
324,99	4,730
325,20	3,280
325,41	4,666
325,62	1,861
325,83	-0,788
326,04	0,399
326,25	3,852
326,46	0,066
326,67	1,722
326,88	4,879
327,09	1,781
327,30	3,484
327,51	3,249
327,72	2,162
327,93	3,498
328,14	3,294
328,35	5,765
328,56	3,643
328,77	6,353
328,98	6,301
329,19	1,840
329,40	4,703
329,61	0,851
329,82	1,248
330,04	6,319
330,25	5,202
330,46	5,446
330,67	2,097
330,88	6,124
331,09	2,245
331,30	3,081
331,51	3,849
331,72	5,616
331,93	5,654
332,14	2,762
332,35	4,944
332,56	4,205
332,77	6,046
332,98	3,591
333,19	4,209
333,40	4,285
333,61	2,068
333,82	3,943
334,03	5,517
334,24	9,445
334,45	5,293
334,66	5,588
334,87	3,126
335,08	2,342
335,29	2,262
335,50	3,612
335,71	0,777
335,92	5,574
336,13	4,072
336,34	3,017
336,55	5,268
336,76	6,779
336,97	3,708
337,18	4,955
337,39	3,251
337,60	3,555
337,81	3,675
338,02	5,886
338,23	4,104
338,44	2,592
338,65	1,012
338,86	5,073
339,07	5,483
339,28	2,140
339,49	4,118
339,70	0,247
339,91	3,598
340,11	7,977
340,32	4,224
340,53	1,808
340,74	-1,434
340,95	2,099
341,16	4,308
341,37	4,159
341,58	2,626
341,79	0,366
342,00	3,710
342,21	-1,130
342,42	3,558
342,63	9,003
342,84	3,308
343,05	3,566
343,26	8,420
343,47	5,017
343,68	3,414
343,89	0,577
344,10	3,768
344,31	4,262
344,52	4,293
344,73	1,505
344,94	1,062
345,14	5,461
345,35	1,896
345,56	0,217
345,77	0,641
345,98	2,224
346,19	3,628
346,40	7,559
346,61	0,258
346,82	3,614
347,03	5,613
347,24	3,254
347,45	3,820
347,66	8,424
347,87	0,644
348,08	7,213
348,28	3,071
348,49	3,128
348,70	5,067
348,91	4,404
349,12	3,143
349,33	-2,627
349,54	7,336
349,75	5,905
349,96	2,857
350,17	5,722
350,38	0,951
350,59	1,044
350,80	2,483
351,00	2,788
351,21	11,120
351,42	0,178
351,63	-0,767
351,84	4,015
352,05	7,048
352,26	2,048
352,47	5,727
352,68	6,918
352,89	2,684
353,09	1,434
353,30	0,121
353,51	1,848
353,72	8,749
353,93	7,930
354,14	0,304
354,35	2,801
354,56	6,715
354,77	1,545
354,98	0,786
355,18	5,965
355,39	10,029
355,60	1,975
355,81	3,881
356,02	2,771
356,23	2,135
356,44	5,551
356,65	3,312
356,85	8,589
357,06	8,261
357,27	5,271
357,48	-1,204
357,69	9,220
357,90	7,321
358,11	-1,717
358,32	0,953
358,52	7,418
358,73	1,301
358,94	6,112
359,15	3,365
359,36	5,207
359,57	4,608
359,78	5,403
359,98	3,892
360,19	1,200
360,40	0,409
360,61	6,575
360,82	3,845
361,03	11,855
361,24	14,541
361,44	2,015
361,65	4,061
361,86	1,936
362,07	3,876
362,28	8,905
362,49	4,692
362,70	6,843
362,90	3,144
363,11	2,798
363,32	0,425
363,53	2,328
363,74	7,987
363,95	7,606
364,15	2,662
364,36	6,952
364,57	2,484
364,78	1,008
364,99	2,164
365,20	3,621
365,40	7,526
365,61	4,117
365,82	5,067
366,03	7,307
366,24	2,366
366,45	0,064
366,65	-0,488
366,86	3,774
367,07	3,297
367,28	-0,086
367,49	0,782
367,69	7,077
367,90	2,975
368,11	6,245
368,32	5,958
368,53	6,306
368,73	2,633
368,94	5,229
369,15	6,379
369,36	5,350
369,57	3,726
369,78	4,617
369,98	3,485
370,19	5,280
370,40	0,862
370,61	5,083
370,82	5,191
371,02	7,037
371,23	3,859
371,44	3,948
371,65	3,348
371,85	6,720
372,06	2,307
372,27	4,020
372,48	1,854
372,69	7,368
372,89	5,406
373,10	4,041
373,31	6,540
373,52	4,892
373,73	7,252
373,93	6,105
374,14	5,972
374,35	5,848
374,56	6,189
374,76	5,070
374,97	4,335
375,18	7,870
375,39	3,924
375,60	5,647
375,80	3,581
376,01	2,038
376,22	6,081
376,43	4,956
376,63	5,371
376,84	4,852
377,05	4,618
377,26	3,812
377,46	2,401
377,67	2,412
377,88	-0,428
378,09	3,662
378,29	5,393
378,50	2,239
378,71	4,688
378,92	-0,519
379,12	1,584
379,33	1,103
379,54	3,893
379,75	9,765
379,95	4,288
380,16	5,592
380,37	5,803
380,58	1,266
380,78	7,422
380,99	0,495
381,20	2,497
381,41	6,231
381,61	3,013
381,82	4,890
382,03	7,982
382,24	5,935
382,44	3,942
382,65	1,559
382,86	10,789
383,06	7,208
383,27	3,842
383,48	2,774
383,69	5,157
383,89	-1,182
384,10	0,279
384,31	4,732
384,51	9,888
384,72	6,649
384,93	2,809
385,14	0,930
385,34	1,679
385,55	2,320
385,76	1,110
385,96	8,754
386,17	4,567
386,38	3,338
386,59	10,109
386,79	5,891
387,00	10,496
387,21	8,585
387,41	3,039
387,62	5,892
387,83	6,863
388,03	1,935
388,24	3,763
388,45	4,830
388,66	4,147
388,86	3,763
389,07	1,418
389,28	10,900
389,48	3,999
389,69	3,891
389,90	-0,481
390,10	2,802
390,31	8,304
390,52	2,513
390,72	4,188
390,93	4,376
391,14	3,546
391,34	5,514
391,55	5,798
391,76	6,912
391,96	11,312
392,17	3,432
392,38	4,955
392,58	4,543
392,79	3,082
393,00	0,822
393,20	3,558
393,41	5,028
393,62	9,000
393,82	2,852
394,03	4,690
394,24	2,127
394,44	8,805
394,65	9,150
394,86	3,537
395,06	8,995
395,27	5,546
395,48	3,881
395,68	1,750
395,89	5,376
396,10	8,607
396,30	0,270
396,51	2,384
396,72	5,344
396,92	-1,154
397,13	8,398
397,34	-0,662
397,54	6,567
397,75	1,774
397,95	-0,640
398,16	3,284
398,37	5,977
398,57	-2,451
398,78	0,160
398,99	4,066
399,19	5,568
399,40	9,944
399,60	1,026
399,81	5,298
400,02	9,898
400,22	3,826
400,43	7,530
400,64	1,207
400,84	-1,141
401,05	6,755
401,25	7,836
401,46	1,809
401,67	7,629
401,87	0,990
402,08	-0,663
402,29	2,019
402,49	9,060
402,70	6,289
402,90	-0,359
403,11	4,463
403,32	0,738
403,52	1,255
403,73	1,311
403,93	6,562
404,14	12,518
404,35	0,443
404,55	0,097
404,76	4,599
404,96	2,884
405,17	7,487
405,38	9,537
405,58	3,752
405,79	8,772
405,99	10,812
406,20	4,409
406,40	3,089
406,61	5,556
406,82	5,069
407,02	2,385
407,23	1,004
407,43	2,375
407,64	0,763
407,85	2,988
408,05	-1,016
408,26	13,910
408,46	10,935
408,67	4,182
408,87	3,928
409,08	1,469
409,29	8,189
409,49	9,019
409,70	2,971
409,90	4,148
410,11	5,332
410,31	7,562
410,52	3,312
410,72	2,900
410,93	6,713
411,14	3,668
411,34	-0,764
411,55	3,740
411,75	4,989
411,96	5,540
412,16	2,694
412,37	0,023
412,57	6,143
412,78	9,910
412,99	0,528
413,19	5,250
413,40	1,522
413,60	3,419
413,81	3,736
414,01	1,476
414,22	5,391
414,42	1,201
414,63	0,526
414,83	2,913
415,04	9,824
415,24	2,159
415,45	4,197
415,65	3,585
415,86	10,566
416,07	1,514
416,27	6,192
416,48	10,455
416,68	10,993
416,89	1,594
417,09	5,072
417,30	11,200
417,50	-2,211
417,71	5,081
417,91	3,992
418,12	3,934
418,32	3,497
418,53	-1,747
418,73	1,143
418,94	3,639
419,14	4,824
419,35	-1,154
419,55	3,526
419,76	7,226
419,96	2,338
420,17	2,600
420,37	1,161
420,58	8,355
420,78	4,922
420,99	-0,679
421,19	5,442
421,40	10,317
421,60	7,880
421,81	-2,422
422,01	4,378
422,22	2,357
422,42	6,934
422,63	4,484
422,83	5,188
423,04	11,678
423,24	14,713
423,45	4,332
423,65	2,753
423,86	6,795
424,06	7,122
424,27	1,712
424,47	2,825
424,67	-1,066
424,88	5,284
425,08	2,470
425,29	7,832
425,49	-0,954
425,70	4,754
425,90	1,137
426,11	3,522
426,31	4,159
426,52	7,671
426,72	3,042
426,93	1,151
427,13	7,519
427,33	0,697
427,54	6,762
427,74	4,561
427,95	9,277
428,15	4,041
428,36	1,729
428,56	1,211
428,77	3,646
428,97	4,864
429,18	2,907
429,38	4,162
429,58	3,516
429,79	6,506
429,99	0,290
430,20	4,671
430,40	7,966
430,61	1,927
430,81	1,691
431,01	10,737
431,22	7,450
431,42	6,193
431,63	-1,790
431,83	5,050
432,04	6,357
432,24	5,646
432,44	5,763
432,65	2,398
432,85	4,921
433,06	4,704
433,26	4,156
433,47	3,442
433,67	-1,143
433,87	1,477
434,08	2,533
434,28	-1,054
434,49	2,578
434,69	10,442
434,89	5,381
435,10	1,728
435,30	6,982
435,51	3,323
435,71	2,257
435,91	-0,843
436,12	-0,637
436,32	2,486
436,53	0,792
436,73	1,481
436,93	2,618
437,14	1,169
437,34	5,496
437,55	0,849
437,75	9,270
437,95	9,234
438,16	0,765
438,36	4,471
438,57	4,715
438,77	1,874
438,97	6,290
439,18	4,533
439,38	2,622
439,58	1,728
439,79	0,954
439,99	-4,290
440,20	11,394
440,40	9,077
440,60	5,091
440,81	3,058
441,01	6,527
441,21	5,447
441,42	1,677
441,62	4,979
441,83	2,940
442,03	3,627
442,23	5,532
442,44	4,070
442,64	5,254
442,84	1,327
443,05	4,702
443,25	2,540
443,45	8,698
443,66	5,009
443,86	1,499
444,06	5,056
444,27	4,520
444,47	6,932
444,67	5,580
444,88	5,632
445,08	5,505
445,28	-0,351
445,49	1,792
445,69	3,483
445,90	7,664
446,10	9,593
446,30	1,593
446,51	2,177
446,71	5,924
446,91	5,791
447,12	11,334
447,32	3,462
447,52	6,210
447,72	7,836
447,93	2,545
448,13	-1,209
448,33	10,177
448,54	6,285
448,74	1,546
448,94	3,334
449,15	11,166
449,35	1,394
449,55	9,142
449,76	6,919
449,96	3,043
450,16	6,079
450,37	0,684
450,57	5,283
450,77	4,554
450,98	5,506
451,18	7,298
451,38	7,003
451,58	9,378
451,79	4,587
451,99	4,071
452,19	7,298
452,40	15,344
452,60	1,352
452,80	8,319
453,00	6,749
453,21	2,007
453,41	6,893
453,61	3,837
453,82	9,604
454,02	5,218
454,22	18,848
454,42	8,069
454,63	5,774
454,83	2,453
455,03	12,879
455,24	5,705
455,44	8,724
455,64	4,113
455,84	6,750
456,05	2,522
456,25	0,589
456,45	2,752
456,65	5,222
456,86	8,220
457,06	6,130
457,26	6,340
457,47	13,753
457,67	4,548
457,87	3,191
458,07	8,671
458,28	8,381
458,48	12,371
458,68	1,372
458,88	13,923
459,09	5,837
459,29	10,871
459,49	1,306
459,69	9,356
459,90	8,126
460,10	6,511
460,30	12,190
460,50	5,346
460,71	8,940
460,91	1,199
461,11	10,537
461,31	7,982
461,52	8,899
461,72	7,822
461,92	5,436
462,12	15,309
462,32	4,993
462,53	4,926
462,73	5,734
462,93	9,506
463,13	11,457
463,34	7,144
463,54	8,788
463,74	7,727
463,94	8,789
464,14	10,517
464,35	5,227
464,55	15,531
464,75	17,545
464,95	6,061
465,16	2,415
465,36	13,296
465,56	5,590
465,76	6,332
465,96	11,588
466,17	9,891
466,37	4,458
466,57	14,150
466,77	12,283
466,97	8,384
467,18	13,024
467,38	14,170
467,58	17,245
467,78	15,181
467,98	10,706
468,19	10,238
468,39	14,050
468,59	9,607
468,79	9,661
468,99	13,473
469,19	11,298
469,40	8,662
469,60	9,442
469,80	12,382
470,00	12,642
470,20	17,546
470,41	9,720
470,61	13,229
470,81	14,156
471,01	10,231
471,21	14,042
471,41	17,455
471,62	13,447
471,82	10,325
472,02	9,648
472,22	10,878
472,42	11,149
472,62	17,136
472,83	7,990
473,03	17,509
473,23	13,517
473,43	17,356
473,63	14,855
473,83	11,413
474,03	15,624
474,24	15,614
474,44	10,780
474,64	14,267
474,84	10,751
475,04	13,011
475,24	17,012
475,45	14,387
475,65	13,189
475,85	19,561
476,05	7,586
476,25	11,560
476,45	17,534
476,65	17,007
476,85	12,676
477,06	16,061
477,26	11,276
477,46	14,630
477,66	15,387
477,86	16,105
478,06	15,439
478,26	21,169
478,46	14,444
478,67	18,952
478,87	14,121
479,07	15,403
479,27	18,409
479,47	13,418
479,67	9,952
479,87	14,153
480,07	20,634
480,28	15,988
480,48	14,510
480,68	18,306
480,88	23,770
481,08	20,668
481,28	17,504
481,48	18,032
481,68	17,397
481,88	15,205
482,08	16,397
482,29	18,784
482,49	15,273
482,69	17,531
482,89	16,238
483,09	23,711
483,29	17,629
483,49	12,190
483,69	19,527
483,89	17,671
484,09	14,959
484,29	15,384
484,50	19,089
484,70	20,480
484,90	18,104
485,10	19,163
485,30	20,199
485,50	25,288
485,70	20,038
485,90	16,978
486,10	17,224
486,30	16,279
486,50	19,077
486,70	17,177
486,90	18,859
487,10	20,643
487,30	20,165
487,51	19,586
487,71	17,654
487,91	21,081
488,11	23,007
488,31	17,508
488,51	21,081
488,71	19,724
488,91	20,435
489,11	20,139
489,31	20,574
489,51	23,400
489,71	22,146
489,91	19,472
490,11	22,224
490,31	24,328
490,51	22,887
490,71	24,290
490,91	20,722
491,11	22,174
491,31	26,537
491,51	22,607
491,72	20,682
491,92	22,517
492,12	23,540
492,32	25,149
492,52	25,379
492,72	22,470
492,92	22,480
493,12	24,616
493,32	22,011
493,52	20,648
493,72	25,568
493,92	24,548
494,12	22,852
494,32	26,232
494,52	25,056
494,72	23,413
494,92	23,577
495,12	26,835
495,32	30,565
495,52	26,622
495,72	24,565
495,92	25,439
496,12	29,044
496,32	27,635
496,52	24,332
496,72	26,993
496,92	28,262
497,12	27,360
497,32	27,500
497,52	27,630
497,72	27,415
497,92	27,852
498,12	25,483
498,32	28,399
498,52	25,420
498,72	25,027
498,92	25,878
499,12	27,240
499,32	24,551
499,52	31,020
499,72	28,149
499,92	31,187
500,12	28,507
500,32	25,245
500,52	27,314
500,72	32,144
500,91	32,482
501,11	29,789
501,31	28,271
501,51	31,017
501,71	31,784
501,91	29,605
502,11	27,957
502,31	29,255
502,51	29,857
502,71	30,010
502,91	26,675
503,11	32,328
503,31	31,606
503,51	27,603
503,71	27,721
503,91	31,447
504,11	28,668
504,31	30,496
504,51	27,707
504,71	38,059
504,91	27,116
505,10	33,094
505,30	30,173
505,50	32,056
505,70	30,043
505,90	30,552
506,10	28,373
506,30	28,737
506,50	31,865
506,70	34,078
506,90	31,487
507,10	30,316
507,30	29,695
507,50	31,334
507,70	33,897
507,89	33,718
508,09	31,448
508,29	29,176
508,49	29,911
508,69	33,469
508,89	30,780
509,09	32,187
509,29	31,905
509,49	34,994
509,69	34,457
509,89	35,362
510,09	32,718
510,28	34,008
510,48	33,148
510,68	31,605
510,88	33,337
511,08	33,216
511,28	33,088
511,48	32,651
511,68	29,930
511,88	38,938
512,07	32,063
512,27	32,687
512,47	32,928
512,67	31,336
512,87	29,999
513,07	34,642
513,27	31,305
513,47	32,354
513,67	30,719
513,86	35,912
514,06	34,835
514,26	34,698
514,46	36,070
514,66	33,383
514,86	33,519
515,06	38,036
515,26	37,374
515,45	34,331
515,65	34,279
515,85	35,415
516,05	33,939
516,25	31,423
516,45	37,710
516,65	30,800
516,84	32,992
517,04	35,964
517,24	34,067
517,44	36,951
517,64	35,926
517,84	38,714
518,04	35,385
518,23	35,881
518,43	39,244
518,63	35,091
518,83	31,372
519,03	36,093
519,23	36,178
519,42	36,410
519,62	36,187
519,82	34,062
520,02	33,436
520,22	38,339
520,42	35,400
520,61	36,853
520,81	34,905
521,01	38,050
521,21	35,373
521,41	34,788
521,61	38,971
521,80	35,754
522,00	34,330
522,20	41,441
522,40	35,756
522,60	36,938
522,79	34,890
522,99	41,883
523,19	31,908
523,39	33,894
523,59	36,436
523,78	39,004
523,98	34,551
524,18	37,221
524,38	33,354
524,58	35,200
524,77	37,995
524,97	38,946
525,17	36,664
525,37	36,522
525,57	40,871
525,76	37,685
525,96	39,974
526,16	35,327
526,36	34,718
526,56	35,961
526,75	37,284
526,95	39,556
527,15	34,759
527,35	38,649
527,55	35,207
527,74	36,435
527,94	34,930
528,14	36,360
528,34	38,445
528,53	35,507
528,73	41,900
528,93	38,792
529,13	35,012
529,32	36,984
529,52	36,979
529,72	37,077
529,92	36,466
530,12	36,530
530,31	36,412
530,51	39,680
530,71	35,388
530,91	41,865
531,10	32,644
531,30	37,159
531,50	37,219
531,70	37,775
531,89	39,224
532,09	37,094
532,29	37,287
532,49	38,297
532,68	35,976
532,88	35,551
533,08	35,384
533,28	39,206
533,47	38,743
533,67	39,793
533,87	36,660
534,06	42,441
534,26	36,004
534,46	36,263
534,66	38,001
534,85	39,370
535,05	33,111
535,25	33,036
535,45	33,991
535,64	40,352
535,84	38,746
536,04	34,893
536,23	37,878
536,43	40,078
536,63	37,447
536,83	38,791
537,02	37,077
537,22	35,489
537,42	39,627
537,61	39,518
537,81	37,071
538,01	40,320
538,20	37,554
538,40	36,412
538,60	37,426
538,80	37,730
538,99	38,502
539,19	37,641
539,39	36,347
539,58	40,447
539,78	36,327
539,98	37,676
540,17	36,544
540,37	41,764
540,57	37,223
540,76	37,640
540,96	32,221
541,16	39,060
541,36	38,680
541,55	38,382
541,75	37,454
541,95	40,055
542,14	35,629
542,34	35,853
542,54	33,909
542,73	39,558
542,93	38,170
543,13	37,708
543,32	35,935
543,52	40,920
543,72	37,169
543,91	38,691
544,11	36,551
544,31	33,508
544,50	35,921
544,70	38,559
544,89	37,903
545,09	37,913
545,29	38,189
545,48	38,952
545,68	33,588
545,88	39,044
546,07	33,978
546,27	36,247
546,47	39,388
546,66	39,306
546,86	35,256
547,06	39,293
547,25	37,231
547,45	36,563
547,64	38,779
547,84	38,287
548,04	38,869
548,23	42,796
548,43	40,234
548,63	39,342
548,82	37,085
549,02	40,252
549,21	35,819
549,41	37,213
549,61	37,888
549,80	37,056
550,00	38,300
550,20	36,217
550,39	38,933
550,59	38,953
550,78	39,234
550,98	36,255
551,18	39,378
551,37	38,347
551,57	37,612
551,76	38,662
551,96	37,503
552,16	36,899
552,35	36,985
552,55	35,617
552,74	36,967
552,94	39,331
553,14	36,326
553,33	37,154
553,53	38,042
553,72	36,848
553,92	39,361
554,12	37,174
554,31	39,573
554,51	37,079
554,70	33,946
554,90	38,169
555,09	40,453
555,29	37,135
555,49	38,014
555,68	40,129
555,88	36,279
556,07	35,731
556,27	41,690
556,46	38,027
556,66	36,733
556,86	43,509
557,05	40,481
557,25	36,695
557,44	36,846
557,64	34,860
557,83	37,185
558,03	37,907
558,22	35,321
558,42	37,408
558,62	38,220
558,81	38,864
559,01	39,643
559,20	40,130
559,40	35,603
559,59	38,210
559,79	35,753
559,98	36,721
560,18	38,060
560,37	39,390
560,57	38,792
560,76	35,513
560,96	35,215
561,16	38,695
561,35	34,642
561,55	38,120
561,74	39,761
561,94	37,969
562,13	37,335
562,33	38,919
562,52	37,241
562,72	36,051
562,91	37,729
563,11	37,751
563,30	38,851
563,50	38,548
563,69	34,400
563,89	35,763
564,08	38,442
564,28	36,211
564,47	39,603
564,67	37,749
564,86	35,837
565,06	37,052
565,25	34,747
565,45	36,014
565,64	41,878
565,84	37,079
566,03	35,594
566,23	38,267
566,42	37,669
566,62	37,202
566,81	38,070
567,01	38,563
567,20	39,032
567,40	37,998
567,59	35,907
567,79	41,737
567,98	40,754
568,18	35,675
568,37	39,194
568,57	36,985
568,76	37,551
568,96	39,027
569,15	34,755
569,35	38,995
569,54	41,104
569,73	39,052
569,93	38,473
570,12	37,461
570,32	38,477
570,51	37,252
570,71	39,307
570,90	38,570
571,10	36,841
571,29	36,426
571,49	35,905
571,68	39,576
571,87	38,724
572,07	39,190
572,26	34,138
572,46	36,480
572,65	39,864
572,85	35,868
573,04	38,300
573,24	36,634
573,43	39,058
573,62	37,549
573,82	37,779
574,01	37,225
574,21	35,047
574,40	37,914
574,60	34,167
574,79	40,636
574,98	37,399
575,18	38,623
575,37	36,408
575,57	37,268
575,76	38,406
575,96	36,854
576,15	38,255
576,34	37,075
576,54	37,672
576,73	37,350
576,93	37,919
577,12	38,060
577,31	38,294
577,51	36,766
577,70	38,635
577,90	37,580
578,09	37,931
578,28	35,930
578,48	37,292
578,67	37,362
578,87	38,411
579,06	37,073
579,25	38,159
579,45	38,652
579,64	35,601
579,84	36,396
580,03	37,488
580,22	39,510
580,42	36,788
580,61	38,393
580,81	37,129
581,00	36,232
581,19	38,286
581,39	36,459
581,58	36,069
581,77	36,100
581,97	39,586
582,16	37,948
582,35	37,242
582,55	37,917
582,74	39,326
582,94	37,905
583,13	36,630
583,32	36,492
583,52	37,731
583,71	37,600
583,90	37,980
584,10	38,860
584,29	38,806
584,48	35,403
584,68	35,010
584,87	39,134
585,06	36,725
585,26	36,710
585,45	37,172
585,65	40,010
585,84	37,022
586,03	36,497
586,23	36,991
586,42	36,572
586,61	41,612
586,81	38,107
587,00	36,508
587,19	37,073
587,39	38,166
587,58	37,923
587,77	36,223
587,97	35,319
588,16	36,113
588,35	36,503
588,54	37,134
588,74	37,605
588,93	39,193
589,12	38,002
589,32	35,844
589,51	37,487
589,70	35,726
589,90	35,671
590,09	34,554
590,28	39,616
590,48	34,791
590,67	38,256
590,86	38,449
591,06	37,607
591,25	37,899
591,44	39,600
591,63	38,151
591,83	36,298
592,02	36,998
592,21	37,402
592,41	37,165
592,60	38,599
592,79	38,480
592,98	39,443
593,18	36,227
593,37	36,161
593,56	37,147
593,76	37,984
593,95	36,456
594,14	36,280
594,33	38,962
594,53	37,662
594,72	35,810
594,91	38,684
595,10	37,357
595,30	36,446
595,49	36,912
595,68	38,257
595,88	39,270
596,07	38,471
596,26	39,043
596,45	35,944
596,65	35,552
596,84	36,732
597,03	38,216
597,22	34,569
597,42	38,851
597,61	36,102
597,80	37,798
597,99	36,550
598,19	38,399
598,38	36,384
598,57	37,486
598,76	38,585
598,95	37,823
599,15	37,656
599,34	36,506
599,53	35,751
599,72	36,944
599,92	39,287
600,11	37,990
600,30	36,953
600,49	39,954
600,69	37,914
600,88	36,572
601,07	36,210
601,26	35,429
601,45	35,801
601,65	35,765
601,84	39,094
602,03	36,812
602,22	38,160
602,42	39,218
602,61	36,229
602,80	37,459
602,99	36,276
603,18	35,669
603,38	40,394
603,57	35,820
603,76	35,509
603,95	36,140
604,14	38,742
604,34	36,112
604,53	36,069
604,72	36,739
604,91	38,621
605,10	36,728
605,29	38,017
605,49	35,929
605,68	37,973
605,87	39,938
606,06	36,034
606,25	35,859
606,45	38,129
606,64	36,291
606,83	39,236
607,02	37,151
607,21	38,152
607,40	37,625
607,60	35,680
607,79	36,252
607,98	37,269
608,17	36,198
608,36	36,208
608,55	37,850
608,75	37,980
608,94	39,483
609,13	35,102
609,32	35,350
609,51	38,694
609,70	38,266
609,89	35,661
610,09	35,004
610,28	35,953
610,47	36,395
610,66	36,302
610,85	34,048
611,04	38,316
611,23	35,239
611,43	34,902
611,62	35,937
611,81	36,013
612,00	37,671
612,19	37,103
612,38	37,548
612,57	37,156
612,77	37,678
612,96	36,913
613,15	36,750
613,34	37,659
613,53	36,278
613,72	36,659
613,91	35,680
614,10	36,974
614,29	38,661
614,49	34,181
614,68	35,079
614,87	36,616
615,06	38,049
615,25	36,554
615,44	38,854
615,63	37,348
615,82	34,047
616,01	37,232
616,21	34,451
616,40	37,721
616,59	38,976
616,78	34,971
616,97	36,715
617,16	36,790
617,35	37,996
617,54	36,310
617,73	37,887
617,92	36,817
618,11	38,300
618,31	37,235
618,50	36,824
618,69	36,280
618,88	37,735
619,07	33,267
619,26	36,428
619,45	36,073
619,64	35,631
619,83	36,887
620,02	36,541
620,21	39,741
620,40	36,883
620,59	37,624
620,78	35,357
620,97	37,002
621,17	38,830
621,36	36,600
621,55	35,117
621,74	37,398
621,93	38,595
622,12	36,820
622,31	35,827
622,50	36,630
622,69	38,909
622,88	36,179
623,07	37,465
623,26	37,570
623,45	38,777
623,64	37,534
623,83	36,101
624,02	38,248
624,21	37,329
624,40	35,466
624,59	33,605
624,78	36,546
624,97	39,143
625,16	34,462
625,35	33,618
625,54	34,714
625,73	35,436
625,92	37,717
626,12	38,633
626,31	38,499
626,50	38,404
626,69	36,308
626,88	37,791
627,07	36,209
627,26	36,322
627,45	37,372
627,64	34,988
627,83	37,226
628,02	34,759
628,21	36,384
628,40	36,562
628,59	38,628
628,78	34,148
628,97	37,324
629,16	36,041
629,35	36,435
629,54	36,391
629,73	39,310
629,92	35,156
630,10	37,952
630,29	37,319
630,48	36,013
630,67	34,999
630,86	38,694
631,05	35,261
631,24	38,000
631,43	34,633
631,62	36,194
631,81	35,911
632,00	35,645
632,19	34,311
632,38	37,040
632,57	38,115
632,76	34,132
632,95	37,040
633,14	38,180
633,33	38,228
633,52	37,609
633,71	35,777
633,90	33,430
634,09	36,700
634,28	37,786
634,47	36,561
634,66	37,321
634,85	37,108
635,04	38,285
635,22	35,326
635,41	36,858
635,60	39,767
635,79	37,461
635,98	35,522
636,17	36,298
636,36	33,857
636,55	34,091
636,74	35,535
636,93	37,806
637,12	36,693
637,31	36,277
637,50	35,565
637,69	37,666
637,87	38,196
638,06	34,893
638,25	34,688
638,44	35,435
638,63	34,725
638,82	35,037
639,01	36,467
639,20	37,037
639,39	37,200
639,58	35,060
639,77	35,692
639,95	36,210
640,14	38,091
640,33	36,399
640,52	36,050
640,71	39,744
640,90	35,531
641,09	37,170
641,28	35,794
641,47	38,006
641,66	37,119
641,84	37,724
642,03	33,416
642,22	36,900
642,41	41,005
642,60	35,985
642,79	38,471
642,98	38,041
643,17	36,849
643,35	34,914
643,54	35,750
643,73	36,710
643,92	36,578
644,11	35,057
644,30	37,446
644,49	37,533
644,67	35,859
644,86	35,775
645,05	35,350
645,24	34,939
645,43	34,888
645,62	36,257
645,81	34,554
645,99	36,332
646,18	37,950
646,37	36,275
646,56	36,195
646,75	36,820
646,94	38,816
647,13	34,280
647,31	37,226
647,50	35,375
647,69	37,785
647,88	37,128
648,07	36,923
648,26	40,883
648,44	34,307
648,63	36,856
648,82	35,906
649,01	38,510
649,20	34,576
649,38	35,989
649,57	36,176
649,76	34,805
649,95	37,925
650,14	34,983
650,33	36,450
650,51	36,173
650,70	36,072
650,89	36,437
651,08	37,221
651,27	36,586
651,45	35,788
651,64	34,817
651,83	36,664
652,02	35,614
652,21	35,658
652,39	36,827
652,58	38,720
652,77	38,214
652,96	36,803
653,15	38,004
653,33	35,903
653,52	36,531
653,71	37,704
653,90	37,834
654,09	36,348
654,27	36,550
654,46	37,821
654,65	36,405
654,84	35,803
655,02	37,588
655,21	35,227
655,40	37,973
655,59	36,260
655,77	37,885
655,96	36,112
656,15	36,824
656,34	37,715
656,53	35,361
656,71	36,932
656,90	38,806
657,09	37,378
657,28	37,572
657,46	36,441
657,65	35,154
657,84	36,021
658,03	36,364
658,21	37,873
658,40	35,724
658,59	35,539
658,78	37,250
658,96	35,879
659,15	37,594
659,34	35,594
659,52	36,347
659,71	36,530
659,90	34,934
660,09	36,071
660,27	37,000
660,46	39,392
660,65	36,980
660,84	35,571
661,02	37,807
661,21	38,732
661,40	38,310
661,58	37,198
661,77	36,448
661,96	34,942
662,15	37,058
662,33	37,221
662,52	35,052
662,71	35,084
662,89	35,677
663,08	36,979
663,27	37,291
663,45	35,958
663,64	36,355
663,83	35,978
664,02	35,083
664,20	37,557
664,39	36,397
664,58	36,533
664,76	36,167
664,95	36,508
665,14	38,060
665,32	35,709
665,51	38,481
665,70	35,586
665,88	36,469
666,07	35,612
666,26	37,638
666,44	37,889
666,63	33,440
666,82	34,988
667,00	35,076
667,19	34,777
667,38	37,140
667,56	36,963
667,75	38,100
667,94	36,445
668,12	35,678
668,31	37,934
668,50	37,188
668,68	38,375
668,87	35,590
669,06	35,148
669,24	37,924
669,43	35,729
669,62	35,783
669,80	34,504
669,99	35,984
670,18	35,955
670,36	34,257
670,55	38,344
670,74	35,899
670,92	33,243
671,11	38,818
671,29	33,573
671,48	36,461
671,67	35,436
671,85	35,981
672,04	35,725
672,23	35,075
672,41	36,045
672,60	36,291
672,78	35,881
672,97	36,287
673,16	37,585
673,34	37,572
673,53	34,612
673,71	37,868
673,90	37,857
674,09	36,225
674,27	37,102
674,46	36,690
674,64	35,899
674,83	36,167
675,02	35,253
675,20	34,752
675,39	34,864
675,57	36,232
675,76	35,792
675,95	39,954
676,13	35,857
676,32	35,201
676,50	35,780
676,69	33,895
676,88	36,547
677,06	34,661
677,25	35,887
677,43	37,642
677,62	37,575
677,80	35,745
677,99	35,774
678,18	38,188
678,36	38,718
678,55	35,599
678,73	35,054
678,92	34,967
679,10	36,858
679,29	35,587
679,48	34,140
679,66	37,074
679,85	36,357
680,03	36,149
680,22	34,581
680,40	35,664
680,59	36,208
680,77	34,905
680,96	36,487
681,15	36,107
681,33	38,046
681,52	36,155
681,70	36,470
681,89	38,484
682,07	35,674
682,26	35,476
682,44	37,726
682,63	35,515
682,81	38,457
683,00	36,245
683,18	35,254
683,37	36,714
683,55	35,776
683,74	37,515
683,92	41,038
684,11	37,252
684,29	35,216
684,48	35,452
684,67	36,011
684,85	34,369
685,04	36,492
685,22	36,409
685,41	35,803
685,59	36,724
685,78	34,019
685,96	36,093
686,15	35,388
686,33	34,807
686,52	36,908
686,70	35,119
686,89	35,744
687,07	36,378
687,26	36,952
687,44	35,563
687,62	35,834
687,81	37,162
687,99	36,146
688,18	36,548
688,36	35,878
688,55	38,312
688,73	35,447
688,92	35,495
689,10	34,628
689,29	36,792
689,47	37,468
689,66	36,003
689,84	36,354
690,03	40,132
690,21	34,779
690,40	33,875
690,58	34,256
690,76	35,012
690,95	36,409
691,13	33,373
691,32	35,982
691,50	35,438
691,69	37,996
691,87	35,113
692,06	35,989
692,24	36,116
692,43	37,558
692,61	36,582
692,79	35,657
692,98	34,991
693,16	36,866
693,35	34,980
693,53	37,687
693,72	36,648
693,90	38,565
694,08	34,797
694,27	36,729
694,45	37,143
694,64	38,491
694,82	35,225
695,01	37,871
695,19	34,218
695,37	36,046
695,56	35,981
695,74	35,745
695,93	36,699
696,11	35,791
696,29	36,913
696,48	38,367
696,66	37,254
696,85	33,712
697,03	35,324
697,21	36,211
697,40	37,964
697,58	37,143
697,77	37,187
697,95	35,106
698,13	35,356
698,32	35,877
698,50	34,519
698,69	34,993
698,87	36,345
699,05	37,914
699,24	35,121
699,42	35,780
699,60	34,097
699,79	34,763
699,97	34,526
700,16	35,041
700,34	39,334
700,52	35,793
700,71	35,924
700,89	33,718
701,07	33,984
701,26	36,119
701,44	34,215
701,63	35,288
701,81	36,054
701,99	36,726
702,18	35,233
702,36	36,415
702,54	37,947
702,73	35,539
702,91	34,592
703,09	34,347
703,28	33,425
703,46	35,834
703,64	37,400
703,83	36,563
704,01	35,753
704,19	35,105
704,38	33,206
704,56	35,390
704,74	36,860
704,93	34,755
705,11	35,828
705,29	36,044
705,48	39,015
705,66	35,804
705,84	34,269
706,03	34,554
706,21	35,904
706,39	35,394
706,58	33,870
706,76	35,684
706,94	36,569
707,12	36,038
707,31	34,942
707,49	34,330
707,67	34,636
707,86	39,184
708,04	36,063
708,22	34,628
708,41	38,054
708,59	34,658
708,77	36,752
708,95	36,205
709,14	38,286
709,32	37,765
709,50	34,794
709,69	36,693
709,87	35,649
710,05	34,359
710,23	32,797
710,42	34,120
710,60	37,489
710,78	38,725
710,97	36,083
711,15	35,312
711,33	36,030
711,51	34,530
711,70	35,231
711,88	37,609
712,06	36,873
712,24	36,691
712,43	35,246
712,61	33,732
712,79	35,580
712,97	33,987
713,16	35,848
713,34	34,007
713,52	36,670
713,70	35,464
713,89	35,141
714,07	34,635
714,25	37,275
714,43	36,959
714,62	35,523
714,80	34,110
714,98	33,026
715,16	34,866
715,35	33,540
715,53	34,939
715,71	38,765
715,89	38,940
716,07	36,643
716,26	35,194
716,44	37,355
716,62	36,459
716,80	36,340
716,99	35,498
717,17	38,429
717,35	35,745
717,53	34,029
717,71	34,523
717,90	37,396
718,08	36,925
718,26	35,732
718,44	37,557
718,62	37,357
718,81	35,181
718,99	33,719
719,17	35,689
719,35	35,454
719,53	35,565
719,72	32,179
719,90	34,034
720,08	34,533
720,26	37,921
720,44	33,595
720,62	34,025
720,81	37,614
720,99	37,594
721,17	35,064
721,35	36,682
721,53	33,450
721,72	39,829
721,90	36,235
722,08	35,981
722,26	36,463
722,44	35,724
722,62	33,343
722,81	33,672
722,99	35,139
723,17	34,734
723,35	37,091
723,53	36,578
723,71	36,166
723,89	39,239
724,08	36,840
724,26	34,510
724,44	36,066
724,62	36,604
724,80	32,281
724,98	34,783
725,16	38,283
725,35	35,632
725,53	34,664
725,71	34,789
725,89	34,369
726,07	40,139
726,25	39,213
726,43	33,201
726,61	36,487
726,80	38,157
726,98	35,780
727,16	34,186
727,34	36,622
727,52	34,961
727,70	35,184
727,88	35,209
728,06	33,013
728,25	34,152
728,43	33,444
728,61	34,246
728,79	35,671
728,97	36,729
729,15	35,450
729,33	38,617
729,51	36,726
729,69	36,631
729,87	35,687
730,06	37,044
730,24	38,625
730,42	38,374
730,60	35,471
730,78	35,660
730,96	35,480
731,14	37,189
731,32	36,714
731,50	33,913
731,68	34,811
731,86	38,613
732,04	35,108
732,22	35,633
732,41	43,335
732,59	34,810
732,77	36,010
732,95	36,361
733,13	36,465
733,31	35,758
733,49	33,605
733,67	36,145
733,85	36,619
734,03	34,885
734,21	34,048
734,39	35,053
734,57	35,189
734,75	36,688
734,93	33,287
735,11	35,478
735,29	33,774
735,47	36,993
735,65	34,201
735,84	34,615
736,02	34,868
736,20	37,818
736,38	34,189
736,56	35,991
736,74	34,900
736,92	35,077
737,10	34,601
737,28	36,689
737,46	35,849
737,64	36,038
737,82	33,389
738,00	37,332
738,18	35,459
738,36	37,806
738,54	36,133
738,72	34,996
738,90	36,544
739,08	36,646
739,26	33,859
739,44	36,128
739,62	38,378
739,80	37,021
739,98	35,336
740,16	33,873
740,34	36,228
740,52	39,035
740,70	35,962
740,88	35,224
741,06	37,247
741,24	36,351
741,42	33,319
741,60	34,027
741,78	37,111
741,96	37,640
742,14	37,170
742,32	36,502
742,50	34,390
742,68	36,505
742,86	36,484
743,04	34,135
743,21	37,982
743,39	36,938
743,57	34,903
743,75	35,331
743,93	33,424
744,11	32,626
744,29	37,117
744,47	34,466
744,65	38,092
744,83	36,423
745,01	33,938
745,19	34,757
745,37	40,501
745,55	36,980
745,73	37,681
745,91	33,506
746,09	35,910
746,27	34,675
746,45	34,500
746,62	36,886
746,80	33,498
746,98	34,303
747,16	33,405
747,34	33,765
747,52	34,385
747,70	36,544
747,88	36,356
748,06	37,370
748,24	36,182
748,42	38,671
748,60	34,916
748,78	31,721
748,95	39,664
749,13	40,178
749,31	34,915
749,49	35,995
749,67	36,292
749,85	36,157
750,03	35,411
750,21	35,190
750,39	35,758
750,57	36,244
750,74	36,353
750,92	34,563
751,10	36,111
751,28	33,540
751,46	37,384
751,64	36,000
751,82	37,651
752,00	37,205
752,17	35,043
752,35	39,498
752,53	37,984
752,71	35,736
752,89	35,050
753,07	34,881
753,25	35,806
753,43	33,516
753,60	36,957
753,78	36,051
753,96	37,228
754,14	37,608
754,32	38,538
754,50	35,005
754,68	36,268
754,85	34,335
755,03	36,393
755,21	37,454
755,39	39,585
755,57	36,576
755,75	36,922
755,92	36,463
756,10	37,038
756,28	35,421
756,46	35,683
756,64	35,427
756,82	37,135
756,99	36,830
757,17	34,943
757,35	33,158
757,53	40,419
757,71	38,879
757,89	33,358
758,06	35,743
758,24	37,753
758,42	36,695
758,60	34,269
758,78	34,657
758,95	37,007
759,13	37,962
759,31	37,106
759,49	34,400
759,67	35,300
759,84	33,602
760,02	35,172
760,20	34,236
760,38	36,803
760,56	33,035
760,73	33,809
760,91	34,058
761,09	37,416
761,27	34,387
761,45	34,792
761,62	30,366
761,80	34,568
761,98	36,752
762,16	39,061
762,33	34,610
762,51	35,919
762,69	34,168
762,87	36,130
763,05	37,703
763,22	35,586
763,40	34,769
763,58	34,688
763,76	35,140
763,93	37,207
764,11	38,987
764,29	35,514
764,47	36,524
764,64	37,760
764,82	38,296
765,00	35,739
765,18	32,211
765,35	35,640
765,53	34,386
765,71	37,783
765,89	35,878
766,06	33,147
766,24	35,041
766,42	34,336
766,60	33,073
766,77	35,249
766,95	35,085
767,13	35,724
767,30	34,941
767,48	33,905
767,66	34,646
767,84	32,726
768,01	36,181
768,19	36,430
768,37	34,273
768,54	33,438
768,72	35,651
768,90	35,228
769,08	36,595
769,25	35,587
769,43	36,973
769,61	34,754
769,78	36,078
769,96	33,570
770,14	35,822
770,31	38,170
770,49	39,010
770,67	35,395
770,85	34,052
771,02	36,856
771,20	35,999
771,38	36,784
771,55	36,122
771,73	32,869
771,91	37,358
772,08	36,612
772,26	35,601
772,44	36,365
772,61	37,069
772,79	35,616
772,97	35,121
773,14	32,416
773,32	36,572
773,50	32,923
773,67	36,842
773,85	38,773
774,03	37,241
774,20	36,651
774,38	35,580
774,56	36,186
774,73	33,747
774,91	34,756
775,09	34,685
775,26	37,586
775,44	36,524
775,61	34,931
775,79	33,808
775,97	36,654
776,14	36,023
776,32	36,350
776,50	36,458
776,67	35,315
776,85	37,106
777,03	32,691
777,20	36,364
777,38	39,762
777,55	38,071
777,73	34,029
777,91	33,803
778,08	35,348
778,26	34,622
778,43	36,896
778,61	35,067
778,79	35,761
778,96	35,973
779,14	34,460
779,32	34,249
779,49	33,465
779,67	40,303
779,84	39,076
780,02	35,080
780,20	34,346
780,37	37,573
780,55	30,426
780,72	34,440
780,90	35,921
781,07	37,823
781,25	37,711
781,43	35,639
781,60	35,454
781,78	38,435
781,95	37,077
782,13	36,262
782,30	36,578
782,48	37,018
782,66	32,700
782,83	34,011
783,01	43,800
783,18	37,180
783,36	38,085
783,53	36,565
783,71	33,879
783,89	35,373
784,06	37,126
784,24	37,106
784,41	35,712
784,59	33,982
784,76	38,353
784,94	34,370
785,11	36,387
785,29	36,867
785,46	34,467
785,64	35,330
785,82	37,762
785,99	38,688
786,17	37,231
786,34	34,300
786,52	40,633
786,69	37,844
786,87	36,127
787,04	35,845
787,22	33,188
787,39	35,702
787,57	41,014
787,74	34,524
787,92	40,103
788,09	37,200
788,27	35,458
788,44	35,745
788,62	40,232
788,79	33,797
788,97	36,930
789,14	36,258
789,32	34,533
789,49	35,924
789,67	36,439
789,84	36,522
790,02	38,448
790,19	32,249
790,37	37,853
790,54	34,127
790,72	41,591
790,89	38,372
791,07	39,994
791,24	32,208
791,42	38,226
791,59	38,871
791,77	34,529
791,94	36,083
792,12	34,149
792,29	38,500
792,47	38,231
792,64	37,545
792,81	39,888
792,99	33,699
793,16	36,530
793,34	37,070
793,51	34,642
793,69	38,497
793,86	35,749
794,04	37,333
794,21	36,960
794,39	33,136
794,56	35,327
794,73	38,238
794,91	38,567
795,08	37,464
795,26	36,088
795,43	33,856
795,61	37,992
795,78	34,370
795,95	39,743
796,13	38,509
796,30	37,692
796,48	33,738
796,65	34,339
796,83	37,740
797,00	37,855
797,17	35,950
797,35	35,991
797,52	35,473
797,70	39,219
797,87	38,180
798,04	41,631
798,22	34,168
798,39	34,247
798,57	35,350
798,74	37,553
798,91	34,000
799,09	35,468
799,26	39,866
799,44	36,478
799,61	32,672
799,78	34,876
799,96	39,404
800,13	34,144
800,31	39,200
800,48	37,432
800,65	42,250
800,83	39,350
801,00	34,822
801,17	38,009
801,35	40,720
801,52	40,933
801,70	39,234
801,87	37,005
802,04	38,886
802,22	34,650
802,39	36,227
802,56	40,708
802,74	41,248
802,91	34,764
803,08	34,856
803,26	36,575
803,43	42,723
803,61	32,840
803,78	36,325
803,95	37,806
804,13	38,257
804,30	33,414
804,47	39,242
804,65	37,336
804,82	36,035
804,99	39,364
805,17	34,453
805,34	45,178
805,51	39,992
805,69	34,871
805,86	41,008
806,03	44,451
806,21	37,288
806,38	42,173
806,55	32,757
806,72	41,290
806,90	42,500
807,07	36,539
807,24	37,662
807,42	32,531
807,59	35,792
807,76	32,981
807,94	37,722
808,11	39,399
808,28	43,223
808,45	37,083
808,63	34,639
808,80	40,988
808,97	37,689
809,15	37,609
809,32	37,031
809,49	38,069
809,67	40,479
809,84	40,293
810,01	41,816
810,18	47,225
810,36	45,335
810,53	39,269
810,70	38,800
810,87	40,080
811,05	43,688
811,22	35,988
811,39	38,104
811,57	40,126
811,74	37,736
811,91	42,149
812,08	36,211
812,26	37,911
812,43	33,090
812,60	43,646
812,77	37,440
812,95	39,141
813,12	35,910
813,29	38,524
813,46	38,680
813,64	41,928
813,81	39,839
813,98	39,056
814,15	41,312
814,32	41,721
814,50	40,059
814,67	38,451
814,84	42,896
815,01	36,073
815,19	35,057
815,36	36,574
815,53	36,052
815,70	38,780
815,87	43,346
816,05	36,176
816,22	42,563
816,39	45,797
816,56	43,753
816,74	43,088
816,91	40,008
817,08	46,616
817,25	46,097
817,42	41,569
817,60	42,666
817,77	42,973
817,94	38,473
818,11	38,635
818,28	35,717
818,45	42,575
818,63	41,339
818,80	38,406
818,97	38,673
819,14	39,835
819,31	45,870
819,49	38,472
819,66	37,421
819,83	45,044
820,00	43,785
820,17	37,943
820,34	39,712
820,52	42,283
820,69	43,439
820,86	42,152
821,03	41,538
821,20	42,677
821,37	43,725
821,55	42,676
821,72	34,866
821,89	40,854
822,06	41,578
822,23	36,040
822,40	38,897
822,57	45,124
822,75	42,881
822,92	31,365
823,09	43,762
823,26	41,559
823,43	43,108
823,60	41,679
823,77	39,002
823,94	42,659
824,12	44,033
824,29	38,107
824,46	42,995
824,63	55,235
824,80	47,551
824,97	39,625
825,14	41,357
825,31	42,316
825,49	40,428
825,66	27,128
825,83	40,296
826,00	37,291
826,17	49,063
826,34	40,189
826,51	36,719
826,68	37,158
826,85	37,225
827,02	36,876
827,20	39,767
827,37	34,390
827,54	42,908
827,71	45,716
827,88	41,527
828,05	42,071
828,22	40,309
828,39	42,207
828,56	39,809
828,73	43,140
828,90	44,576
829,07	36,747
829,25	38,224
829,42	35,743
829,59	33,643
829,76	38,370
829,93	42,432
830,10	39,416
830,27	42,978
830,44	35,450
830,61	30,764
830,78	40,019
830,95	42,388
831,12	42,988
831,29	36,674
831,46	32,142
831,63	34,993
831,80	43,477
831,97	38,462
832,14	48,562
832,31	48,545
832,48	37,020
832,65	43,099
832,83	39,080
833,00	44,017
833,17	35,822
833,34	39,094
833,51	45,376
833,68	50,410
833,85	38,982
834,02	36,144
834,19	46,965
834,36	43,905
834,53	36,631
834,70	40,214
834,87	58,616
835,04	42,891
835,21	41,445
835,38	45,886
835,55	35,424
835,72	58,387
835,89	37,988
836,06	36,666
836,23	55,740
836,40	38,940
836,57	36,853
836,74	43,216
836,91	38,121
837,08	52,688
837,25	38,612
837,42	35,386
837,59	32,193
837,76	50,893
837,93	41,086
838,09	41,600
838,26	44,482
838,43	57,106
838,60	49,804
838,77	41,924
838,94	47,309
839,11	62,934
839,28	47,121
839,45	43,278
839,62	39,623
839,79	36,754
839,96	45,002
840,13	50,144
840,30	39,667
840,47	37,566
840,64	52,084
840,81	41,631
840,98	40,819
841,15	53,776
841,32	41,699
841,48	51,944
841,65	45,736
841,82	39,164
841,99	37,788
842,16	48,173
842,33	41,805
842,50	47,269
842,67	29,323
842,84	42,062
843,01	48,603
843,18	37,165
843,35	48,015
843,52	40,147
843,68	49,556
843,85	39,197
844,02	32,875
844,19	40,677
844,36	43,312
844,53	40,948
844,70	32,165
844,87	56,798
845,04	51,461
845,21	29,025
845,37	50,420
845,54	33,673
845,71	45,412
845,88	63,391
846,05	39,865
846,22	26,826
846,39	39,318
846,56	52,746
846,72	26,799
846,89	43,108
847,06	49,088
847,23	49,145
847,40	32,835
847,57	39,369
847,74	40,628
847,90	55,629
848,07	44,669
848,24	47,710
848,41	46,753
848,58	66,677
848,75	48,279
848,92	35,064
849,08	41,324
849,25	40,406
849,42	36,033
849,59	44,829
849,76	33,017
849,93	49,297
850,09	49,208
850,26	22,924
850,43	60,230
850,60	30,868
850,77	34,143
850,94	46,832
851,10	48,663
851,27	42,009
851,44	46,148
851,61	44,502
851,78	59,715
851,95	58,387
852,11	39,945
852,28	37,052
852,45	59,111
852,62	60,703
852,79	54,166
852,95	38,972
853,12	57,665
853,29	39,437
853,46	35,464
853,63	40,956
853,79	39,944
853,96	40,174
854,13	55,811
854,30	40,458
854,46	57,596
854,63	42,252
854,80	43,406
854,97	49,465
855,14	79,332
855,30	56,491
855,47	48,599
855,64	52,805
855,81	45,642
855,97	61,675
856,14	50,549
856,31	30,850
856,48	59,777
856,65	66,385
856,81	50,231
856,98	35,620
857,15	27,527
857,32	55,164
857,48	39,183
857,65	60,439
857,82	61,615
857,99	55,992
858,15	50,718
858,32	39,798
858,49	37,633
858,65	66,286
858,82	48,311
858,99	44,836
859,16	61,212
859,32	59,468
859,49	56,107
859,66	57,532
859,83	47,901
859,99	40,585
860,16	39,052
860,33	46,973
860,49	58,801
860,66	53,238
860,83	45,422
861,00	49,891
861,16	67,968
861,33	67,415
861,50	29,553
861,66	53,426
861,83	71,904
862,00	49,342
862,16	26,756
862,33	53,853
862,50	89,534
862,67	52,242
862,83	53,780
863,00	56,467
863,17	60,886
863,33	52,929
863,50	33,073
863,67	56,780
863,83	69,106
864,00	59,203
864,17	43,449
864,33	31,202
864,50	27,561
864,67	58,164
864,83	32,615
865,00	65,911
865,17	49,157
865,33	68,994
865,50	52,971
865,67	52,416
865,83	61,894
866,00	69,607
866,17	67,063
866,33	63,456
866,50	50,713
866,66	44,233
866,83	45,350
867,00	56,876
867,16	80,185
867,33	97,313
867,50	44,398
867,66	55,283
867,83	62,285
868,00	62,801
868,16	39,390
868,33	49,568
868,49	42,525
868,66	69,984
868,83	48,392
868,99	68,500
869,16	98,702
869,32	69,395
869,49	53,278
869,66	53,531
869,82	74,077
869,99	83,192
870,15	53,283
870,32	64,959
870,49	132,786
870,65	83,507
870,82	58,699
870,98	63,516
871,15	87,132
871,32	65,747
871,48	63,604
871,65	44,981
871,81	60,274
871,98	42,680
872,15	35,798
872,31	39,613
872,48	80,058
872,64	63,037
872,81	66,697
872,97	31,592
873,14	115,392
873,31	82,210
873,47	48,747
873,64	89,359
873,80	98,759
873,97	101,065
874,13	67,308
874,30	56,717
874,46	56,502
874,63	75,925
874,80	31,972
874,96	62,621
875,13	81,244
875,29	40,771
875,46	74,185
875,62	39,648
875,79	92,853
875,95	65,415
876,12	17,590
876,28	41,153
876,45	115,745
876,61	49,349
876,78	48,000
876,94	23,596
877,11	84,516
877,27	168,993
877,44	70,251
877,60	54,549
877,77	66,002
877,94	137,035
878,10	36,426
878,27	82,922
878,43	128,652
878,60	61,039
878,76	82,609
878,93	119,220
879,09	62,779
879,26	130,438
879,42	72,768
879,58	79,100
879,75	124,534
879,91	115,077
880,08	46,556
880,24	60,483
880,41	26,117
880,57	70,436
880,74	150,659
880,90	76,045
881,07	96,704
881,23	125,632
881,40	71,337
881,56	74,806
881,73	157,170
881,89	99,929
882,06	50,971
882,22	135,173
882,38	106,031
882,55	158,248
882,71	67,183
882,88	72,161
883,04	97,954
883,21	118,716
883,37	159,023
883,54	92,075
883,70	206,478
883,86	156,889
884,03	128,799
884,19	96,407
884,36	160,945
884,52	144,780
884,69	80,437
884,85	89,435
885,01	107,211
885,18	153,102
885,34	66,926
885,51	50,147
885,67	102,377
>>>>> Data<<<<< Espectral Procesado Extremo
