Fichero De Datos De SpectraSuite
++++++++++++++++++++++++++++++++++++
Fecha: Wed Apr 22 09:10:46 CEST 2009
Usuario: evoflor
Presente Oscuro Del Espectro: Sí
La Referencia de Presente Del Espectro De: Sí
Muestreados de los componentes de Número de espectros: 1
Espectrómetros: USB4F02353
Tiempo de integración (usec): 500000 (USB4F02353)
Promedio de Espectros Hechos un: 5 (USB4F02353)
El Alisar Del Furgón: 0 (USB4F02353)
Párrafo de de Corregir del la del del de Eléctrica del obscuridad: Sí (USB4F02353)
Estrobo/Lámpara Permitido: No (USB4F02353)
Correct for Detector Non-linearity: No (USB4F02353)
Párrafo de de Corregir del la del del de Externa del luz: No (USB4F02353)
Procesado del espectro de Número de pixeles en: 3648
>>>>> Comienza Data<<<<< Espectral Procesado Del EL
177,79	868,182
178,00	868,182
178,22	868,182
178,44	-11061,549
178,66	538,334
178,88	99,236
179,09	819,794
179,31	120,920
179,53	-6772,560
179,75	455,773
179,96	-215,049
180,18	392,007
180,40	-356,152
180,62	-203,579
180,83	93,174
181,05	-904,347
181,27	-638,020
181,49	96,312
181,70	-447,740
181,92	387,159
182,14	230,216
182,36	-1042,452
182,58	276,324
182,79	-1034,859
183,01	-14291,389
183,23	450,778
183,45	-168,508
183,66	36,964
183,88	955,085
184,10	952,813
184,32	924,919
184,53	-237,638
184,75	646,119
184,97	-245,754
185,18	941,003
185,40	338,591
185,62	-972,011
185,84	2588,652
186,05	3939,495
186,27	-6896,556
186,49	-592,619
186,71	326,653
186,92	558,674
187,14	1981,120
187,36	321,934
187,58	857,976
187,79	-386,442
188,01	-1485,035
188,23	140,899
188,45	394,966
188,66	19,765
188,88	278,114
189,10	-385,337
189,31	-206,765
189,53	-299,172
189,75	1352,071
189,97	164,233
190,18	560,177
190,40	1392,728
190,62	196,596
190,83	485,463
191,05	-322,247
191,27	8500,703
191,49	548,898
191,70	985,114
191,92	444,264
192,14	407,905
192,35	-1617,487
192,57	-979,625
192,79	-1694,466
193,01	748,430
193,22	-268,322
193,44	-671,277
193,66	450,860
193,87	1452,095
194,09	151,068
194,31	336,250
194,53	-518,049
194,74	566,232
194,96	-477,022
195,18	842,542
195,39	-1534,118
195,61	-382,804
195,83	3451,940
196,04	378,376
196,26	235,224
196,48	1677,926
196,70	701,249
196,91	250,719
197,13	-252,810
197,35	206,081
197,56	-529,908
197,78	5093,018
198,00	583,880
198,21	123,994
198,43	874,167
198,65	294,198
198,86	125,009
199,08	586,078
199,30	230,662
199,51	1019,401
199,73	-1742,055
199,95	321,666
200,16	699,164
200,38	234,933
200,60	3780,372
200,81	-670,518
201,03	10396,651
201,25	786,517
201,46	-482,470
201,68	581,704
201,90	622,929
202,11	557,028
202,33	175,627
202,55	74,685
202,76	736,115
202,98	1052,481
203,20	269,067
203,41	-1072,653
203,63	664,810
203,85	216,426
204,06	-376,346
204,28	209,186
204,50	-252,423
204,71	508,021
204,93	217,075
205,15	209,605
205,36	-188,259
205,58	750,264
205,80	-1969,862
206,01	-5872,603
206,23	291,662
206,45	470,215
206,66	388,865
206,88	-719,098
207,10	3271,619
207,31	-41807,285
207,53	70,014
207,75	380,518
207,96	453,690
208,18	364,471
208,39	342,519
208,61	982,745
208,83	7299,139
209,04	389,768
209,26	711,517
209,48	64,180
209,69	-91,525
209,91	1024,443
210,13	30,608
210,34	158,921
210,56	353,625
210,77	2312,389
210,99	338,480
211,21	-400,980
211,42	201,704
211,64	541,433
211,86	441,257
212,07	269,676
212,29	673,167
212,50	1262,277
212,72	207,787
212,94	417,874
213,15	205,642
213,37	243,021
213,58	111,570
213,80	445,453
214,02	3147,053
214,23	377,774
214,45	275,371
214,67	58,508
214,88	-187,306
215,10	1553,400
215,31	1835,199
215,53	86,861
215,75	347,575
215,96	695,691
216,18	218,578
216,39	208,915
216,61	535,565
216,83	1143,358
217,04	455,199
217,26	30,745
217,47	689,590
217,69	315,096
217,91	99,676
218,12	957,339
218,34	132,125
218,55	212,827
218,77	29,631
218,99	157,164
219,20	204,535
219,42	539,796
219,63	115,625
219,85	364,070
220,06	-182,107
220,28	157,866
220,50	87,546
220,71	119,505
220,93	459,524
221,14	409,905
221,36	149,672
221,58	133,637
221,79	82,729
222,01	154,559
222,22	234,640
222,44	77,363
222,65	208,408
222,87	50,529
223,09	116,974
223,30	119,442
223,52	285,641
223,73	97,927
223,95	113,430
224,16	87,147
224,38	109,429
224,60	90,719
224,81	95,305
225,03	80,858
225,24	105,155
225,46	21,092
225,67	28,056
225,89	29,423
226,10	127,862
226,32	90,936
226,54	3,263
226,75	6,655
226,97	120,642
227,18	93,355
227,40	96,140
227,61	71,649
227,83	56,983
228,04	92,089
228,26	64,947
228,47	31,037
228,69	124,376
228,91	78,751
229,12	149,619
229,34	24,985
229,55	76,313
229,77	37,917
229,98	34,171
230,20	43,117
230,41	-2,816
230,63	68,596
230,84	52,530
231,06	45,597
231,27	3,187
231,49	43,247
231,71	16,671
231,92	-0,353
232,14	-14,480
232,35	62,644
232,57	-8,867
232,78	19,152
233,00	39,764
233,21	26,459
233,43	28,119
233,64	1,184
233,86	48,565
234,07	35,676
234,29	9,584
234,50	10,329
234,72	33,782
234,93	26,168
235,15	1,830
235,36	18,531
235,58	49,584
235,79	24,973
236,01	2,127
236,22	23,480
236,44	39,151
236,65	17,314
236,87	19,205
237,08	13,475
237,30	3,321
237,51	28,278
237,73	20,022
237,94	17,372
238,16	21,616
238,37	15,039
238,59	4,452
238,80	13,035
239,02	11,186
239,23	20,914
239,45	10,466
239,66	27,836
239,88	24,920
240,09	22,608
240,31	6,792
240,52	1,187
240,74	11,954
240,95	12,674
241,17	12,551
241,38	11,013
241,60	3,135
241,81	19,574
242,03	-2,206
242,24	13,230
242,46	12,486
242,67	0,130
242,89	15,977
243,10	13,946
243,32	16,473
243,53	20,225
243,75	4,764
243,96	5,956
244,18	12,241
244,39	17,621
244,60	1,505
244,82	10,490
245,03	15,785
245,25	7,879
245,46	28,034
245,68	4,303
245,89	30,672
246,11	18,937
246,32	10,691
246,54	9,317
246,75	7,934
246,97	17,931
247,18	17,412
247,39	8,268
247,61	13,332
247,82	14,382
248,04	0,720
248,25	3,248
248,47	9,382
248,68	7,545
248,90	4,907
249,11	9,834
249,33	17,719
249,54	11,154
249,75	11,731
249,97	1,117
250,18	19,631
250,40	12,764
250,61	4,385
250,83	2,758
251,04	8,615
251,25	18,947
251,47	10,500
251,68	8,453
251,90	8,844
252,11	7,676
252,33	8,379
252,54	4,928
252,76	1,351
252,97	-2,821
253,18	7,038
253,40	12,427
253,61	4,242
253,83	9,483
254,04	8,702
254,25	3,714
254,47	-0,930
254,68	7,725
254,90	6,098
255,11	4,118
255,33	9,067
255,54	6,072
255,75	4,227
255,97	7,532
256,18	4,068
256,40	7,869
256,61	10,612
256,82	3,486
257,04	11,678
257,25	4,081
257,47	9,771
257,68	9,517
257,89	8,991
258,11	6,096
258,32	10,310
258,54	3,569
258,75	18,222
258,96	7,511
259,18	7,031
259,39	3,839
259,61	9,665
259,82	2,428
260,03	5,136
260,25	9,280
260,46	6,885
260,68	4,916
260,89	3,069
261,10	9,114
261,32	4,245
261,53	-1,685
261,75	9,877
261,96	2,901
262,17	21,466
262,39	11,873
262,60	1,539
262,81	6,096
263,03	10,538
263,24	8,716
263,46	4,055
263,67	9,771
263,88	9,457
264,10	5,214
264,31	6,808
264,52	4,615
264,74	10,775
264,95	7,386
265,17	10,091
265,38	8,732
265,59	12,983
265,81	7,932
266,02	0,813
266,23	0,313
266,45	13,205
266,66	11,147
266,87	7,231
267,09	3,558
267,30	11,582
267,52	15,232
267,73	8,122
267,94	3,234
268,16	8,500
268,37	2,063
268,58	10,198
268,80	-0,062
269,01	8,373
269,22	7,734
269,44	9,858
269,65	7,308
269,86	3,792
270,08	5,914
270,29	4,990
270,50	5,354
270,72	7,759
270,93	2,354
271,14	3,443
271,36	4,280
271,57	11,002
271,78	6,712
272,00	5,678
272,21	8,811
272,42	5,942
272,64	9,355
272,85	1,749
273,06	2,798
273,28	5,574
273,49	3,896
273,70	8,697
273,92	7,251
274,13	4,521
274,34	-0,902
274,56	8,214
274,77	4,950
274,98	12,400
275,20	11,422
275,41	9,343
275,62	3,211
275,84	7,168
276,05	16,946
276,26	4,218
276,47	5,100
276,69	10,335
276,90	12,746
277,11	5,796
277,33	1,690
277,54	10,672
277,75	4,067
277,97	2,398
278,18	4,106
278,39	10,404
278,61	3,212
278,82	11,205
279,03	7,123
279,24	3,069
279,46	8,294
279,67	11,729
279,88	4,726
280,10	12,025
280,31	4,392
280,52	3,760
280,73	2,439
280,95	9,251
281,16	4,348
281,37	6,069
281,59	6,360
281,80	12,350
282,01	2,883
282,22	1,629
282,44	3,577
282,65	13,641
282,86	7,474
283,08	3,234
283,29	4,466
283,50	-0,919
283,71	4,244
283,93	2,761
284,14	5,012
284,35	6,029
284,56	6,602
284,78	-0,027
284,99	6,788
285,20	10,864
285,42	3,664
285,63	5,129
285,84	1,525
286,05	3,924
286,27	3,034
286,48	9,929
286,69	8,009
286,90	3,273
287,12	3,818
287,33	5,912
287,54	3,458
287,75	10,855
287,97	4,153
288,18	4,527
288,39	5,226
288,60	7,567
288,82	4,859
289,03	2,066
289,24	7,816
289,45	10,836
289,67	7,064
289,88	4,675
290,09	9,612
290,30	5,775
290,52	1,392
290,73	0,014
290,94	4,076
291,15	3,589
291,37	5,301
291,58	3,563
291,79	4,879
292,00	4,346
292,21	4,894
292,43	6,317
292,64	1,530
292,85	5,027
293,06	7,687
293,28	2,519
293,49	2,998
293,70	10,084
293,91	1,115
294,12	5,744
294,34	3,617
294,55	6,981
294,76	7,108
294,97	6,216
295,19	6,653
295,40	5,701
295,61	5,164
295,82	6,542
296,03	5,622
296,25	7,025
296,46	3,169
296,67	4,282
296,88	4,896
297,09	3,812
297,31	1,523
297,52	6,884
297,73	2,597
297,94	4,137
298,15	7,177
298,37	4,846
298,58	4,969
298,79	6,188
299,00	1,613
299,21	4,711
299,43	1,755
299,64	10,012
299,85	3,358
300,06	0,639
300,27	2,796
300,49	7,760
300,70	8,678
300,91	1,428
301,12	3,650
301,33	7,423
301,54	2,115
301,76	4,740
301,97	4,318
302,18	6,065
302,39	8,303
302,60	4,116
302,82	3,529
303,03	8,960
303,24	4,331
303,45	7,373
303,66	7,125
303,87	1,250
304,09	5,845
304,30	2,855
304,51	5,270
304,72	3,120
304,93	6,738
305,14	3,056
305,36	4,347
305,57	2,374
305,78	8,980
305,99	4,626
306,20	5,433
306,41	3,185
306,62	1,989
306,84	3,880
307,05	5,332
307,26	3,722
307,47	8,226
307,68	3,457
307,89	3,618
308,11	6,587
308,32	4,663
308,53	3,268
308,74	3,380
308,95	1,337
309,16	9,173
309,37	6,299
309,59	2,700
309,80	4,514
310,01	4,507
310,22	4,177
310,43	6,755
310,64	4,278
310,85	6,335
311,06	3,571
311,28	5,892
311,49	6,214
311,70	8,599
311,91	2,126
312,12	1,539
312,33	2,588
312,54	5,884
312,75	8,775
312,97	3,200
313,18	8,448
313,39	0,931
313,60	5,338
313,81	4,972
314,02	5,363
314,23	7,356
314,44	2,725
314,65	0,985
314,87	1,663
315,08	3,870
315,29	2,824
315,50	5,604
315,71	11,591
315,92	7,744
316,13	1,305
316,34	3,050
316,55	7,447
316,77	1,102
316,98	2,099
317,19	4,358
317,40	7,018
317,61	8,367
317,82	7,064
318,03	1,024
318,24	4,368
318,45	8,436
318,66	6,318
318,87	2,450
319,09	3,341
319,30	7,860
319,51	7,790
319,72	6,224
319,93	4,384
320,14	6,027
320,35	8,077
320,56	1,163
320,77	4,199
320,98	9,248
321,19	8,113
321,40	5,243
321,62	4,514
321,83	0,606
322,04	6,149
322,25	6,307
322,46	8,592
322,67	7,214
322,88	7,492
323,09	6,809
323,30	8,238
323,51	11,112
323,72	5,541
323,93	1,401
324,14	3,117
324,35	-0,059
324,56	2,617
324,77	2,612
324,99	3,818
325,20	4,969
325,41	5,263
325,62	4,862
325,83	-0,859
326,04	4,955
326,25	3,035
326,46	2,406
326,67	4,338
326,88	5,238
327,09	3,625
327,30	4,889
327,51	4,729
327,72	2,458
327,93	4,678
328,14	3,394
328,35	5,467
328,56	4,814
328,77	7,495
328,98	5,915
329,19	4,116
329,40	5,795
329,61	1,238
329,82	1,941
330,04	6,405
330,25	1,742
330,46	6,572
330,67	3,636
330,88	7,575
331,09	0,963
331,30	5,670
331,51	5,543
331,72	4,984
331,93	6,466
332,14	2,666
332,35	4,083
332,56	2,688
332,77	8,653
332,98	2,001
333,19	7,215
333,40	4,909
333,61	3,247
333,82	7,697
334,03	5,885
334,24	11,535
334,45	4,846
334,66	8,453
334,87	2,767
335,08	3,726
335,29	1,997
335,50	4,617
335,71	2,071
335,92	7,096
336,13	4,610
336,34	0,970
336,55	4,368
336,76	6,794
336,97	4,775
337,18	4,440
337,39	4,060
337,60	4,871
337,81	5,687
338,02	5,808
338,23	4,787
338,44	4,871
338,65	2,060
338,86	6,209
339,07	5,422
339,28	3,338
339,49	4,299
339,70	2,637
339,91	3,879
340,11	9,293
340,32	5,719
340,53	2,784
340,74	1,113
340,95	1,244
341,16	7,286
341,37	4,992
341,58	6,068
341,79	3,228
342,00	3,006
342,21	-1,250
342,42	5,481
342,63	7,464
342,84	5,860
343,05	3,009
343,26	9,012
343,47	6,129
343,68	3,229
343,89	2,040
344,10	3,098
344,31	4,717
344,52	5,648
344,73	2,100
344,94	0,981
345,14	2,631
345,35	3,330
345,56	1,429
345,77	1,119
345,98	3,099
346,19	5,986
346,40	6,520
346,61	0,034
346,82	4,554
347,03	7,932
347,24	2,758
347,45	4,311
347,66	8,420
347,87	1,539
348,08	8,315
348,28	4,066
348,49	1,737
348,70	7,410
348,91	4,946
349,12	4,155
349,33	-1,088
349,54	6,129
349,75	5,491
349,96	4,962
350,17	5,698
350,38	1,576
350,59	4,500
350,80	2,879
351,00	3,644
351,21	9,396
351,42	3,134
351,63	1,822
351,84	5,937
352,05	8,515
352,26	2,754
352,47	6,565
352,68	8,648
352,89	4,679
353,09	3,053
353,30	2,142
353,51	2,033
353,72	8,617
353,93	7,513
354,14	2,988
354,35	4,262
354,56	7,812
354,77	2,497
354,98	3,499
355,18	5,610
355,39	11,214
355,60	0,781
355,81	6,487
356,02	3,817
356,23	3,884
356,44	4,478
356,65	4,079
356,85	7,010
357,06	10,136
357,27	3,745
357,48	2,764
357,69	8,322
357,90	7,206
358,11	-2,801
358,32	3,369
358,52	7,931
358,73	3,426
358,94	3,438
359,15	5,423
359,36	8,132
359,57	3,177
359,78	7,395
359,98	5,315
360,19	2,047
360,40	3,558
360,61	8,126
360,82	2,440
361,03	11,617
361,24	15,947
361,44	2,935
361,65	6,110
361,86	3,281
362,07	5,810
362,28	10,118
362,49	6,972
362,70	6,754
362,90	4,385
363,11	5,024
363,32	1,871
363,53	4,208
363,74	9,602
363,95	7,903
364,15	2,787
364,36	8,386
364,57	2,628
364,78	2,014
364,99	2,717
365,20	5,875
365,40	8,956
365,61	6,816
365,82	4,153
366,03	8,083
366,24	1,749
366,45	0,192
366,65	0,988
366,86	3,813
367,07	4,300
367,28	1,650
367,49	3,172
367,69	7,323
367,90	4,657
368,11	4,882
368,32	5,755
368,53	9,540
368,73	2,759
368,94	4,502
369,15	8,486
369,36	8,086
369,57	6,257
369,78	4,075
369,98	6,102
370,19	7,993
370,40	3,450
370,61	4,841
370,82	6,256
371,02	11,234
371,23	4,207
371,44	4,511
371,65	3,796
371,85	8,385
372,06	0,965
372,27	6,223
372,48	3,347
372,69	11,379
372,89	4,648
373,10	6,373
373,31	4,421
373,52	5,082
373,73	7,428
373,93	6,522
374,14	6,319
374,35	5,065
374,56	5,529
374,76	5,641
374,97	4,620
375,18	10,931
375,39	4,430
375,60	7,548
375,80	4,815
376,01	4,516
376,22	8,607
376,43	5,347
376,63	5,651
376,84	5,261
377,05	5,616
377,26	5,042
377,46	4,243
377,67	4,166
377,88	0,330
378,09	4,930
378,29	6,321
378,50	3,117
378,71	6,595
378,92	0,576
379,12	0,492
379,33	5,812
379,54	4,943
379,75	8,158
379,95	6,728
380,16	6,238
380,37	6,442
380,58	5,044
380,78	8,323
380,99	3,109
381,20	2,558
381,41	6,870
381,61	2,288
381,82	6,009
382,03	7,862
382,24	6,646
382,44	3,050
382,65	5,341
382,86	8,824
383,06	7,958
383,27	5,119
383,48	3,162
383,69	5,340
383,89	2,307
384,10	1,493
384,31	5,040
384,51	11,025
384,72	7,381
384,93	2,545
385,14	2,693
385,34	4,921
385,55	1,675
385,76	0,017
385,96	10,450
386,17	5,791
386,38	2,580
386,59	9,796
386,79	6,278
387,00	12,415
387,21	8,159
387,41	4,397
387,62	7,026
387,83	9,162
388,03	5,331
388,24	5,653
388,45	4,594
388,66	5,844
388,86	3,072
389,07	4,998
389,28	14,302
389,48	5,796
389,69	4,171
389,90	1,526
390,10	1,629
390,31	8,742
390,52	3,586
390,72	4,579
390,93	5,892
391,14	7,113
391,34	4,281
391,55	5,748
391,76	8,590
391,96	10,736
392,17	3,908
392,38	4,255
392,58	3,031
392,79	3,796
393,00	1,217
393,20	4,566
393,41	5,187
393,62	11,240
393,82	3,877
394,03	5,382
394,24	1,289
394,44	8,309
394,65	7,088
394,86	6,034
395,06	8,027
395,27	6,152
395,48	3,214
395,68	2,408
395,89	6,819
396,10	8,766
396,30	3,507
396,51	1,978
396,72	6,417
396,92	1,721
397,13	8,440
397,34	1,314
397,54	5,833
397,75	3,774
397,95	3,025
398,16	5,987
398,37	7,273
398,57	-1,514
398,78	3,167
398,99	5,148
399,19	5,517
399,40	10,519
399,60	1,933
399,81	6,923
400,02	8,925
400,22	6,404
400,43	8,851
400,64	1,396
400,84	-1,501
401,05	6,386
401,25	7,320
401,46	2,931
401,67	7,698
401,87	3,864
402,08	-0,691
402,29	5,768
402,49	10,367
402,70	5,746
402,90	1,183
403,11	6,017
403,32	-0,451
403,52	-0,877
403,73	4,563
403,93	7,374
404,14	12,325
404,35	3,180
404,55	1,694
404,76	1,659
404,96	3,122
405,17	10,611
405,38	11,800
405,58	3,873
405,79	6,460
405,99	9,342
406,20	3,270
406,40	4,705
406,61	5,073
406,82	6,078
407,02	4,164
407,23	0,975
407,43	6,009
407,64	-0,849
407,85	5,536
408,05	-3,378
408,26	12,835
408,46	11,785
408,67	5,841
408,87	5,009
409,08	2,722
409,29	10,880
409,49	8,424
409,70	6,720
409,90	3,464
410,11	5,302
410,31	5,936
410,52	5,500
410,72	4,056
410,93	8,888
411,14	4,945
411,34	1,390
411,55	2,684
411,75	5,586
411,96	5,302
412,16	5,310
412,37	1,125
412,57	6,928
412,78	7,356
412,99	2,468
413,19	7,602
413,40	3,981
413,60	0,764
413,81	3,051
414,01	2,821
414,22	3,878
414,42	3,576
414,63	1,260
414,83	1,514
415,04	8,939
415,24	5,633
415,45	3,734
415,65	6,257
415,86	9,550
416,07	2,816
416,27	7,150
416,48	8,174
416,68	11,872
416,89	0,224
417,09	8,923
417,30	10,730
417,50	0,897
417,71	6,433
417,91	4,818
418,12	5,809
418,32	4,641
418,53	2,081
418,73	5,795
418,94	3,048
419,14	6,378
419,35	1,645
419,55	1,859
419,76	8,122
419,96	6,965
420,17	2,495
420,37	-0,892
420,58	6,820
420,78	4,890
420,99	-0,684
421,19	7,745
421,40	10,186
421,60	8,426
421,81	1,499
422,01	6,369
422,22	5,929
422,42	4,929
422,63	7,371
422,83	5,234
423,04	11,649
423,24	14,557
423,45	2,286
423,65	3,886
423,86	10,038
424,06	7,404
424,27	2,577
424,47	3,539
424,67	0,200
424,88	9,133
425,08	3,134
425,29	7,902
425,49	0,018
425,70	2,761
425,90	2,321
426,11	4,665
426,31	5,601
426,52	6,936
426,72	3,263
426,93	3,119
427,13	6,376
427,33	-0,332
427,54	8,050
427,74	7,299
427,95	9,668
428,15	4,439
428,36	2,226
428,56	3,205
428,77	4,409
428,97	5,987
429,18	2,829
429,38	3,601
429,58	3,123
429,79	6,383
429,99	0,188
430,20	3,165
430,40	8,260
430,61	1,032
430,81	4,827
431,01	8,804
431,22	9,039
431,42	5,481
431,63	-0,978
431,83	4,219
432,04	7,081
432,24	5,899
432,44	4,310
432,65	3,975
432,85	3,635
433,06	4,016
433,26	4,078
433,47	3,617
433,67	2,858
433,87	3,717
434,08	2,148
434,28	0,920
434,49	4,749
434,69	12,797
434,89	6,540
435,10	3,275
435,30	7,325
435,51	2,422
435,71	1,110
435,91	1,625
436,12	0,069
436,32	2,429
436,53	4,475
436,73	2,075
436,93	5,889
437,14	3,158
437,34	5,466
437,55	-0,683
437,75	7,031
437,95	7,497
438,16	1,077
438,36	3,210
438,57	5,472
438,77	1,842
438,97	5,681
439,18	4,716
439,38	4,066
439,58	1,408
439,79	2,736
439,99	-3,165
440,20	8,763
440,40	8,425
440,60	3,044
440,81	1,657
441,01	8,674
441,21	4,035
441,42	3,487
441,62	5,783
441,83	2,526
442,03	3,572
442,23	7,144
442,44	5,585
442,64	7,705
442,84	3,402
443,05	7,729
443,25	2,432
443,45	8,039
443,66	4,667
443,86	1,952
444,06	5,398
444,27	1,853
444,47	9,299
444,67	6,153
444,88	6,865
445,08	3,502
445,28	1,013
445,49	3,582
445,69	5,349
445,90	7,279
446,10	7,604
446,30	3,338
446,51	3,510
446,71	6,404
446,91	7,475
447,12	12,905
447,32	1,042
447,52	4,309
447,72	8,908
447,93	2,206
448,13	3,666
448,33	8,743
448,54	7,790
448,74	0,147
448,94	2,682
449,15	9,339
449,35	2,866
449,55	8,983
449,76	5,703
449,96	3,197
450,16	6,074
450,37	2,130
450,57	7,004
450,77	2,161
450,98	4,839
451,18	6,890
451,38	6,723
451,58	8,785
451,79	3,747
451,99	5,257
452,19	5,658
452,40	13,220
452,60	0,399
452,80	9,137
453,00	9,116
453,21	2,635
453,41	8,244
453,61	0,246
453,82	6,653
454,02	0,998
454,22	17,723
454,42	7,865
454,63	6,212
454,83	1,562
455,03	11,963
455,24	4,001
455,44	6,487
455,64	3,449
455,84	5,796
456,05	1,155
456,25	-1,274
456,45	1,857
456,65	5,159
456,86	7,736
457,06	7,193
457,26	11,689
457,47	11,589
457,67	5,943
457,87	-0,035
458,07	9,061
458,28	10,413
458,48	12,067
458,68	0,185
458,88	14,443
459,09	4,108
459,29	11,699
459,49	1,329
459,69	8,259
459,90	7,843
460,10	4,243
460,30	9,002
460,50	2,062
460,71	7,578
460,91	0,347
461,11	9,154
461,31	7,920
461,52	10,099
461,72	6,406
461,92	4,431
462,12	13,112
462,32	0,816
462,53	7,075
462,73	3,502
462,93	5,354
463,13	9,316
463,34	8,126
463,54	9,549
463,74	5,109
463,94	5,494
464,14	10,227
464,35	5,221
464,55	9,718
464,75	16,103
464,95	8,561
465,16	3,513
465,36	12,668
465,56	4,418
465,76	2,242
465,96	9,424
466,17	7,176
466,37	3,602
466,57	11,975
466,77	10,668
466,97	5,184
467,18	14,156
467,38	10,444
467,58	15,787
467,78	9,593
467,98	7,422
468,19	7,084
468,39	9,775
468,59	3,443
468,79	7,781
468,99	9,319
469,19	6,030
469,40	5,699
469,60	4,822
469,80	4,039
470,00	8,387
470,20	13,795
470,41	4,854
470,61	12,064
470,81	11,177
471,01	7,135
471,21	11,351
471,41	11,690
471,62	8,275
471,82	5,923
472,02	7,798
472,22	8,501
472,42	5,544
472,62	14,539
472,83	2,990
473,03	14,781
473,23	10,187
473,43	14,510
473,63	10,546
473,83	10,661
474,03	10,007
474,24	11,070
474,44	9,317
474,64	10,449
474,84	5,496
475,04	5,722
475,24	16,297
475,45	11,920
475,65	8,795
475,85	13,703
476,05	3,148
476,25	9,305
476,45	13,670
476,65	14,573
476,85	9,283
477,06	11,887
477,26	7,018
477,46	10,139
477,66	12,571
477,86	13,362
478,06	11,823
478,26	19,448
478,46	7,856
478,67	13,371
478,87	9,220
479,07	12,318
479,27	15,999
479,47	9,400
479,67	4,334
479,87	10,093
480,07	15,992
480,28	12,076
480,48	8,191
480,68	14,601
480,88	19,198
481,08	17,525
481,28	14,091
481,48	14,214
481,68	11,708
481,88	8,237
482,08	13,217
482,29	13,480
482,49	8,734
482,69	13,790
482,89	10,692
483,09	18,176
483,29	9,774
483,49	5,935
483,69	12,362
483,89	13,233
484,09	9,585
484,29	10,330
484,50	12,790
484,70	14,639
484,90	11,789
485,10	16,299
485,30	15,639
485,50	16,990
485,70	15,012
485,90	12,479
486,10	10,091
486,30	10,104
486,50	14,283
486,70	10,239
486,90	12,332
487,10	16,043
487,30	14,569
487,51	14,228
487,71	11,869
487,91	14,475
488,11	17,132
488,31	12,155
488,51	14,227
488,71	12,672
488,91	13,067
489,11	13,736
489,31	12,372
489,51	17,318
489,71	14,445
489,91	14,497
490,11	15,868
490,31	17,691
490,51	16,113
490,71	17,795
490,91	13,410
491,11	15,999
491,31	17,942
491,51	15,164
491,72	16,058
491,92	15,807
492,12	21,021
492,32	17,777
492,52	19,312
492,72	15,445
492,92	18,004
493,12	19,214
493,32	14,196
493,52	16,064
493,72	17,496
493,92	18,580
494,12	16,764
494,32	18,706
494,52	18,028
494,72	19,145
494,92	17,592
495,12	21,779
495,32	22,949
495,52	19,647
495,72	18,959
495,92	20,501
496,12	20,784
496,32	20,306
496,52	18,088
496,72	21,707
496,92	21,797
497,12	23,199
497,32	20,500
497,52	20,564
497,72	21,255
497,92	21,009
498,12	20,671
498,32	20,895
498,52	20,729
498,72	18,817
498,92	19,607
499,12	21,577
499,32	18,020
499,52	23,449
499,72	22,232
499,92	25,293
500,12	24,309
500,32	21,207
500,52	22,532
500,72	24,681
500,91	25,758
501,11	21,530
501,31	21,973
501,51	25,441
501,71	26,159
501,91	23,068
502,11	20,646
502,31	22,048
502,51	24,466
502,71	25,003
502,91	20,091
503,11	26,639
503,31	24,224
503,51	21,857
503,71	22,462
503,91	25,618
504,11	22,889
504,31	23,774
504,51	22,872
504,71	27,169
504,91	21,106
505,10	24,959
505,30	24,431
505,50	24,837
505,70	23,184
505,90	24,185
506,10	21,644
506,30	25,601
506,50	26,222
506,70	27,430
506,90	24,301
507,10	21,889
507,30	22,607
507,50	23,723
507,70	28,062
507,89	27,012
508,09	25,027
508,29	23,901
508,49	23,712
508,69	25,663
508,89	24,587
509,09	25,153
509,29	25,710
509,49	28,024
509,69	28,306
509,89	28,008
510,09	26,322
510,28	24,737
510,48	26,595
510,68	25,861
510,88	28,231
511,08	28,803
511,28	25,198
511,48	27,579
511,68	20,685
511,88	31,731
512,07	24,517
512,27	26,040
512,47	25,517
512,67	26,093
512,87	24,974
513,07	27,897
513,27	25,155
513,47	25,808
513,67	24,521
513,86	27,774
514,06	28,257
514,26	28,180
514,46	27,967
514,66	26,425
514,86	28,549
515,06	32,423
515,26	30,649
515,45	28,027
515,65	25,584
515,85	28,217
516,05	26,332
516,25	26,906
516,45	28,913
516,65	24,999
516,84	27,075
517,04	31,542
517,24	29,512
517,44	29,364
517,64	30,868
517,84	29,922
518,04	27,903
518,23	32,741
518,43	32,359
518,63	29,551
518,83	28,269
519,03	28,223
519,23	27,949
519,42	29,303
519,62	28,741
519,82	26,579
520,02	27,432
520,22	31,192
520,42	29,366
520,61	32,675
520,81	30,577
521,01	31,271
521,21	29,033
521,41	25,644
521,61	33,188
521,80	29,104
522,00	28,989
522,20	35,485
522,40	29,434
522,60	27,943
522,79	27,416
522,99	33,774
523,19	25,104
523,39	27,888
523,59	29,647
523,78	32,749
523,98	28,923
524,18	31,435
524,38	26,572
524,58	28,649
524,77	33,350
524,97	30,546
525,17	30,275
525,37	29,128
525,57	35,077
525,76	30,407
525,96	34,648
526,16	28,718
526,36	29,493
526,56	31,339
526,75	31,206
526,95	33,270
527,15	31,104
527,35	30,328
527,55	27,026
527,74	29,351
527,94	28,084
528,14	27,166
528,34	30,982
528,53	29,981
528,73	33,967
528,93	33,056
529,13	29,057
529,32	31,552
529,52	32,077
529,72	31,227
529,92	31,093
530,12	28,686
530,31	31,090
530,51	35,384
530,71	29,839
530,91	37,109
531,10	26,403
531,30	32,094
531,50	29,544
531,70	32,739
531,89	32,892
532,09	30,227
532,29	32,540
532,49	30,394
532,68	31,172
532,88	28,692
533,08	29,909
533,28	31,551
533,47	33,355
533,67	30,239
533,87	30,824
534,06	40,530
534,26	29,021
534,46	29,108
534,66	31,389
534,85	32,409
535,05	26,469
535,25	28,230
535,45	27,819
535,64	34,066
535,84	33,493
536,04	28,891
536,23	31,832
536,43	33,445
536,63	30,364
536,83	32,038
537,02	31,758
537,22	29,437
537,42	32,781
537,61	31,621
537,81	30,612
538,01	33,119
538,20	30,434
538,40	27,963
538,60	28,841
538,80	28,213
538,99	30,369
539,19	29,915
539,39	28,802
539,58	29,648
539,78	28,055
539,98	28,128
540,17	26,614
540,37	30,989
540,57	24,605
540,76	24,999
540,96	21,541
541,16	26,529
541,36	25,055
541,55	21,816
541,75	23,283
541,95	26,073
542,14	21,564
542,34	20,703
542,54	20,998
542,73	24,894
542,93	19,711
543,13	23,428
543,32	21,011
543,52	24,448
543,72	19,779
543,91	23,766
544,11	20,585
544,31	18,896
544,50	21,587
544,70	23,421
544,89	24,574
545,09	25,834
545,29	23,753
545,48	25,508
545,68	21,915
545,88	25,728
546,07	22,644
546,27	24,894
546,47	27,463
546,66	27,111
546,86	26,248
547,06	26,447
547,25	24,959
547,45	27,017
547,64	28,937
547,84	30,938
548,04	30,119
548,23	33,202
548,43	31,010
548,63	30,465
548,82	29,934
549,02	31,320
549,21	30,375
549,41	28,616
549,61	29,200
549,80	27,855
550,00	30,983
550,20	28,941
550,39	31,146
550,59	31,254
550,78	32,911
550,98	30,591
551,18	32,351
551,37	31,445
551,57	30,318
551,76	32,177
551,96	29,921
552,16	32,411
552,35	30,495
552,55	29,013
552,74	29,547
552,94	33,813
553,14	30,328
553,33	32,904
553,53	30,050
553,72	31,134
553,92	33,186
554,12	29,823
554,31	31,822
554,51	30,616
554,70	28,629
554,90	30,155
555,09	34,677
555,29	29,772
555,49	32,767
555,68	35,125
555,88	29,014
556,07	31,128
556,27	36,255
556,46	31,479
556,66	30,380
556,86	37,817
557,05	32,617
557,25	28,305
557,44	31,972
557,64	28,575
557,83	32,530
558,03	33,657
558,22	31,248
558,42	33,574
558,62	33,003
558,81	32,626
559,01	33,113
559,20	33,999
559,40	31,229
559,59	31,600
559,79	29,195
559,98	30,643
560,18	33,397
560,37	32,669
560,57	30,828
560,76	28,356
560,96	28,133
561,16	30,820
561,35	29,578
561,55	33,616
561,74	32,471
561,94	32,908
562,13	32,307
562,33	33,419
562,52	33,564
562,72	29,563
562,91	31,788
563,11	31,948
563,30	32,084
563,50	31,482
563,69	31,262
563,89	30,968
564,08	32,383
564,28	30,648
564,47	32,775
564,67	32,173
564,86	31,697
565,06	32,068
565,25	30,253
565,45	30,542
565,64	34,976
565,84	32,203
566,03	29,785
566,23	32,842
566,42	33,073
566,62	32,620
566,81	30,464
567,01	30,794
567,20	33,762
567,40	31,602
567,59	28,508
567,79	35,048
567,98	35,501
568,18	29,573
568,37	33,080
568,57	31,081
568,76	31,870
568,96	33,816
569,15	29,711
569,35	32,049
569,54	35,999
569,73	32,863
569,93	30,951
570,12	31,458
570,32	33,728
570,51	33,046
570,71	33,427
570,90	33,842
571,10	31,241
571,29	32,707
571,49	31,511
571,68	34,088
571,87	33,466
572,07	33,337
572,26	28,515
572,46	31,102
572,65	32,511
572,85	29,553
573,04	31,883
573,24	30,979
573,43	33,860
573,62	32,080
573,82	33,001
574,01	31,535
574,21	29,510
574,40	30,000
574,60	29,177
574,79	34,629
574,98	31,013
575,18	31,154
575,37	29,503
575,57	30,562
575,76	33,267
575,96	31,728
576,15	32,251
576,34	31,016
576,54	31,370
576,73	31,924
576,93	30,948
577,12	32,115
577,31	31,773
577,51	29,806
577,70	30,965
577,90	30,438
578,09	32,258
578,28	29,663
578,48	30,591
578,67	31,946
578,87	31,431
579,06	30,360
579,25	31,999
579,45	32,433
579,64	30,020
579,84	29,452
580,03	31,851
580,22	32,562
580,42	30,211
580,61	31,465
580,81	31,343
581,00	31,528
581,19	32,792
581,39	29,700
581,58	29,325
581,77	29,922
581,97	33,634
582,16	29,887
582,35	30,625
582,55	31,414
582,74	31,959
582,94	31,726
583,13	30,773
583,32	30,157
583,52	32,078
583,71	31,574
583,90	30,213
584,10	32,234
584,29	32,977
584,48	29,237
584,68	29,007
584,87	31,090
585,06	30,839
585,26	28,466
585,45	30,177
585,65	33,043
585,84	30,417
586,03	30,494
586,23	30,346
586,42	29,465
586,61	34,993
586,81	32,060
587,00	28,717
587,19	30,854
587,39	32,049
587,58	31,054
587,77	31,065
587,97	29,335
588,16	31,597
588,35	29,492
588,54	32,245
588,74	33,102
588,93	33,226
589,12	32,857
589,32	29,225
589,51	29,749
589,70	29,671
589,90	29,031
590,09	29,141
590,28	33,249
590,48	29,307
590,67	31,473
590,86	31,506
591,06	30,982
591,25	31,305
591,44	31,298
591,63	31,706
591,83	31,041
592,02	31,079
592,21	30,292
592,41	31,127
592,60	32,333
592,79	31,408
592,98	32,394
593,18	28,974
593,37	30,181
593,56	30,955
593,76	30,889
593,95	31,058
594,14	30,108
594,33	32,572
594,53	31,087
594,72	30,205
594,91	31,551
595,10	30,371
595,30	30,691
595,49	31,723
595,68	33,038
595,88	33,790
596,07	32,057
596,26	32,169
596,45	31,049
596,65	27,403
596,84	30,561
597,03	31,817
597,22	30,025
597,42	34,296
597,61	30,858
597,80	32,035
597,99	30,810
598,19	32,920
598,38	30,635
598,57	29,933
598,76	33,126
598,95	32,081
599,15	31,902
599,34	30,289
599,53	30,140
599,72	30,296
599,92	32,632
600,11	32,314
600,30	31,443
600,49	35,143
600,69	30,748
600,88	31,378
601,07	31,312
601,26	28,968
601,45	29,856
601,65	29,756
601,84	32,432
602,03	30,521
602,22	32,378
602,42	33,142
602,61	29,458
602,80	31,478
602,99	30,992
603,18	29,826
603,38	33,555
603,57	31,543
603,76	30,926
603,95	30,942
604,14	31,944
604,34	28,438
604,53	30,298
604,72	32,726
604,91	31,918
605,10	31,608
605,29	33,483
605,49	29,546
605,68	32,192
605,87	34,746
606,06	30,331
606,25	31,046
606,45	31,566
606,64	30,511
606,83	33,171
607,02	30,616
607,21	33,006
607,40	31,586
607,60	30,393
607,79	29,987
607,98	29,215
608,17	30,195
608,36	30,039
608,55	29,226
608,75	31,100
608,94	29,873
609,13	26,694
609,32	25,854
609,51	27,093
609,70	28,301
609,89	26,416
610,09	24,715
610,28	27,680
610,47	25,514
610,66	26,792
610,85	24,639
611,04	28,336
611,23	23,433
611,43	25,017
611,62	26,049
611,81	24,803
612,00	26,289
612,19	25,004
612,38	26,377
612,57	27,864
612,77	28,079
612,96	27,440
613,15	27,570
613,34	28,993
613,53	28,635
613,72	29,085
613,91	27,024
614,10	29,102
614,29	30,363
614,49	27,912
614,68	28,841
614,87	30,314
615,06	32,052
615,25	28,746
615,44	31,030
615,63	29,756
615,82	29,897
616,01	30,510
616,21	29,013
616,40	31,709
616,59	32,164
616,78	30,176
616,97	30,188
617,16	28,537
617,35	32,365
617,54	28,436
617,73	30,958
617,92	31,129
618,11	30,672
618,31	31,182
618,50	32,297
618,69	30,407
618,88	30,321
619,07	26,963
619,26	28,351
619,45	29,898
619,64	28,773
619,83	29,934
620,02	30,956
620,21	32,196
620,40	30,470
620,59	30,792
620,78	29,945
620,97	30,751
621,17	32,745
621,36	28,533
621,55	28,025
621,74	32,496
621,93	31,068
622,12	30,626
622,31	30,359
622,50	30,493
622,69	32,652
622,88	31,366
623,07	32,397
623,26	31,372
623,45	33,693
623,64	29,922
623,83	30,009
624,02	31,224
624,21	30,789
624,40	30,946
624,59	28,014
624,78	31,504
624,97	32,850
625,16	28,536
625,35	28,721
625,54	28,709
625,73	29,542
625,92	31,512
626,12	32,247
626,31	31,735
626,50	31,774
626,69	30,646
626,88	31,615
627,07	30,498
627,26	30,609
627,45	31,231
627,64	29,085
627,83	31,352
628,02	28,771
628,21	30,500
628,40	30,381
628,59	32,410
628,78	28,326
628,97	31,721
629,16	29,013
629,35	31,005
629,54	30,969
629,73	30,709
629,92	28,914
630,10	31,014
630,29	30,343
630,48	28,840
630,67	29,071
630,86	32,335
631,05	29,410
631,24	31,132
631,43	30,312
631,62	31,544
631,81	29,289
632,00	29,948
632,19	28,023
632,38	31,861
632,57	31,221
632,76	27,472
632,95	31,566
633,14	32,177
633,33	32,576
633,52	32,149
633,71	31,079
633,90	27,306
634,09	30,070
634,28	30,977
634,47	30,863
634,66	31,209
634,85	29,760
635,04	33,533
635,22	29,851
635,41	29,457
635,60	32,712
635,79	33,393
635,98	30,153
636,17	30,707
636,36	28,726
636,55	29,349
636,74	31,088
636,93	31,082
637,12	30,164
637,31	29,767
637,50	29,992
637,69	30,790
637,87	32,225
638,06	28,916
638,25	29,386
638,44	29,667
638,63	28,909
638,82	28,862
639,01	29,744
639,20	30,596
639,39	31,484
639,58	30,431
639,77	30,472
639,95	29,783
640,14	32,047
640,33	30,006
640,52	31,685
640,71	33,565
640,90	30,260
641,09	32,432
641,28	28,667
641,47	31,715
641,66	30,811
641,84	33,399
642,03	27,959
642,22	30,455
642,41	33,887
642,60	31,072
642,79	31,073
642,98	31,778
643,17	32,054
643,35	28,717
643,54	28,987
643,73	30,724
643,92	31,081
644,11	30,727
644,30	30,951
644,49	31,183
644,67	30,454
644,86	31,334
645,05	32,233
645,24	29,907
645,43	29,893
645,62	30,508
645,81	28,881
645,99	29,907
646,18	32,316
646,37	31,020
646,56	30,924
646,75	31,073
646,94	32,696
647,13	28,846
647,31	31,265
647,50	29,274
647,69	33,066
647,88	31,154
648,07	32,077
648,26	34,414
648,44	30,428
648,63	31,402
648,82	30,092
649,01	31,457
649,20	28,690
649,38	31,966
649,57	30,239
649,76	30,191
649,95	31,506
650,14	29,588
650,33	30,015
650,51	30,278
650,70	30,328
650,89	32,005
651,08	30,465
651,27	30,777
651,45	29,119
651,64	30,577
651,83	30,763
652,02	29,036
652,21	30,610
652,39	32,364
652,58	31,074
652,77	34,033
652,96	30,613
653,15	31,929
653,33	31,277
653,52	31,041
653,71	32,313
653,90	31,428
654,09	30,364
654,27	31,371
654,46	31,460
654,65	31,183
654,84	30,841
655,02	32,047
655,21	31,634
655,40	32,699
655,59	30,350
655,77	30,611
655,96	31,578
656,15	33,091
656,34	32,028
656,53	30,617
656,71	32,986
656,90	33,033
657,09	31,295
657,28	32,467
657,46	30,881
657,65	30,251
657,84	30,530
658,03	31,213
658,21	30,453
658,40	30,328
658,59	30,725
658,78	31,641
658,96	29,923
659,15	32,991
659,34	31,035
659,52	30,497
659,71	32,183
659,90	30,267
660,09	28,333
660,27	32,076
660,46	33,633
660,65	31,849
660,84	30,285
661,02	31,332
661,21	32,591
661,40	32,314
661,58	31,649
661,77	31,373
661,96	28,894
662,15	31,697
662,33	30,999
662,52	31,175
662,71	31,215
662,89	29,188
663,08	30,712
663,27	32,276
663,45	30,421
663,64	31,534
663,83	29,724
664,02	28,424
664,20	32,485
664,39	30,258
664,58	32,248
664,76	29,937
664,95	30,930
665,14	30,936
665,32	30,032
665,51	31,161
665,70	32,303
665,88	32,462
666,07	30,266
666,26	32,048
666,44	32,819
666,63	29,297
666,82	28,861
667,00	29,912
667,19	30,034
667,38	30,253
667,56	30,403
667,75	32,620
667,94	30,968
668,12	29,483
668,31	32,410
668,50	31,248
668,68	32,194
668,87	29,883
669,06	30,872
669,24	32,249
669,43	30,158
669,62	29,891
669,80	29,573
669,99	29,671
670,18	31,165
670,36	29,347
670,55	32,215
670,74	29,791
670,92	27,627
671,11	32,611
671,29	27,607
671,48	30,185
671,67	30,281
671,85	29,647
672,04	31,458
672,23	29,069
672,41	30,002
672,60	30,282
672,78	30,807
672,97	30,359
673,16	31,831
673,34	32,556
673,53	29,868
673,71	30,825
673,90	31,340
674,09	31,125
674,27	31,282
674,46	31,651
674,64	30,773
674,83	31,173
675,02	29,001
675,20	30,606
675,39	30,118
675,57	30,188
675,76	29,461
675,95	33,851
676,13	30,346
676,32	30,688
676,50	30,747
676,69	28,603
676,88	30,373
677,06	28,694
677,25	31,249
677,43	32,268
677,62	31,563
677,80	29,834
677,99	31,003
678,18	32,284
678,36	32,529
678,55	28,700
678,73	29,537
678,92	30,817
679,10	30,755
679,29	30,340
679,48	28,481
679,66	31,636
679,85	30,733
680,03	29,498
680,22	30,142
680,40	31,681
680,59	31,335
680,77	29,980
680,96	30,928
681,15	30,958
681,33	32,042
681,52	30,252
681,70	30,821
681,89	33,657
682,07	30,848
682,26	29,777
682,44	31,780
682,63	30,677
682,81	30,777
683,00	30,519
683,18	28,152
683,37	31,466
683,55	30,522
683,74	30,961
683,92	35,800
684,11	31,317
684,29	30,439
684,48	30,913
684,67	30,304
684,85	29,957
685,04	31,637
685,22	31,497
685,41	30,827
685,59	30,513
685,78	29,183
685,96	30,700
686,15	29,511
686,33	30,646
686,52	30,240
686,70	29,662
686,89	29,996
687,07	31,898
687,26	31,053
687,44	30,653
687,62	30,761
687,81	32,066
687,99	32,009
688,18	30,508
688,36	32,230
688,55	33,726
688,73	31,112
688,92	29,365
689,10	31,298
689,29	32,680
689,47	31,550
689,66	30,103
689,84	30,550
690,03	31,753
690,21	29,097
690,40	29,466
690,58	29,177
690,76	28,563
690,95	31,360
691,13	28,566
691,32	29,885
691,50	30,245
691,69	32,372
691,87	30,985
692,06	30,451
692,24	29,983
692,43	30,888
692,61	30,808
692,79	29,972
692,98	30,145
693,16	31,558
693,35	28,631
693,53	31,682
693,72	31,957
693,90	34,096
694,08	30,516
694,27	31,171
694,45	32,182
694,64	33,476
694,82	29,833
695,01	30,504
695,19	29,510
695,37	31,250
695,56	30,109
695,74	31,276
695,93	31,368
696,11	31,491
696,29	30,652
696,48	32,906
696,66	31,643
696,85	30,033
697,03	29,518
697,21	32,039
697,40	33,398
697,58	31,665
697,77	32,744
697,95	31,824
698,13	29,215
698,32	29,761
698,50	29,358
698,69	29,328
698,87	32,525
699,05	32,909
699,24	29,504
699,42	30,015
699,60	27,875
699,79	30,236
699,97	29,964
700,16	28,993
700,34	34,251
700,52	29,435
700,71	30,000
700,89	29,572
701,07	28,481
701,26	30,503
701,44	29,773
701,63	30,116
701,81	30,173
701,99	31,064
702,18	29,982
702,36	30,225
702,54	32,971
702,73	30,277
702,91	29,414
703,09	28,687
703,28	28,953
703,46	30,975
703,64	31,596
703,83	31,735
704,01	31,274
704,19	30,258
704,38	28,426
704,56	30,870
704,74	31,389
704,93	28,065
705,11	30,884
705,29	29,230
705,48	33,360
705,66	30,245
705,84	30,829
706,03	28,977
706,21	29,809
706,39	28,957
706,58	29,536
706,76	29,701
706,94	30,203
707,12	30,600
707,31	30,219
707,49	29,197
707,67	30,030
707,86	33,215
708,04	30,876
708,22	31,213
708,41	31,645
708,59	27,768
708,77	30,054
708,95	30,195
709,14	32,341
709,32	30,274
709,50	29,111
709,69	31,546
709,87	29,300
710,05	28,515
710,23	27,781
710,42	29,745
710,60	29,773
710,78	33,267
710,97	29,955
711,15	30,948
711,33	30,904
711,51	29,177
711,70	29,781
711,88	30,848
712,06	33,481
712,24	31,666
712,43	29,810
712,61	28,844
712,79	29,330
712,97	29,351
713,16	29,731
713,34	29,146
713,52	32,448
713,70	30,243
713,89	28,909
714,07	29,305
714,25	29,527
714,43	32,558
714,62	29,108
714,80	28,898
714,98	27,759
715,16	29,328
715,35	29,906
715,53	29,367
715,71	32,942
715,89	34,378
716,07	30,676
716,26	30,261
716,44	33,792
716,62	31,173
716,80	31,547
716,99	31,163
717,17	32,858
717,35	29,896
717,53	29,887
717,71	30,640
717,90	33,470
718,08	32,040
718,26	30,168
718,44	32,197
718,62	32,173
718,81	30,623
718,99	27,559
719,17	30,618
719,35	30,228
719,53	29,568
719,72	28,537
719,90	29,296
720,08	30,215
720,26	32,770
720,44	28,746
720,62	30,298
720,81	33,299
720,99	33,253
721,17	30,082
721,35	32,520
721,53	29,953
721,72	31,754
721,90	30,361
722,08	29,209
722,26	30,191
722,44	31,333
722,62	28,023
722,81	29,197
722,99	31,157
723,17	30,537
723,35	30,485
723,53	31,161
723,71	32,000
723,89	35,121
724,08	31,075
724,26	29,351
724,44	32,273
724,62	32,429
724,80	26,922
724,98	31,129
725,16	33,765
725,35	30,741
725,53	30,418
725,71	29,705
725,89	28,985
726,07	35,112
726,25	33,487
726,43	28,241
726,61	30,454
726,80	32,093
726,98	30,271
727,16	29,175
727,34	31,200
727,52	30,071
727,70	29,883
727,88	30,215
728,06	28,303
728,25	28,047
728,43	29,223
728,61	30,659
728,79	29,356
728,97	32,838
729,15	30,161
729,33	33,693
729,51	33,191
729,69	31,455
729,87	30,558
730,06	31,760
730,24	31,579
730,42	32,300
730,60	29,432
730,78	32,007
730,96	30,509
731,14	32,115
731,32	31,319
731,50	29,666
731,68	28,553
731,86	33,069
732,04	29,859
732,22	29,848
732,41	38,504
732,59	30,974
732,77	31,108
732,95	30,623
733,13	32,602
733,31	31,376
733,49	28,717
733,67	31,751
733,85	31,698
734,03	30,319
734,21	28,694
734,39	30,903
734,57	30,826
734,75	33,217
734,93	29,126
735,11	31,711
735,29	28,186
735,47	31,825
735,65	28,375
735,84	29,020
736,02	30,392
736,20	33,427
736,38	30,346
736,56	31,110
736,74	29,455
736,92	30,374
737,10	29,092
737,28	32,763
737,46	29,869
737,64	30,599
737,82	29,723
738,00	32,091
738,18	31,762
738,36	32,306
738,54	30,267
738,72	31,214
738,90	30,620
739,08	30,904
739,26	28,978
739,44	31,630
739,62	33,036
739,80	32,270
739,98	30,550
740,16	30,609
740,34	29,347
740,52	34,231
740,70	29,728
740,88	30,465
741,06	30,030
741,24	30,949
741,42	30,865
741,60	31,689
741,78	30,994
741,96	31,914
742,14	30,760
742,32	31,550
742,50	29,376
742,68	32,428
742,86	30,695
743,04	27,455
743,21	31,171
743,39	30,344
743,57	31,161
743,75	31,626
743,93	28,742
744,11	26,238
744,29	31,627
744,47	30,367
744,65	31,219
744,83	30,018
745,01	28,197
745,19	30,516
745,37	35,387
745,55	31,352
745,73	31,855
745,91	29,379
746,09	30,513
746,27	29,565
746,45	29,140
746,62	31,067
746,80	28,195
746,98	30,472
747,16	27,538
747,34	28,475
747,52	31,174
747,70	32,442
747,88	32,293
748,06	31,985
748,24	32,183
748,42	34,270
748,60	31,282
748,78	27,235
748,95	33,409
749,13	35,244
749,31	28,798
749,49	29,665
749,67	31,890
749,85	30,852
750,03	31,278
750,21	31,483
750,39	31,267
750,57	29,228
750,74	32,201
750,92	30,866
751,10	31,671
751,28	29,142
751,46	32,303
751,64	31,930
751,82	32,353
752,00	33,120
752,17	31,088
752,35	32,691
752,53	31,786
752,71	30,758
752,89	31,324
753,07	29,436
753,25	31,616
753,43	28,667
753,60	33,518
753,78	33,081
753,96	32,028
754,14	31,853
754,32	34,225
754,50	31,726
754,68	33,509
754,85	29,212
755,03	31,455
755,21	32,765
755,39	34,186
755,57	31,448
755,75	33,456
755,92	31,218
756,10	31,013
756,28	31,198
756,46	30,499
756,64	30,851
756,82	31,915
756,99	28,848
757,17	28,659
757,35	29,511
757,53	34,655
757,71	34,321
757,89	28,845
758,06	31,106
758,24	31,807
758,42	30,980
758,60	28,177
758,78	31,201
758,95	32,680
759,13	31,440
759,31	30,824
759,49	29,423
759,67	31,373
759,84	29,210
760,02	30,988
760,20	29,452
760,38	31,783
760,56	27,014
760,73	28,798
760,91	29,744
761,09	31,878
761,27	29,970
761,45	30,445
761,62	26,934
761,80	28,812
761,98	31,720
762,16	33,492
762,33	29,334
762,51	32,083
762,69	28,228
762,87	30,030
763,05	31,336
763,22	29,916
763,40	31,284
763,58	30,700
763,76	29,236
763,93	32,501
764,11	33,752
764,29	30,956
764,47	33,229
764,64	33,171
764,82	33,572
765,00	30,409
765,18	28,823
765,35	31,485
765,53	30,096
765,71	33,219
765,89	31,169
766,06	29,135
766,24	29,996
766,42	30,904
766,60	28,830
766,77	29,675
766,95	29,332
767,13	30,662
767,30	30,647
767,48	28,169
767,66	28,993
767,84	28,562
768,01	29,729
768,19	30,552
768,37	29,630
768,54	29,089
768,72	30,401
768,90	29,985
769,08	31,775
769,25	29,772
769,43	29,719
769,61	28,528
769,78	31,021
769,96	28,607
770,14	32,809
770,31	33,577
770,49	33,504
770,67	28,866
770,85	29,367
771,02	32,366
771,20	30,402
771,38	31,456
771,55	30,634
771,73	27,848
771,91	30,856
772,08	31,373
772,26	31,500
772,44	32,411
772,61	31,137
772,79	29,616
772,97	29,722
773,14	29,470
773,32	32,480
773,50	29,868
773,67	30,187
773,85	34,037
774,03	34,835
774,20	31,090
774,38	30,898
774,56	31,684
774,73	28,550
774,91	29,852
775,09	29,617
775,26	32,314
775,44	32,253
775,61	29,688
775,79	31,033
775,97	32,056
776,14	29,326
776,32	31,769
776,50	30,949
776,67	32,530
776,85	33,051
777,03	27,937
777,20	32,120
777,38	33,562
777,55	32,933
777,73	29,842
777,91	27,453
778,08	29,431
778,26	28,073
778,43	30,840
778,61	29,170
778,79	30,478
778,96	29,901
779,14	29,963
779,32	28,815
779,49	27,020
779,67	36,292
779,84	33,104
780,02	32,236
780,20	30,632
780,37	32,585
780,55	26,359
780,72	31,018
780,90	29,789
781,07	31,552
781,25	34,798
781,43	31,482
781,60	29,378
781,78	33,106
781,95	33,573
782,13	31,175
782,30	31,372
782,48	32,326
782,66	28,363
782,83	29,836
783,01	39,364
783,18	31,892
783,36	33,182
783,53	32,489
783,71	29,157
783,89	31,318
784,06	31,662
784,24	30,234
784,41	31,193
784,59	28,882
784,76	35,111
784,94	29,376
785,11	33,188
785,29	32,693
785,46	31,921
785,64	28,870
785,82	32,995
785,99	34,053
786,17	31,967
786,34	29,755
786,52	35,020
786,69	31,683
786,87	29,809
787,04	31,720
787,22	30,227
787,39	32,753
787,57	35,581
787,74	30,621
787,92	33,761
788,09	31,980
788,27	32,461
788,44	29,390
788,62	34,919
788,79	29,459
788,97	30,706
789,14	32,009
789,32	31,442
789,49	29,133
789,67	30,599
789,84	29,330
790,02	33,228
790,19	27,318
790,37	32,231
790,54	30,505
790,72	37,665
790,89	31,464
791,07	35,873
791,24	27,795
791,42	34,883
791,59	35,217
791,77	29,638
791,94	31,438
792,12	31,835
792,29	32,438
792,47	33,607
792,64	31,989
792,81	35,809
792,99	27,996
793,16	29,700
793,34	30,046
793,51	32,919
793,69	32,907
793,86	30,075
794,04	32,843
794,21	35,465
794,39	28,717
794,56	30,650
794,73	34,253
794,91	37,065
795,08	31,885
795,26	30,457
795,43	29,922
795,61	35,576
795,78	29,932
795,95	31,915
796,13	33,791
796,30	34,352
796,48	27,585
796,65	28,886
796,83	31,446
797,00	32,586
797,17	34,517
797,35	31,541
797,52	31,808
797,70	33,102
797,87	33,286
798,04	35,931
798,22	30,489
798,39	30,927
798,57	32,503
798,74	31,652
798,91	29,306
799,09	31,551
799,26	34,154
799,44	33,265
799,61	27,834
799,78	30,049
799,96	37,151
800,13	28,880
800,31	34,886
800,48	34,902
800,65	37,059
800,83	32,256
801,00	30,900
801,17	33,666
801,35	34,691
801,52	34,421
801,70	35,611
801,87	32,191
802,04	34,568
802,22	28,056
802,39	32,668
802,56	36,594
802,74	35,464
802,91	32,511
803,08	30,881
803,26	35,174
803,43	38,592
803,61	27,699
803,78	29,155
803,95	34,478
804,13	31,528
804,30	26,576
804,47	35,236
804,65	33,014
804,82	33,889
804,99	38,446
805,17	29,361
805,34	42,029
805,51	35,981
805,69	28,355
805,86	38,510
806,03	42,388
806,21	34,062
806,38	37,162
806,55	28,875
806,72	37,651
806,90	41,030
807,07	33,660
807,24	30,663
807,42	26,819
807,59	34,812
807,76	29,358
807,94	33,919
808,11	35,483
808,28	37,840
808,45	33,793
808,63	32,905
808,80	39,184
808,97	33,307
809,15	32,956
809,32	32,950
809,49	33,906
809,67	37,958
809,84	35,517
810,01	35,874
810,18	48,471
810,36	37,825
810,53	35,178
810,70	36,830
810,87	33,641
811,05	36,130
811,22	32,173
811,39	33,154
811,57	37,887
811,74	32,336
811,91	34,392
812,08	31,723
812,26	31,727
812,43	28,209
812,60	38,685
812,77	34,617
812,95	36,765
813,12	32,076
813,29	32,761
813,46	36,187
813,64	36,248
813,81	34,769
813,98	33,042
814,15	37,105
814,32	36,833
814,50	35,715
814,67	34,962
814,84	40,349
815,01	31,360
815,19	28,529
815,36	33,130
815,53	31,152
815,70	32,169
815,87	38,801
816,05	32,879
816,22	37,940
816,39	38,422
816,56	40,508
816,74	40,025
816,91	37,907
817,08	40,302
817,25	42,622
817,42	36,083
817,60	37,407
817,77	41,019
817,94	34,707
818,11	35,336
818,28	30,369
818,45	35,597
818,63	34,868
818,80	36,534
818,97	32,376
819,14	34,116
819,31	41,905
819,49	35,005
819,66	31,199
819,83	39,380
820,00	40,243
820,17	33,713
820,34	38,603
820,52	39,288
820,69	40,091
820,86	31,835
821,03	37,562
821,20	36,675
821,37	37,354
821,55	38,613
821,72	29,986
821,89	34,541
822,06	37,913
822,23	30,633
822,40	29,999
822,57	40,876
822,75	40,881
822,92	25,847
823,09	39,948
823,26	41,140
823,43	39,514
823,60	34,049
823,77	34,172
823,94	41,557
824,12	42,630
824,29	34,014
824,46	40,672
824,63	50,021
824,80	45,118
824,97	33,589
825,14	35,221
825,31	37,760
825,49	35,568
825,66	21,667
825,83	36,109
826,00	36,763
826,17	44,820
826,34	38,637
826,51	31,501
826,68	34,388
826,85	35,095
827,02	30,112
827,20	32,752
827,37	30,976
827,54	39,672
827,71	38,906
827,88	36,058
828,05	38,831
828,22	39,627
828,39	35,756
828,56	38,100
828,73	36,409
828,90	37,511
829,07	36,475
829,25	31,988
829,42	34,555
829,59	32,296
829,76	34,501
829,93	36,473
830,10	38,368
830,27	35,222
830,44	31,211
830,61	27,543
830,78	48,134
830,95	36,270
831,12	36,536
831,29	34,904
831,46	27,375
831,63	30,108
831,80	35,940
831,97	33,683
832,14	40,098
832,31	45,803
832,48	29,002
832,65	38,717
832,83	32,869
833,00	41,568
833,17	35,978
833,34	33,073
833,51	42,961
833,68	42,798
833,85	37,185
834,02	31,029
834,19	40,638
834,36	40,495
834,53	31,136
834,70	33,670
834,87	53,737
835,04	38,083
835,21	37,137
835,38	37,954
835,55	32,656
835,72	53,304
835,89	37,013
836,06	33,488
836,23	51,104
836,40	38,165
836,57	33,133
836,74	39,975
836,91	37,365
837,08	46,890
837,25	34,225
837,42	35,228
837,59	30,457
837,76	45,628
837,93	35,959
838,09	36,856
838,26	39,062
838,43	52,403
838,60	43,386
838,77	36,803
838,94	34,423
839,11	52,495
839,28	43,386
839,45	33,279
839,62	39,126
839,79	35,636
839,96	37,431
840,13	40,794
840,30	36,350
840,47	36,921
840,64	44,891
840,81	37,603
840,98	33,545
841,15	47,550
841,32	30,900
841,48	47,393
841,65	37,003
841,82	30,187
841,99	37,042
842,16	45,434
842,33	34,607
842,50	47,258
842,67	27,431
842,84	37,646
843,01	47,572
843,18	32,937
843,35	45,066
843,52	38,639
843,68	38,718
843,85	34,811
844,02	28,135
844,19	32,609
844,36	39,868
844,53	30,666
844,70	22,386
844,87	53,983
845,04	42,078
845,21	30,244
845,37	45,796
845,54	32,555
845,71	39,639
845,88	62,675
846,05	38,653
846,22	23,880
846,39	42,673
846,56	45,103
846,72	19,692
846,89	38,382
847,06	54,053
847,23	44,352
847,40	25,838
847,57	33,079
847,74	35,869
847,90	53,906
848,07	40,154
848,24	35,082
848,41	45,923
848,58	57,781
848,75	45,371
848,92	26,350
849,08	42,581
849,25	40,750
849,42	29,336
849,59	35,192
849,76	30,593
849,93	51,393
850,09	47,209
850,26	25,248
850,43	49,136
850,60	29,591
850,77	31,205
850,94	41,438
851,10	37,446
851,27	29,405
851,44	42,706
851,61	25,268
851,78	57,438
851,95	53,038
852,11	38,596
852,28	36,639
852,45	53,623
852,62	62,061
852,79	46,601
852,95	37,416
853,12	52,032
853,29	35,694
853,46	36,046
853,63	44,407
853,79	32,754
853,96	39,097
854,13	48,682
854,30	41,902
854,46	54,756
854,63	34,663
854,80	44,641
854,97	39,380
855,14	76,933
855,30	51,037
855,47	49,932
855,64	48,583
855,81	35,785
855,97	57,885
856,14	40,662
856,31	25,548
856,48	51,565
856,65	65,651
856,81	49,520
856,98	31,801
857,15	26,631
857,32	59,455
857,48	45,951
857,65	66,123
857,82	57,657
857,99	42,425
858,15	52,423
858,32	42,704
858,49	31,732
858,65	67,668
858,82	44,040
858,99	55,677
859,16	60,269
859,32	43,338
859,49	51,363
859,66	58,794
859,83	57,730
859,99	36,731
860,16	38,682
860,33	41,209
860,49	53,063
860,66	35,667
860,83	39,384
861,00	38,544
861,16	59,006
861,33	51,881
861,50	26,576
861,66	59,262
861,83	56,978
862,00	40,668
862,16	32,253
862,33	47,453
862,50	81,090
862,67	55,301
862,83	42,263
863,00	53,345
863,17	67,840
863,33	43,384
863,50	18,453
863,67	50,416
863,83	59,801
864,00	49,041
864,17	44,035
864,33	18,158
864,50	33,719
864,67	55,900
864,83	37,143
865,00	50,015
865,17	40,666
865,33	63,715
865,50	43,721
865,67	36,589
865,83	60,912
866,00	71,106
866,17	47,243
866,33	44,416
866,50	50,831
866,66	55,433
866,83	45,984
867,00	62,255
867,16	70,810
867,33	92,817
867,50	46,978
867,66	54,417
867,83	69,010
868,00	48,781
868,16	58,455
868,33	47,765
868,49	41,049
868,66	64,516
868,83	51,260
868,99	60,242
869,16	85,983
869,32	79,420
869,49	65,560
869,66	42,184
869,82	84,908
869,99	73,491
870,15	50,105
870,32	61,472
870,49	129,430
870,65	103,346
870,82	64,863
870,98	63,976
871,15	104,311
871,32	77,233
871,48	69,686
871,65	52,475
871,81	64,280
871,98	25,426
872,15	43,059
872,31	23,005
872,48	80,776
872,64	63,184
872,81	78,861
872,97	51,999
873,14	100,519
873,31	63,802
873,47	51,610
873,64	84,179
873,80	113,625
873,97	114,122
874,13	71,399
874,30	48,792
874,46	67,989
874,63	88,662
874,80	35,718
874,96	50,995
875,13	92,218
875,29	62,329
875,46	48,186
875,62	52,123
875,79	86,694
875,95	60,727
876,12	35,895
876,28	17,018
876,45	118,908
876,61	41,235
876,78	49,732
876,94	48,082
877,11	79,960
877,27	143,582
877,44	72,375
877,60	67,129
877,77	82,563
877,94	150,441
878,10	35,988
878,27	92,919
878,43	158,466
878,60	59,155
878,76	68,270
878,93	97,752
879,09	62,203
879,26	122,535
879,42	85,431
879,58	78,520
879,75	143,309
879,91	125,211
880,08	49,579
880,24	102,908
880,41	31,015
880,57	91,481
880,74	116,350
880,90	71,632
881,07	87,830
881,23	157,384
881,40	77,966
881,56	48,795
881,73	160,598
881,89	108,827
882,06	35,500
882,22	156,493
882,38	116,142
882,55	151,887
882,71	81,542
882,88	76,726
883,04	78,554
883,21	157,828
883,37	163,938
883,54	77,520
883,70	228,652
883,86	164,372
884,03	136,344
884,19	56,009
884,36	159,188
884,52	143,065
884,69	145,788
884,85	8,079
885,01	71,877
885,18	154,787
885,34	64,940
885,51	47,441
885,67	119,638
>>>>> Data<<<<< Espectral Procesado Extremo
