Fichero De Datos De SpectraSuite
++++++++++++++++++++++++++++++++++++
Fecha: Wed Apr 22 10:19:46 CEST 2009
Usuario: evoflor
Presente Oscuro Del Espectro: Sí
La Referencia de Presente Del Espectro De: Sí
Muestreados de los componentes de Número de espectros: 1
Espectrómetros: USB4F02353
Tiempo de integración (usec): 500000 (USB4F02353)
Promedio de Espectros Hechos un: 5 (USB4F02353)
El Alisar Del Furgón: 0 (USB4F02353)
Párrafo de de Corregir del la del del de Eléctrica del obscuridad: Sí (USB4F02353)
Estrobo/Lámpara Permitido: No (USB4F02353)
Correct for Detector Non-linearity: No (USB4F02353)
Párrafo de de Corregir del la del del de Externa del luz: No (USB4F02353)
Procesado del espectro de Número de pixeles en: 3648
>>>>> Comienza Data<<<<< Espectral Procesado Del EL
177,79	138,146
178,00	138,146
178,22	138,146
178,44	380,110
178,66	101,618
178,88	-16,319
179,09	-113,234
179,31	79,148
179,53	196,625
179,75	283,464
179,96	493,190
180,18	42,738
180,40	291,115
180,62	237,692
180,83	-42,521
181,05	-181,829
181,27	47190,000
181,49	2,804
181,70	67,731
181,92	258,426
182,14	126,235
182,36	245,105
182,58	507,900
182,79	70,580
183,01	104,122
183,23	118,264
183,45	-198,185
183,66	97,301
183,88	18,882
184,10	-1580,182
184,32	141,609
184,53	100,882
184,75	-7,352
184,97	15,533
185,18	-78,778
185,40	-266,394
185,62	118,990
185,84	63,996
186,05	75,215
186,27	6,030
186,49	-1849,615
186,71	-69,300
186,92	35,441
187,14	144,510
187,36	79,885
187,58	75,626
187,79	90,866
188,01	77,295
188,23	220,994
188,45	74,421
188,66	203,170
188,88	318,000
189,10	-248,100
189,31	146,570
189,53	201,296
189,75	121,841
189,97	-15,346
190,18	29,227
190,40	363,000
190,62	73,526
190,83	-39,514
191,05	68,060
191,27	-24,257
191,49	119,332
191,70	144,663
191,92	56,695
192,14	45,906
192,35	58,647
192,57	606,000
192,79	66,617
193,01	47,355
193,22	116,545
193,44	-3,942
193,66	128,756
193,87	51,199
194,09	47,432
194,31	119,893
194,53	500,769
194,74	-54,339
194,96	34,028
195,18	58,202
195,39	46,148
195,61	31,734
195,83	53,674
196,04	109,394
196,26	-301,055
196,48	76,796
196,70	-54,453
196,91	43,415
197,13	35,468
197,35	-65,919
197,56	514,272
197,78	554,552
198,00	381,189
198,21	225,291
198,43	-332,616
198,65	36,180
198,86	-14,353
199,08	-134,066
199,30	61,154
199,51	-45,635
199,73	204,864
199,95	-74,480
200,16	403,500
200,38	-80,436
200,60	144,522
200,81	33,854
201,03	-52,418
201,25	-572,100
201,46	72,498
201,68	29,321
201,90	993,409
202,11	-125,611
202,33	-39,479
202,55	-556,125
202,76	25,160
202,98	-101,707
203,20	-171,202
203,41	-466,895
203,63	74,417
203,85	16590,000
204,06	253,852
204,28	-5,566
204,50	13,668
204,71	64,505
204,93	-175,920
205,15	128,946
205,36	62,696
205,58	127,083
205,80	-42,773
206,01	37,869
206,23	93,336
206,45	101,448
206,66	64,176
206,88	12,756
207,10	-313,841
207,31	199,748
207,53	96,600
207,75	71,663
207,96	-405,896
208,18	-45,410
208,39	71,800
208,61	1326,000
208,83	-163,801
209,04	4,946
209,26	-23,088
209,48	142,366
209,69	77,758
209,91	302,736
210,13	55,752
210,34	114,552
210,56	65,107
210,77	-1074,094
210,99	-53,118
211,21	2782,941
211,42	-7,314
211,64	46,061
211,86	164,337
212,07	159,408
212,29	51,756
212,50	93,797
212,72	240,808
212,94	178,555
213,15	84,906
213,37	-23,380
213,58	32,794
213,80	-3103,929
214,02	-1928,824
214,23	112,609
214,45	110,852
214,67	-390,366
214,88	140,235
215,10	-81,708
215,31	-85,349
215,53	-15,205
215,75	113,583
215,96	1048,509
216,18	-360,423
216,39	90,834
216,61	193,690
216,83	-74,063
217,04	703,483
217,26	79,210
217,47	163,128
217,69	176,763
217,91	177,294
218,12	14790,000
218,34	57,351
218,55	99,231
218,77	95,021
218,99	69,950
219,20	-30,762
219,42	103,674
219,63	-1,087
219,85	-49,390
220,06	237,346
220,28	104,816
220,50	-65,348
220,71	85,284
220,93	1622,830
221,14	-230,100
221,36	129,809
221,58	-12,382
221,79	-210,145
222,01	-166,293
222,22	-150,592
222,44	-783,034
222,65	66,641
222,87	-285,944
223,09	129,634
223,30	59,870
223,52	57,571
223,73	20,231
223,95	-55,056
224,16	-6,371
224,38	210,213
224,60	50,785
224,81	-157,517
225,03	95,716
225,24	144,378
225,46	54,668
225,67	8,095
225,89	5,380
226,10	229,247
226,32	522,480
226,54	4,096
226,75	28,452
226,97	33,506
227,18	25,750
227,40	101,848
227,61	34,588
227,83	-8,927
228,04	40,755
228,26	2,514
228,47	27,114
228,69	-33,120
228,91	-8,431
229,12	35,230
229,34	25,181
229,55	26,200
229,77	-43,695
229,98	8,532
230,20	40,581
230,41	-19,914
230,63	25,576
230,84	-81,486
231,06	7,862
231,27	11,242
231,49	27,484
231,71	9,325
231,92	12,036
232,14	26,019
232,35	33,752
232,57	67,350
232,78	-15,060
233,00	10,317
233,21	3,823
233,43	6,775
233,64	24,338
233,86	36,212
234,07	-23,702
234,29	2,400
234,50	10,415
234,72	12,355
234,93	6,689
235,15	20,397
235,36	14,666
235,58	12,051
235,79	4,349
236,01	10,628
236,22	17,985
236,44	31,966
236,65	15,342
236,87	9,461
237,08	-5,920
237,30	-12,292
237,51	9,631
237,73	0,077
237,94	19,972
238,16	2,676
238,37	-7,760
238,59	10,965
238,80	2,751
239,02	8,047
239,23	9,559
239,45	1,657
239,66	9,412
239,88	11,893
240,09	12,047
240,31	1,128
240,52	-4,640
240,74	0,710
240,95	4,662
241,17	-6,052
241,38	1,405
241,60	12,863
241,81	17,740
242,03	7,097
242,24	1,656
242,46	13,649
242,67	2,478
242,89	14,516
243,10	16,516
243,32	9,439
243,53	6,941
243,75	6,655
243,96	11,856
244,18	7,757
244,39	7,526
244,60	13,836
244,82	0,244
245,03	11,244
245,25	2,420
245,46	9,622
245,68	5,974
245,89	11,262
246,11	3,598
246,32	16,672
246,54	2,137
246,75	8,457
246,97	8,338
247,18	12,921
247,39	5,911
247,61	3,658
247,82	8,438
248,04	8,498
248,25	5,331
248,47	12,015
248,68	6,724
248,90	2,886
249,11	10,009
249,33	10,262
249,54	1,594
249,75	10,963
249,97	3,376
250,18	8,425
250,40	13,952
250,61	-1,567
250,83	2,451
251,04	1,243
251,25	7,829
251,47	2,393
251,68	1,454
251,90	4,711
252,11	7,186
252,33	6,290
252,54	5,549
252,76	6,386
252,97	6,694
253,18	5,227
253,40	3,638
253,61	4,540
253,83	4,574
254,04	9,918
254,25	7,624
254,47	5,220
254,68	3,203
254,90	4,242
255,11	7,503
255,33	4,729
255,54	4,438
255,75	2,307
255,97	4,675
256,18	-0,724
256,40	2,189
256,61	7,707
256,82	0,163
257,04	8,537
257,25	4,912
257,47	9,695
257,68	4,608
257,89	4,584
258,11	10,426
258,32	2,532
258,54	8,403
258,75	6,469
258,96	7,760
259,18	7,687
259,39	1,957
259,61	8,709
259,82	5,946
260,03	9,099
260,25	6,539
260,46	3,631
260,68	2,734
260,89	7,543
261,10	3,667
261,32	4,257
261,53	7,595
261,75	7,933
261,96	1,853
262,17	5,459
262,39	6,819
262,60	5,963
262,81	0,480
263,03	8,306
263,24	4,306
263,46	-1,658
263,67	8,094
263,88	4,437
264,10	3,928
264,31	0,729
264,52	7,138
264,74	4,031
264,95	1,311
265,17	5,080
265,38	0,301
265,59	4,738
265,81	9,340
266,02	2,810
266,23	5,239
266,45	6,458
266,66	5,735
266,87	9,038
267,09	7,620
267,30	5,801
267,52	7,354
267,73	7,545
267,94	6,267
268,16	9,387
268,37	1,486
268,58	5,995
268,80	5,581
269,01	2,088
269,22	3,788
269,44	5,294
269,65	5,041
269,86	3,025
270,08	10,485
270,29	5,661
270,50	3,902
270,72	4,826
270,93	1,572
271,14	0,349
271,36	2,185
271,57	7,111
271,78	5,793
272,00	5,942
272,21	6,309
272,42	5,758
272,64	4,216
272,85	3,027
273,06	5,428
273,28	6,506
273,49	8,489
273,70	7,038
273,92	3,711
274,13	7,297
274,34	6,456
274,56	6,221
274,77	2,975
274,98	5,380
275,20	7,365
275,41	10,474
275,62	8,536
275,84	6,196
276,05	4,562
276,26	7,284
276,47	5,784
276,69	5,242
276,90	6,435
277,11	1,585
277,33	7,339
277,54	3,779
277,75	5,104
277,97	1,872
278,18	7,345
278,39	7,680
278,61	3,337
278,82	5,543
279,03	7,934
279,24	5,527
279,46	2,712
279,67	8,352
279,88	6,210
280,10	7,915
280,31	-0,370
280,52	5,170
280,73	3,282
280,95	6,923
281,16	8,150
281,37	5,861
281,59	6,353
281,80	7,586
282,01	5,478
282,22	4,566
282,44	3,689
282,65	10,750
282,86	8,277
283,08	5,220
283,29	5,382
283,50	5,188
283,71	8,697
283,93	4,921
284,14	7,760
284,35	1,405
284,56	5,368
284,78	2,892
284,99	5,901
285,20	5,768
285,42	7,310
285,63	7,115
285,84	6,848
286,05	1,478
286,27	5,453
286,48	1,712
286,69	3,963
286,90	5,827
287,12	4,374
287,33	5,053
287,54	6,870
287,75	3,529
287,97	6,555
288,18	3,663
288,39	1,869
288,60	1,734
288,82	5,260
289,03	4,790
289,24	4,536
289,45	6,331
289,67	3,880
289,88	2,714
290,09	3,616
290,30	4,891
290,52	6,760
290,73	5,318
290,94	3,396
291,15	4,486
291,37	4,052
291,58	4,439
291,79	3,378
292,00	5,931
292,21	5,044
292,43	3,015
292,64	5,293
292,85	-0,654
293,06	7,130
293,28	2,512
293,49	2,258
293,70	4,680
293,91	5,287
294,12	3,553
294,34	3,646
294,55	3,863
294,76	4,674
294,97	7,002
295,19	2,350
295,40	8,135
295,61	5,535
295,82	6,278
296,03	4,785
296,25	3,894
296,46	2,750
296,67	4,222
296,88	1,786
297,09	6,402
297,31	3,621
297,52	3,448
297,73	2,984
297,94	6,221
298,15	5,134
298,37	6,101
298,58	6,975
298,79	7,982
299,00	1,250
299,21	4,352
299,43	3,661
299,64	6,089
299,85	7,411
300,06	3,079
300,27	5,301
300,49	7,845
300,70	3,691
300,91	4,573
301,12	5,781
301,33	5,435
301,54	4,755
301,76	4,237
301,97	4,463
302,18	6,258
302,39	7,104
302,60	7,912
302,82	3,894
303,03	5,964
303,24	5,093
303,45	5,014
303,66	4,130
303,87	4,910
304,09	5,945
304,30	3,465
304,51	3,975
304,72	3,530
304,93	4,977
305,14	4,065
305,36	4,308
305,57	1,591
305,78	4,605
305,99	4,690
306,20	4,380
306,41	3,382
306,62	3,945
306,84	4,182
307,05	5,643
307,26	5,056
307,47	6,005
307,68	3,172
307,89	5,338
308,11	3,987
308,32	1,937
308,53	4,223
308,74	3,658
308,95	5,666
309,16	5,190
309,37	6,025
309,59	3,610
309,80	5,754
310,01	6,550
310,22	6,508
310,43	3,006
310,64	5,433
310,85	3,153
311,06	5,034
311,28	4,940
311,49	4,105
311,70	5,454
311,91	2,514
312,12	5,391
312,33	7,805
312,54	5,931
312,75	3,827
312,97	3,304
313,18	4,032
313,39	4,152
313,60	6,202
313,81	5,758
314,02	1,651
314,23	7,026
314,44	3,508
314,65	5,090
314,87	4,653
315,08	5,123
315,29	7,466
315,50	3,302
315,71	3,084
315,92	7,972
316,13	6,690
316,34	4,625
316,55	3,680
316,77	2,461
316,98	5,059
317,19	4,992
317,40	4,835
317,61	7,039
317,82	4,135
318,03	3,571
318,24	3,947
318,45	3,814
318,66	4,874
318,87	4,241
319,09	6,196
319,30	5,174
319,51	4,241
319,72	7,518
319,93	5,376
320,14	4,140
320,35	5,475
320,56	2,894
320,77	1,800
320,98	10,368
321,19	5,625
321,40	2,887
321,62	3,695
321,83	6,759
322,04	4,858
322,25	5,250
322,46	4,785
322,67	5,890
322,88	5,251
323,09	3,614
323,30	4,791
323,51	4,467
323,72	7,426
323,93	5,957
324,14	4,928
324,35	2,594
324,56	2,896
324,77	4,492
324,99	4,251
325,20	5,910
325,41	3,573
325,62	5,288
325,83	3,686
326,04	3,200
326,25	5,135
326,46	2,668
326,67	5,030
326,88	6,845
327,09	5,092
327,30	5,087
327,51	5,555
327,72	4,470
327,93	6,002
328,14	0,606
328,35	2,811
328,56	5,642
328,77	3,648
328,98	6,756
329,19	4,472
329,40	5,324
329,61	6,644
329,82	2,803
330,04	2,097
330,25	2,485
330,46	3,955
330,67	4,025
330,88	2,702
331,09	5,522
331,30	2,906
331,51	5,944
331,72	2,731
331,93	3,023
332,14	5,029
332,35	7,441
332,56	3,928
332,77	4,564
332,98	2,326
333,19	3,011
333,40	2,976
333,61	3,540
333,82	6,250
334,03	3,778
334,24	3,758
334,45	3,983
334,66	7,934
334,87	5,397
335,08	2,771
335,29	1,738
335,50	1,889
335,71	3,135
335,92	5,835
336,13	6,116
336,34	3,452
336,55	4,496
336,76	4,711
336,97	3,218
337,18	4,075
337,39	5,553
337,60	3,712
337,81	5,336
338,02	1,576
338,23	3,535
338,44	3,980
338,65	5,546
338,86	5,858
339,07	1,240
339,28	5,856
339,49	4,880
339,70	2,534
339,91	2,284
340,11	4,877
340,32	5,334
340,53	3,713
340,74	1,914
340,95	2,557
341,16	6,565
341,37	4,824
341,58	3,365
341,79	3,449
342,00	6,096
342,21	4,788
342,42	2,954
342,63	3,558
342,84	0,441
343,05	3,079
343,26	5,938
343,47	0,157
343,68	2,808
343,89	4,484
344,10	3,823
344,31	7,184
344,52	4,473
344,73	4,838
344,94	6,146
345,14	3,435
345,35	5,316
345,56	5,706
345,77	3,130
345,98	4,213
346,19	2,807
346,40	0,818
346,61	6,007
346,82	3,818
347,03	1,649
347,24	5,064
347,45	2,172
347,66	6,039
347,87	5,333
348,08	6,470
348,28	2,440
348,49	5,105
348,70	7,036
348,91	7,255
349,12	0,729
349,33	2,898
349,54	4,140
349,75	3,251
349,96	4,576
350,17	4,705
350,38	3,203
350,59	8,157
350,80	3,201
351,00	4,999
351,21	7,587
351,42	5,869
351,63	0,636
351,84	2,681
352,05	6,129
352,26	6,012
352,47	5,798
352,68	5,200
352,89	5,428
353,09	8,110
353,30	3,719
353,51	6,548
353,72	4,859
353,93	4,020
354,14	2,976
354,35	4,705
354,56	5,648
354,77	3,991
354,98	1,662
355,18	4,895
355,39	3,190
355,60	6,454
355,81	3,009
356,02	4,500
356,23	4,767
356,44	4,155
356,65	4,802
356,85	11,625
357,06	5,675
357,27	7,123
357,48	5,265
357,69	6,236
357,90	5,782
358,11	2,802
358,32	4,671
358,52	2,688
358,73	6,782
358,94	6,151
359,15	6,907
359,36	5,361
359,57	3,628
359,78	2,726
359,98	5,031
360,19	2,035
360,40	2,455
360,61	7,260
360,82	3,995
361,03	5,545
361,24	5,725
361,44	3,587
361,65	5,073
361,86	3,886
362,07	7,518
362,28	5,078
362,49	4,246
362,70	5,319
362,90	5,807
363,11	3,191
363,32	4,486
363,53	8,111
363,74	6,040
363,95	5,868
364,15	4,584
364,36	7,235
364,57	5,601
364,78	3,702
364,99	6,082
365,20	5,113
365,40	3,693
365,61	3,400
365,82	5,180
366,03	3,353
366,24	5,077
366,45	4,049
366,65	5,605
366,86	0,870
367,07	5,406
367,28	4,906
367,49	6,430
367,69	6,285
367,90	3,378
368,11	5,402
368,32	4,140
368,53	6,260
368,73	5,704
368,94	2,477
369,15	4,682
369,36	5,346
369,57	5,526
369,78	3,889
369,98	7,190
370,19	7,254
370,40	6,545
370,61	3,902
370,82	5,823
371,02	2,473
371,23	7,344
371,44	5,005
371,65	4,077
371,85	5,112
372,06	6,799
372,27	5,252
372,48	5,893
372,69	6,555
372,89	6,014
373,10	4,985
373,31	3,805
373,52	10,253
373,73	8,999
373,93	6,310
374,14	6,282
374,35	11,251
374,56	7,927
374,76	7,823
374,97	3,586
375,18	5,863
375,39	7,474
375,60	6,526
375,80	8,382
376,01	3,499
376,22	6,858
376,43	6,600
376,63	6,648
376,84	3,800
377,05	8,191
377,26	4,495
377,46	6,947
377,67	6,337
377,88	8,745
378,09	8,729
378,29	2,392
378,50	9,655
378,71	5,720
378,92	4,966
379,12	8,780
379,33	5,770
379,54	7,396
379,75	5,915
379,95	6,355
380,16	6,937
380,37	7,007
380,58	7,324
380,78	5,873
380,99	6,524
381,20	9,426
381,41	7,999
381,61	8,727
381,82	8,812
382,03	6,720
382,24	8,157
382,44	8,507
382,65	7,185
382,86	4,759
383,06	7,079
383,27	8,125
383,48	8,374
383,69	6,630
383,89	7,756
384,10	11,625
384,31	9,920
384,51	8,550
384,72	4,130
384,93	4,951
385,14	10,996
385,34	9,066
385,55	8,202
385,76	8,166
385,96	9,195
386,17	5,827
386,38	8,949
386,59	11,872
386,79	7,398
387,00	11,903
387,21	11,301
387,41	11,268
387,62	10,805
387,83	10,758
388,03	8,352
388,24	10,412
388,45	11,513
388,66	13,335
388,86	13,140
389,07	6,077
389,28	13,231
389,48	13,003
389,69	10,248
389,90	13,425
390,10	14,945
390,31	10,018
390,52	9,910
390,72	9,905
390,93	12,615
391,14	9,753
391,34	12,350
391,55	13,250
391,76	14,824
391,96	10,628
392,17	15,012
392,38	14,151
392,58	13,356
392,79	14,314
393,00	12,169
393,20	11,877
393,41	13,506
393,62	11,221
393,82	13,893
394,03	12,169
394,24	16,920
394,44	14,607
394,65	14,418
394,86	12,426
395,06	11,686
395,27	13,218
395,48	13,510
395,68	15,893
395,89	14,910
396,10	14,644
396,30	14,933
396,51	13,301
396,72	14,736
396,92	12,874
397,13	16,123
397,34	12,478
397,54	16,199
397,75	15,661
397,95	14,980
398,16	17,725
398,37	13,243
398,57	15,212
398,78	18,400
398,99	16,586
399,19	17,915
399,40	18,428
399,60	14,958
399,81	15,903
400,02	18,214
400,22	15,759
400,43	20,205
400,64	19,760
400,84	17,156
401,05	19,434
401,25	18,563
401,46	19,416
401,67	18,425
401,87	16,349
402,08	17,641
402,29	18,310
402,49	19,534
402,70	19,545
402,90	16,154
403,11	18,252
403,32	21,997
403,52	18,967
403,73	20,685
403,93	18,743
404,14	16,939
404,35	21,776
404,55	21,516
404,76	18,869
404,96	22,508
405,17	23,152
405,38	24,895
405,58	18,631
405,79	22,445
405,99	17,513
406,20	21,094
406,40	22,395
406,61	25,124
406,82	17,850
407,02	23,276
407,23	21,424
407,43	21,638
407,64	20,101
407,85	19,877
408,05	21,341
408,26	25,331
408,46	22,993
408,67	18,266
408,87	21,261
409,08	25,488
409,29	20,639
409,49	25,659
409,70	21,272
409,90	25,169
410,11	22,630
410,31	22,638
410,52	24,506
410,72	23,860
410,93	27,814
411,14	21,669
411,34	22,610
411,55	27,002
411,75	27,177
411,96	22,362
412,16	23,784
412,37	23,829
412,57	25,074
412,78	22,443
412,99	27,509
413,19	20,668
413,40	25,129
413,60	22,786
413,81	22,177
414,01	23,648
414,22	21,729
414,42	22,862
414,63	24,031
414,83	28,286
415,04	26,281
415,24	25,235
415,45	24,985
415,65	23,389
415,86	24,682
416,07	26,631
416,27	25,185
416,48	25,981
416,68	25,612
416,89	25,902
417,09	29,611
417,30	29,591
417,50	30,422
417,71	28,343
417,91	30,571
418,12	25,524
418,32	25,520
418,53	30,384
418,73	27,733
418,94	23,299
419,14	29,690
419,35	21,921
419,55	27,327
419,76	30,259
419,96	25,857
420,17	27,177
420,37	26,253
420,58	28,126
420,78	27,523
420,99	29,600
421,19	31,876
421,40	26,936
421,60	28,583
421,81	27,714
422,01	29,713
422,22	23,785
422,42	28,948
422,63	29,061
422,83	29,658
423,04	26,365
423,24	26,729
423,45	23,898
423,65	30,755
423,86	27,678
424,06	30,349
424,27	31,529
424,47	27,241
424,67	28,798
424,88	27,822
425,08	31,648
425,29	32,939
425,49	29,436
425,70	23,990
425,90	32,737
426,11	31,639
426,31	28,166
426,52	30,147
426,72	29,586
426,93	27,404
427,13	28,246
427,33	29,839
427,54	31,885
427,74	29,060
427,95	28,820
428,15	31,163
428,36	30,676
428,56	31,963
428,77	27,753
428,97	28,374
429,18	33,367
429,38	26,583
429,58	33,274
429,79	32,467
429,99	35,175
430,20	24,675
430,40	31,423
430,61	31,999
430,81	27,766
431,01	30,203
431,22	27,625
431,42	32,202
431,63	29,142
431,83	30,640
432,04	27,760
432,24	34,010
432,44	26,780
432,65	27,700
432,85	26,519
433,06	30,089
433,26	27,342
433,47	28,781
433,67	27,708
433,87	29,869
434,08	25,584
434,28	30,802
434,49	29,575
434,69	29,785
434,89	29,879
435,10	30,122
435,30	31,979
435,51	28,513
435,71	31,380
435,91	30,631
436,12	31,171
436,32	28,380
436,53	25,996
436,73	29,972
436,93	29,921
437,14	31,349
437,34	31,189
437,55	31,929
437,75	29,281
437,95	30,011
438,16	32,571
438,36	27,556
438,57	26,917
438,77	30,468
438,97	31,903
439,18	32,534
439,38	30,344
439,58	27,124
439,79	32,174
439,99	31,781
440,20	32,391
440,40	29,996
440,60	34,219
440,81	36,332
441,01	32,416
441,21	31,488
441,42	32,452
441,62	33,738
441,83	33,031
442,03	29,743
442,23	34,413
442,44	30,529
442,64	32,768
442,84	30,056
443,05	29,483
443,25	29,263
443,45	33,811
443,66	31,526
443,86	32,293
444,06	32,527
444,27	27,433
444,47	30,028
444,67	35,221
444,88	32,700
445,08	33,620
445,28	33,577
445,49	30,677
445,69	27,630
445,90	32,786
446,10	30,528
446,30	32,854
446,51	33,355
446,71	36,049
446,91	37,590
447,12	34,547
447,32	31,637
447,52	30,232
447,72	34,567
447,93	33,403
448,13	30,200
448,33	34,448
448,54	34,969
448,74	28,220
448,94	33,319
449,15	34,933
449,35	35,198
449,55	31,277
449,76	36,235
449,96	33,660
450,16	34,796
450,37	29,449
450,57	34,055
450,77	29,305
450,98	33,613
451,18	33,707
451,38	33,318
451,58	37,109
451,79	38,056
451,99	33,684
452,19	32,136
452,40	32,541
452,60	34,724
452,80	32,229
453,00	34,515
453,21	35,112
453,41	35,596
453,61	36,174
453,82	34,487
454,02	30,893
454,22	31,887
454,42	39,696
454,63	30,578
454,83	30,911
455,03	35,324
455,24	35,232
455,44	31,222
455,64	33,474
455,84	34,894
456,05	32,983
456,25	33,045
456,45	36,006
456,65	30,825
456,86	39,474
457,06	36,778
457,26	40,416
457,47	31,560
457,67	35,430
457,87	34,045
458,07	36,038
458,28	35,939
458,48	37,632
458,68	31,718
458,88	33,507
459,09	35,878
459,29	34,448
459,49	38,813
459,69	33,789
459,90	33,505
460,10	33,775
460,30	35,421
460,50	35,964
460,71	37,288
460,91	35,724
461,11	35,975
461,31	32,585
461,52	33,459
461,72	35,049
461,92	36,741
462,12	36,448
462,32	35,989
462,53	37,827
462,73	30,717
462,93	38,945
463,13	36,036
463,34	38,996
463,54	38,019
463,74	39,132
463,94	33,695
464,14	35,002
464,35	32,947
464,55	36,803
464,75	34,284
464,95	37,031
465,16	32,994
465,36	38,199
465,56	33,992
465,76	32,916
465,96	35,964
466,17	37,709
466,37	32,867
466,57	35,132
466,77	37,322
466,97	32,427
467,18	37,200
467,38	37,513
467,58	37,150
467,78	36,956
467,98	37,495
468,19	37,890
468,39	38,531
468,59	42,290
468,79	39,246
468,99	34,894
469,19	37,716
469,40	39,612
469,60	38,728
469,80	38,241
470,00	34,628
470,20	36,909
470,41	39,210
470,61	39,305
470,81	36,609
471,01	31,987
471,21	35,681
471,41	34,995
471,62	36,389
471,82	36,964
472,02	35,445
472,22	37,315
472,42	38,807
472,62	40,430
472,83	40,483
473,03	40,960
473,23	35,635
473,43	42,048
473,63	37,499
473,83	38,842
474,03	39,601
474,24	40,982
474,44	38,759
474,64	36,312
474,84	38,746
475,04	42,686
475,24	34,762
475,45	34,834
475,65	39,479
475,85	37,715
476,05	40,941
476,25	38,958
476,45	37,987
476,65	43,820
476,85	37,088
477,06	36,731
477,26	39,191
477,46	38,940
477,66	37,402
477,86	37,594
478,06	40,242
478,26	40,981
478,46	40,581
478,67	41,384
478,87	40,577
479,07	40,854
479,27	42,385
479,47	39,232
479,67	39,810
479,87	38,948
480,07	41,103
480,28	40,492
480,48	39,262
480,68	40,339
480,88	38,341
481,08	40,911
481,28	45,163
481,48	40,150
481,68	38,695
481,88	39,719
482,08	36,454
482,29	44,425
482,49	38,961
482,69	41,649
482,89	41,442
483,09	43,163
483,29	40,185
483,49	40,584
483,69	40,808
483,89	41,860
484,09	39,420
484,29	38,341
484,50	38,990
484,70	37,200
484,90	39,764
485,10	40,821
485,30	39,696
485,50	38,360
485,70	40,580
485,90	40,897
486,10	40,718
486,30	39,343
486,50	41,487
486,70	40,141
486,90	40,719
487,10	41,475
487,30	40,063
487,51	40,594
487,71	37,754
487,91	40,645
488,11	40,531
488,31	37,919
488,51	42,801
488,71	39,088
488,91	43,113
489,11	37,892
489,31	43,659
489,51	40,703
489,71	41,864
489,91	40,378
490,11	39,342
490,31	42,273
490,51	41,131
490,71	41,135
490,91	39,572
491,11	40,587
491,31	42,011
491,51	40,666
491,72	41,163
491,92	43,998
492,12	42,150
492,32	42,447
492,52	45,824
492,72	42,290
492,92	42,576
493,12	43,979
493,32	40,523
493,52	42,658
493,72	39,696
493,92	42,707
494,12	44,274
494,32	42,316
494,52	40,517
494,72	43,830
494,92	43,113
495,12	40,320
495,32	44,717
495,52	41,904
495,72	44,609
495,92	46,817
496,12	43,395
496,32	41,729
496,52	43,122
496,72	41,905
496,92	44,645
497,12	44,207
497,32	47,329
497,52	45,353
497,72	45,663
497,92	45,204
498,12	43,098
498,32	43,332
498,52	45,032
498,72	42,345
498,92	43,427
499,12	47,142
499,32	42,872
499,52	45,713
499,72	45,414
499,92	45,314
500,12	46,935
500,32	46,709
500,52	43,969
500,72	46,714
500,91	46,379
501,11	45,500
501,31	43,277
501,51	43,005
501,71	48,608
501,91	48,212
502,11	44,996
502,31	44,268
502,51	46,285
502,71	45,360
502,91	46,590
503,11	44,705
503,31	46,619
503,51	46,455
503,71	47,531
503,91	47,645
504,11	46,245
504,31	46,702
504,51	48,070
504,71	44,174
504,91	45,971
505,10	47,407
505,30	46,770
505,50	45,403
505,70	47,082
505,90	46,328
506,10	45,310
506,30	46,207
506,50	48,554
506,70	48,607
506,90	46,751
507,10	48,570
507,30	45,869
507,50	48,245
507,70	48,361
507,89	45,681
508,09	44,299
508,29	47,804
508,49	49,394
508,69	47,864
508,89	45,862
509,09	47,980
509,29	46,769
509,49	46,811
509,69	48,444
509,89	48,018
510,09	45,456
510,28	46,612
510,48	46,447
510,68	48,622
510,88	45,487
511,08	45,881
511,28	46,374
511,48	47,951
511,68	48,317
511,88	45,655
512,07	47,429
512,27	47,249
512,47	47,194
512,67	46,976
512,87	46,381
513,07	47,588
513,27	46,240
513,47	45,868
513,67	46,027
513,86	46,999
514,06	47,078
514,26	48,251
514,46	48,625
514,66	45,428
514,86	48,937
515,06	45,758
515,26	50,832
515,45	48,328
515,65	44,025
515,85	44,141
516,05	47,982
516,25	47,962
516,45	49,353
516,65	47,844
516,84	47,103
517,04	47,882
517,24	47,972
517,44	46,654
517,64	46,655
517,84	45,665
518,04	44,956
518,23	48,418
518,43	48,366
518,63	46,097
518,83	46,598
519,03	48,585
519,23	47,876
519,42	46,276
519,62	48,116
519,82	48,708
520,02	45,880
520,22	46,512
520,42	47,199
520,61	44,668
520,81	48,506
521,01	50,246
521,21	44,029
521,41	48,433
521,61	49,591
521,80	44,972
522,00	49,504
522,20	47,327
522,40	48,557
522,60	49,436
522,79	46,745
522,99	46,493
523,19	45,108
523,39	47,687
523,59	48,025
523,78	47,701
523,98	47,387
524,18	46,967
524,38	45,817
524,58	48,500
524,77	46,035
524,97	48,754
525,17	48,012
525,37	46,662
525,57	48,537
525,76	46,583
525,96	49,270
526,16	45,019
526,36	45,028
526,56	45,595
526,75	45,507
526,95	48,919
527,15	47,234
527,35	48,539
527,55	49,776
527,74	48,224
527,94	46,980
528,14	46,538
528,34	46,235
528,53	46,025
528,73	43,779
528,93	47,208
529,13	46,431
529,32	46,719
529,52	49,410
529,72	46,105
529,92	45,745
530,12	49,226
530,31	46,784
530,51	46,665
530,71	50,305
530,91	46,597
531,10	44,859
531,30	48,422
531,50	46,077
531,70	48,298
531,89	47,502
532,09	46,709
532,29	43,395
532,49	45,951
532,68	47,606
532,88	47,278
533,08	44,764
533,28	45,988
533,47	46,137
533,67	45,648
533,87	46,485
534,06	51,224
534,26	45,859
534,46	46,156
534,66	45,819
534,85	47,792
535,05	43,656
535,25	45,908
535,45	46,738
535,64	46,703
535,84	46,193
536,04	44,693
536,23	47,714
536,43	47,725
536,63	44,675
536,83	46,370
537,02	45,753
537,22	44,329
537,42	43,995
537,61	43,391
537,81	44,858
538,01	48,436
538,20	45,057
538,40	43,080
538,60	44,692
538,80	42,082
538,99	43,386
539,19	42,841
539,39	43,166
539,58	40,331
539,78	38,673
539,98	40,259
540,17	41,963
540,37	38,764
540,57	37,988
540,76	38,996
540,96	37,340
541,16	39,485
541,36	34,921
541,55	34,012
541,75	35,893
541,95	36,756
542,14	36,144
542,34	34,432
542,54	35,982
542,73	33,713
542,93	36,600
543,13	34,934
543,32	36,672
543,52	33,702
543,72	34,879
543,91	35,243
544,11	35,858
544,31	36,008
544,50	36,378
544,70	37,094
544,89	37,054
545,09	35,661
545,29	37,332
545,48	36,746
545,68	37,070
545,88	35,725
546,07	37,571
546,27	36,491
546,47	38,068
546,66	39,254
546,86	41,494
547,06	38,329
547,25	39,142
547,45	42,329
547,64	41,420
547,84	42,926
548,04	41,034
548,23	43,679
548,43	41,954
548,63	45,185
548,82	43,007
549,02	41,736
549,21	42,063
549,41	43,970
549,61	42,383
549,80	43,334
550,00	43,305
550,20	41,759
550,39	44,595
550,59	42,116
550,78	43,985
550,98	41,546
551,18	45,465
551,37	42,926
551,57	43,964
551,76	41,440
551,96	42,880
552,16	42,120
552,35	43,484
552,55	46,416
552,74	44,407
552,94	44,177
553,14	44,100
553,33	44,670
553,53	45,421
553,72	43,610
553,92	44,245
554,12	45,181
554,31	45,739
554,51	46,919
554,70	44,462
554,90	46,842
555,09	46,678
555,29	47,981
555,49	45,038
555,68	45,584
555,88	45,792
556,07	45,256
556,27	47,012
556,46	44,788
556,66	44,062
556,86	47,348
557,05	46,229
557,25	47,650
557,44	45,064
557,64	46,027
557,83	47,246
558,03	45,602
558,22	45,949
558,42	44,871
558,62	48,910
558,81	47,511
559,01	44,134
559,20	47,510
559,40	45,226
559,59	44,287
559,79	46,280
559,98	45,875
560,18	45,870
560,37	45,769
560,57	48,167
560,76	44,817
560,96	46,625
561,16	47,326
561,35	46,750
561,55	50,590
561,74	47,161
561,94	47,158
562,13	46,655
562,33	47,305
562,52	45,912
562,72	45,520
562,91	44,994
563,11	45,937
563,30	48,232
563,50	44,448
563,69	45,255
563,89	45,263
564,08	44,846
564,28	44,653
564,47	44,866
564,67	44,485
564,86	45,091
565,06	45,237
565,25	44,589
565,45	44,067
565,64	46,026
565,84	47,109
566,03	47,415
566,23	46,261
566,42	46,897
566,62	45,294
566,81	45,571
567,01	46,312
567,20	48,391
567,40	44,651
567,59	45,852
567,79	45,320
567,98	47,476
568,18	45,846
568,37	48,836
568,57	45,650
568,76	48,225
568,96	46,653
569,15	45,195
569,35	49,014
569,54	47,848
569,73	47,767
569,93	45,638
570,12	48,431
570,32	46,760
570,51	46,367
570,71	47,686
570,90	45,825
571,10	47,144
571,29	46,334
571,49	47,537
571,68	47,106
571,87	46,740
572,07	47,655
572,26	46,442
572,46	46,883
572,65	46,163
572,85	44,729
573,04	45,840
573,24	45,716
573,43	48,251
573,62	47,564
573,82	45,919
574,01	45,891
574,21	47,166
574,40	45,691
574,60	47,067
574,79	46,826
574,98	46,180
575,18	46,514
575,37	46,371
575,57	45,761
575,76	45,744
575,96	46,092
576,15	46,456
576,34	47,099
576,54	47,412
576,73	47,913
576,93	45,643
577,12	45,643
577,31	46,762
577,51	45,604
577,70	44,439
577,90	45,507
578,09	45,681
578,28	46,726
578,48	45,002
578,67	46,162
578,87	46,657
579,06	44,930
579,25	45,922
579,45	46,366
579,64	45,544
579,84	44,464
580,03	44,739
580,22	45,584
580,42	44,476
580,61	44,951
580,81	46,365
581,00	46,714
581,19	45,717
581,39	45,015
581,58	45,185
581,77	45,632
581,97	47,144
582,16	44,127
582,35	44,351
582,55	44,944
582,74	45,507
582,94	45,089
583,13	43,045
583,32	44,130
583,52	44,485
583,71	45,289
583,90	46,847
584,10	44,461
584,29	46,116
584,48	45,104
584,68	43,896
584,87	43,759
585,06	44,267
585,26	44,170
585,45	43,135
585,65	45,690
585,84	43,701
586,03	44,381
586,23	44,067
586,42	44,785
586,61	44,448
586,81	44,469
587,00	45,431
587,19	43,514
587,39	45,644
587,58	43,534
587,77	44,466
587,97	43,169
588,16	44,364
588,35	45,227
588,54	46,810
588,74	43,004
588,93	43,159
589,12	44,008
589,32	43,238
589,51	44,984
589,70	44,820
589,90	44,084
590,09	46,558
590,28	46,458
590,48	43,004
590,67	43,718
590,86	42,682
591,06	43,716
591,25	45,320
591,44	46,373
591,63	42,871
591,83	44,483
592,02	44,749
592,21	44,457
592,41	44,148
592,60	44,983
592,79	44,087
592,98	44,505
593,18	46,106
593,37	42,359
593,56	46,124
593,76	44,535
593,95	45,760
594,14	44,076
594,33	47,705
594,53	44,206
594,72	45,456
594,91	46,840
595,10	44,479
595,30	44,452
595,49	44,943
595,68	47,087
595,88	44,640
596,07	45,915
596,26	44,622
596,45	44,770
596,65	43,032
596,84	44,319
597,03	45,709
597,22	46,833
597,42	46,506
597,61	45,759
597,80	46,341
597,99	45,685
598,19	44,226
598,38	45,893
598,57	44,851
598,76	44,801
598,95	45,241
599,15	45,294
599,34	45,882
599,53	46,281
599,72	47,851
599,92	46,564
600,11	45,004
600,30	44,396
600,49	44,836
600,69	45,823
600,88	46,065
601,07	45,034
601,26	45,618
601,45	44,351
601,65	44,221
601,84	44,884
602,03	47,413
602,22	46,836
602,42	45,341
602,61	44,465
602,80	44,912
602,99	45,734
603,18	43,991
603,38	43,738
603,57	45,493
603,76	42,770
603,95	45,131
604,14	46,629
604,34	45,554
604,53	44,558
604,72	44,861
604,91	44,341
605,10	45,380
605,29	45,713
605,49	45,020
605,68	45,269
605,87	45,804
606,06	45,210
606,25	44,031
606,45	45,184
606,64	45,335
606,83	44,832
607,02	42,847
607,21	44,103
607,40	45,435
607,60	42,878
607,79	43,833
607,98	41,950
608,17	42,219
608,36	41,316
608,55	42,209
608,75	41,792
608,94	39,969
609,13	40,264
609,32	38,282
609,51	37,604
609,70	39,220
609,89	39,729
610,09	38,112
610,28	40,038
610,47	39,152
610,66	38,461
610,85	36,060
611,04	39,256
611,23	39,357
611,43	38,961
611,62	37,568
611,81	38,443
612,00	37,944
612,19	36,405
612,38	39,322
612,57	38,422
612,77	38,891
612,96	40,358
613,15	39,803
613,34	40,805
613,53	41,447
613,72	43,314
613,91	43,027
614,10	40,558
614,29	42,377
614,49	42,038
614,68	41,762
614,87	41,784
615,06	44,482
615,25	42,554
615,44	42,350
615,63	42,858
615,82	41,966
616,01	42,844
616,21	42,765
616,40	42,135
616,59	43,967
616,78	42,626
616,97	44,606
617,16	42,708
617,35	42,858
617,54	44,320
617,73	43,601
617,92	42,734
618,11	43,875
618,31	41,945
618,50	44,441
618,69	42,460
618,88	42,500
619,07	42,564
619,26	41,094
619,45	42,549
619,64	42,419
619,83	41,470
620,02	42,713
620,21	43,419
620,40	42,547
620,59	40,904
620,78	43,353
620,97	44,142
621,17	42,672
621,36	43,200
621,55	41,833
621,74	41,711
621,93	43,261
622,12	42,328
622,31	43,066
622,50	41,607
622,69	42,075
622,88	41,563
623,07	42,719
623,26	43,589
623,45	43,762
623,64	42,190
623,83	41,463
624,02	44,419
624,21	42,748
624,40	42,393
624,59	42,396
624,78	43,409
624,97	42,626
625,16	42,884
625,35	41,193
625,54	43,173
625,73	42,202
625,92	42,417
626,12	42,562
626,31	44,607
626,50	43,049
626,69	44,209
626,88	42,522
627,07	42,333
627,26	43,256
627,45	40,611
627,64	43,697
627,83	42,796
628,02	43,230
628,21	42,170
628,40	43,559
628,59	42,547
628,78	42,435
628,97	42,257
629,16	41,531
629,35	40,861
629,54	42,163
629,73	42,353
629,92	39,978
630,10	41,275
630,29	41,140
630,48	41,205
630,67	43,363
630,86	42,507
631,05	44,476
631,24	42,961
631,43	39,322
631,62	41,877
631,81	41,534
632,00	42,049
632,19	41,711
632,38	42,872
632,57	43,794
632,76	43,270
632,95	44,333
633,14	42,169
633,33	42,170
633,52	43,780
633,71	43,012
633,90	40,688
634,09	43,441
634,28	43,807
634,47	43,240
634,66	43,386
634,85	42,264
635,04	44,899
635,22	42,355
635,41	41,997
635,60	42,798
635,79	43,829
635,98	41,445
636,17	41,381
636,36	43,577
636,55	42,858
636,74	41,697
636,93	41,776
637,12	43,686
637,31	41,946
637,50	42,391
637,69	43,506
637,87	42,881
638,06	44,831
638,25	43,428
638,44	43,439
638,63	41,710
638,82	44,288
639,01	43,583
639,20	44,063
639,39	43,894
639,58	42,547
639,77	43,275
639,95	42,007
640,14	43,656
640,33	41,691
640,52	42,824
640,71	42,942
640,90	42,782
641,09	43,667
641,28	42,529
641,47	43,958
641,66	42,228
641,84	42,813
642,03	42,368
642,22	43,833
642,41	42,961
642,60	43,211
642,79	42,996
642,98	42,128
643,17	41,088
643,35	41,645
643,54	42,944
643,73	43,707
643,92	42,973
644,11	41,660
644,30	41,878
644,49	43,459
644,67	41,688
644,86	41,520
645,05	44,120
645,24	42,477
645,43	43,667
645,62	43,583
645,81	43,249
645,99	45,539
646,18	42,732
646,37	41,881
646,56	43,127
646,75	43,779
646,94	43,229
647,13	45,083
647,31	42,289
647,50	41,569
647,69	42,767
647,88	42,383
648,07	42,968
648,26	46,045
648,44	42,323
648,63	41,353
648,82	43,258
649,01	42,604
649,20	41,724
649,38	41,984
649,57	42,545
649,76	41,279
649,95	42,503
650,14	41,575
650,33	43,158
650,51	40,866
650,70	43,113
650,89	42,545
651,08	42,489
651,27	42,602
651,45	41,461
651,64	41,756
651,83	42,154
652,02	41,380
652,21	43,134
652,39	42,028
652,58	43,789
652,77	42,350
652,96	44,311
653,15	43,543
653,33	42,669
653,52	43,574
653,71	44,570
653,90	43,408
654,09	45,526
654,27	43,818
654,46	44,796
654,65	44,343
654,84	45,144
655,02	45,486
655,21	44,846
655,40	44,678
655,59	45,153
655,77	43,952
655,96	43,866
656,15	43,709
656,34	44,623
656,53	43,435
656,71	43,892
656,90	43,991
657,09	44,334
657,28	43,218
657,46	43,809
657,65	45,435
657,84	42,797
658,03	43,897
658,21	43,517
658,40	44,412
658,59	42,489
658,78	44,535
658,96	43,015
659,15	43,838
659,34	43,000
659,52	41,848
659,71	43,550
659,90	42,485
660,09	43,146
660,27	42,387
660,46	41,594
660,65	41,614
660,84	42,688
661,02	42,098
661,21	41,970
661,40	43,051
661,58	42,814
661,77	43,367
661,96	39,886
662,15	42,364
662,33	41,647
662,52	41,538
662,71	42,683
662,89	41,224
663,08	41,405
663,27	42,597
663,45	42,031
663,64	43,789
663,83	39,672
664,02	43,168
664,20	40,318
664,39	39,725
664,58	42,235
664,76	42,409
664,95	41,880
665,14	42,390
665,32	41,386
665,51	43,926
665,70	40,825
665,88	42,399
666,07	42,092
666,26	42,173
666,44	43,210
666,63	43,148
666,82	42,041
667,00	42,932
667,19	42,605
667,38	42,403
667,56	43,430
667,75	41,679
667,94	41,600
668,12	40,388
668,31	42,092
668,50	42,072
668,68	42,103
668,87	42,192
669,06	42,022
669,24	43,334
669,43	41,247
669,62	40,973
669,80	41,250
669,99	41,272
670,18	42,680
670,36	42,157
670,55	42,327
670,74	41,719
670,92	40,973
671,11	42,353
671,29	42,286
671,48	42,199
671,67	41,051
671,85	43,823
672,04	41,420
672,23	40,695
672,41	42,376
672,60	43,586
672,78	41,310
672,97	41,085
673,16	41,217
673,34	41,981
673,53	42,430
673,71	41,841
673,90	42,568
674,09	42,164
674,27	41,444
674,46	41,665
674,64	42,650
674,83	42,075
675,02	39,149
675,20	40,718
675,39	42,569
675,57	42,531
675,76	41,275
675,95	44,017
676,13	41,096
676,32	42,259
676,50	42,664
676,69	41,414
676,88	41,664
677,06	41,190
677,25	41,840
677,43	43,149
677,62	41,276
677,80	42,977
677,99	42,471
678,18	40,688
678,36	42,374
678,55	40,961
678,73	42,014
678,92	41,499
679,10	40,964
679,29	42,260
679,48	40,344
679,66	40,855
679,85	40,577
680,03	42,337
680,22	43,206
680,40	41,082
680,59	41,491
680,77	41,856
680,96	41,318
681,15	39,792
681,33	41,658
681,52	42,350
681,70	41,080
681,89	42,581
682,07	42,721
682,26	40,895
682,44	41,790
682,63	42,607
682,81	40,875
683,00	40,996
683,18	42,243
683,37	42,918
683,55	41,210
683,74	41,324
683,92	43,434
684,11	42,528
684,29	43,480
684,48	39,757
684,67	42,053
684,85	41,774
685,04	42,785
685,22	43,325
685,41	43,118
685,59	42,816
685,78	42,197
685,96	40,654
686,15	42,817
686,33	41,930
686,52	41,144
686,70	41,046
686,89	43,351
687,07	42,460
687,26	43,711
687,44	42,175
687,62	41,642
687,81	42,077
687,99	40,646
688,18	42,892
688,36	42,706
688,55	41,690
688,73	42,719
688,92	42,621
689,10	40,239
689,29	40,870
689,47	43,747
689,66	42,689
689,84	42,523
690,03	43,762
690,21	40,127
690,40	42,602
690,58	41,465
690,76	40,356
690,95	44,748
691,13	41,991
691,32	41,807
691,50	42,124
691,69	42,298
691,87	42,036
692,06	40,740
692,24	40,548
692,43	40,690
692,61	39,577
692,79	41,753
692,98	41,204
693,16	41,240
693,35	41,699
693,53	41,966
693,72	42,048
693,90	41,278
694,08	40,552
694,27	40,525
694,45	42,177
694,64	41,904
694,82	43,186
695,01	41,224
695,19	42,654
695,37	42,123
695,56	42,424
695,74	41,164
695,93	43,587
696,11	41,448
696,29	41,413
696,48	41,435
696,66	43,528
696,85	41,875
697,03	40,414
697,21	41,867
697,40	40,154
697,58	42,396
697,77	39,974
697,95	43,772
698,13	44,432
698,32	42,423
698,50	42,053
698,69	39,693
698,87	42,714
699,05	39,392
699,24	41,328
699,42	42,344
699,60	40,398
699,79	40,597
699,97	40,899
700,16	39,917
700,34	43,194
700,52	40,467
700,71	41,700
700,89	41,212
701,07	42,082
701,26	41,842
701,44	41,409
701,63	41,162
701,81	41,528
701,99	40,734
702,18	41,417
702,36	39,482
702,54	40,533
702,73	41,631
702,91	41,348
703,09	41,201
703,28	40,676
703,46	41,941
703,64	43,191
703,83	41,189
704,01	41,198
704,19	42,104
704,38	39,995
704,56	39,573
704,74	41,414
704,93	41,328
705,11	41,610
705,29	39,476
705,48	42,898
705,66	42,052
705,84	40,521
706,03	39,886
706,21	41,610
706,39	40,803
706,58	39,776
706,76	39,740
706,94	42,379
707,12	42,284
707,31	42,352
707,49	40,983
707,67	41,194
707,86	41,648
708,04	41,406
708,22	41,560
708,41	41,432
708,59	41,768
708,77	39,817
708,95	43,600
709,14	42,854
709,32	42,105
709,50	41,314
709,69	38,729
709,87	41,690
710,05	42,688
710,23	40,556
710,42	38,934
710,60	40,479
710,78	41,934
710,97	39,667
711,15	40,769
711,33	42,658
711,51	40,178
711,70	40,774
711,88	40,104
712,06	41,883
712,24	41,158
712,43	40,709
712,61	39,892
712,79	39,708
712,97	41,051
713,16	41,734
713,34	40,717
713,52	41,425
713,70	41,567
713,89	40,242
714,07	41,507
714,25	40,497
714,43	40,704
714,62	41,175
714,80	41,195
714,98	40,063
715,16	41,053
715,35	40,586
715,53	41,364
715,71	40,340
715,89	40,828
716,07	41,422
716,26	41,382
716,44	41,657
716,62	40,136
716,80	41,216
716,99	41,862
717,17	42,118
717,35	42,130
717,53	41,613
717,71	40,430
717,90	42,039
718,08	40,359
718,26	40,716
718,44	41,760
718,62	40,688
718,81	40,236
718,99	41,431
719,17	40,226
719,35	42,254
719,53	41,445
719,72	41,495
719,90	42,099
720,08	39,885
720,26	39,797
720,44	40,211
720,62	39,753
720,81	41,708
720,99	42,523
721,17	39,797
721,35	42,282
721,53	41,548
721,72	43,317
721,90	42,930
722,08	41,123
722,26	42,064
722,44	40,843
722,62	41,370
722,81	40,988
722,99	40,214
723,17	41,098
723,35	41,909
723,53	42,753
723,71	43,476
723,89	41,615
724,08	41,528
724,26	40,182
724,44	41,355
724,62	41,737
724,80	39,806
724,98	40,901
725,16	41,147
725,35	40,407
725,53	39,185
725,71	40,504
725,89	40,968
726,07	39,904
726,25	43,164
726,43	42,102
726,61	40,690
726,80	40,216
726,98	39,994
727,16	40,987
727,34	41,094
727,52	42,196
727,70	38,251
727,88	40,962
728,06	42,154
728,25	38,642
728,43	40,560
728,61	39,907
728,79	40,513
728,97	40,830
729,15	40,665
729,33	43,140
729,51	40,139
729,69	40,864
729,87	40,060
730,06	40,163
730,24	41,474
730,42	41,096
730,60	39,654
730,78	41,545
730,96	39,592
731,14	40,976
731,32	41,347
731,50	40,495
731,68	40,592
731,86	40,526
732,04	40,397
732,22	41,847
732,41	41,534
732,59	40,826
732,77	41,224
732,95	41,067
733,13	40,687
733,31	41,017
733,49	41,002
733,67	42,242
733,85	41,358
734,03	42,404
734,21	41,653
734,39	39,477
734,57	42,984
734,75	41,900
734,93	39,957
735,11	40,462
735,29	40,832
735,47	41,768
735,65	42,064
735,84	42,630
736,02	42,659
736,20	43,589
736,38	42,723
736,56	39,516
736,74	38,625
736,92	42,106
737,10	41,259
737,28	40,849
737,46	41,514
737,64	40,213
737,82	39,710
738,00	43,213
738,18	40,115
738,36	41,260
738,54	39,230
738,72	40,811
738,90	40,580
739,08	42,566
739,26	37,814
739,44	41,162
739,62	40,696
739,80	40,448
739,98	42,688
740,16	39,648
740,34	39,526
740,52	43,746
740,70	40,165
740,88	39,002
741,06	40,960
741,24	41,340
741,42	41,859
741,60	39,289
741,78	41,007
741,96	39,822
742,14	40,841
742,32	39,826
742,50	40,541
742,68	42,578
742,86	40,561
743,04	39,375
743,21	40,379
743,39	41,347
743,57	41,004
743,75	39,793
743,93	37,380
744,11	38,632
744,29	41,316
744,47	40,578
744,65	39,634
744,83	39,752
745,01	41,193
745,19	41,380
745,37	40,898
745,55	41,577
745,73	40,917
745,91	40,484
746,09	39,770
746,27	39,430
746,45	39,652
746,62	40,867
746,80	41,510
746,98	40,230
747,16	39,716
747,34	39,474
747,52	39,361
747,70	40,166
747,88	40,825
748,06	40,677
748,24	39,622
748,42	41,201
748,60	39,898
748,78	40,401
748,95	40,789
749,13	40,694
749,31	39,708
749,49	42,688
749,67	40,222
749,85	41,640
750,03	39,425
750,21	41,102
750,39	41,253
750,57	43,312
750,74	41,292
750,92	39,041
751,10	42,573
751,28	40,096
751,46	39,325
751,64	43,198
751,82	40,608
752,00	40,540
752,17	41,312
752,35	40,346
752,53	38,543
752,71	40,419
752,89	41,183
753,07	40,671
753,25	42,219
753,43	40,102
753,60	43,348
753,78	39,871
753,96	41,244
754,14	41,125
754,32	40,170
754,50	41,483
754,68	41,543
754,85	41,129
755,03	42,276
755,21	40,985
755,39	42,926
755,57	40,183
755,75	40,897
755,92	39,470
756,10	42,757
756,28	42,395
756,46	40,802
756,64	40,757
756,82	40,635
756,99	40,553
757,17	41,632
757,35	40,309
757,53	40,861
757,71	42,530
757,89	40,038
758,06	41,192
758,24	39,735
758,42	40,167
758,60	42,450
758,78	41,063
758,95	41,239
759,13	40,092
759,31	39,987
759,49	38,964
759,67	40,519
759,84	41,193
760,02	41,968
760,20	42,690
760,38	40,175
760,56	43,005
760,73	43,443
760,91	42,625
761,09	41,521
761,27	40,693
761,45	41,695
761,62	41,220
761,80	40,929
761,98	41,622
762,16	39,572
762,33	40,311
762,51	42,848
762,69	39,878
762,87	39,372
763,05	42,614
763,22	39,004
763,40	42,040
763,58	39,586
763,76	43,137
763,93	43,249
764,11	42,190
764,29	39,546
764,47	41,791
764,64	40,121
764,82	41,531
765,00	40,041
765,18	39,522
765,35	41,254
765,53	40,799
765,71	39,529
765,89	39,924
766,06	40,468
766,24	40,110
766,42	42,026
766,60	42,913
766,77	40,612
766,95	41,175
767,13	39,161
767,30	41,163
767,48	39,519
767,66	40,939
767,84	40,166
768,01	40,369
768,19	41,502
768,37	41,074
768,54	39,125
768,72	43,199
768,90	41,047
769,08	40,050
769,25	42,900
769,43	37,694
769,61	39,672
769,78	42,087
769,96	42,351
770,14	41,419
770,31	41,193
770,49	41,731
770,67	40,748
770,85	39,047
771,02	41,950
771,20	40,573
771,38	42,223
771,55	40,319
771,73	43,032
771,91	40,933
772,08	41,581
772,26	42,628
772,44	40,389
772,61	38,134
772,79	39,702
772,97	40,712
773,14	38,236
773,32	39,892
773,50	39,466
773,67	40,267
773,85	42,735
774,03	41,535
774,20	42,729
774,38	39,783
774,56	37,992
774,73	41,532
774,91	39,731
775,09	39,946
775,26	40,542
775,44	41,187
775,61	40,906
775,79	40,187
775,97	40,452
776,14	40,241
776,32	39,905
776,50	39,682
776,67	38,859
776,85	40,534
777,03	40,346
777,20	41,767
777,38	38,802
777,55	41,878
777,73	39,823
777,91	38,864
778,08	40,329
778,26	42,596
778,43	39,012
778,61	39,564
778,79	40,400
778,96	38,964
779,14	41,560
779,32	41,264
779,49	43,069
779,67	40,903
779,84	40,505
780,02	40,718
780,20	38,668
780,37	39,841
780,55	41,838
780,72	41,312
780,90	41,548
781,07	39,252
781,25	42,187
781,43	41,658
781,60	39,721
781,78	41,637
781,95	41,235
782,13	41,782
782,30	41,961
782,48	40,132
782,66	39,421
782,83	38,266
783,01	41,876
783,18	40,866
783,36	41,594
783,53	42,008
783,71	40,622
783,89	41,044
784,06	42,432
784,24	41,387
784,41	40,773
784,59	40,980
784,76	41,149
784,94	40,291
785,11	38,593
785,29	41,526
785,46	39,704
785,64	41,650
785,82	41,609
785,99	41,329
786,17	41,162
786,34	41,935
786,52	38,264
786,69	42,169
786,87	39,368
787,04	40,954
787,22	41,270
787,39	39,855
787,57	41,580
787,74	41,283
787,92	41,406
788,09	40,095
788,27	37,613
788,44	42,036
788,62	41,441
788,79	41,815
788,97	42,937
789,14	42,919
789,32	41,446
789,49	41,402
789,67	42,288
789,84	43,959
790,02	41,798
790,19	40,935
790,37	42,040
790,54	42,643
790,72	43,786
790,89	44,824
791,07	42,428
791,24	41,468
791,42	37,286
791,59	42,082
791,77	40,144
791,94	39,892
792,12	40,728
792,29	40,782
792,47	42,876
792,64	42,366
792,81	40,742
792,99	41,288
793,16	41,989
793,34	41,577
793,51	41,292
793,69	43,147
793,86	40,843
794,04	39,185
794,21	44,587
794,39	41,168
794,56	41,546
794,73	40,005
794,91	42,429
795,08	40,535
795,26	41,485
795,43	39,571
795,61	42,156
795,78	44,076
795,95	42,600
796,13	43,849
796,30	42,634
796,48	41,471
796,65	41,309
796,83	44,586
797,00	42,144
797,17	37,625
797,35	45,568
797,52	41,700
797,70	43,835
797,87	38,638
798,04	37,207
798,22	40,702
798,39	40,760
798,57	41,425
798,74	40,901
798,91	41,898
799,09	38,373
799,26	42,453
799,44	43,903
799,61	40,510
799,78	42,144
799,96	39,894
800,13	42,618
800,31	40,732
800,48	43,462
800,65	43,898
800,83	40,716
801,00	44,209
801,17	41,332
801,35	41,989
801,52	41,456
801,70	43,537
801,87	39,904
802,04	45,228
802,22	42,557
802,39	39,923
802,56	44,935
802,74	43,024
802,91	41,577
803,08	41,772
803,26	40,820
803,43	43,551
803,61	41,998
803,78	41,882
803,95	42,715
804,13	45,524
804,30	41,849
804,47	43,890
804,65	42,636
804,82	43,376
804,99	42,799
805,17	42,782
805,34	43,181
805,51	44,486
805,69	41,929
805,86	42,956
806,03	42,031
806,21	43,153
806,38	38,934
806,55	45,855
806,72	42,572
806,90	39,240
807,07	43,673
807,24	42,198
807,42	43,388
807,59	40,331
807,76	38,507
807,94	40,422
808,11	40,560
808,28	40,299
808,45	45,625
808,63	44,017
808,80	40,903
808,97	43,628
809,15	39,456
809,32	46,820
809,49	43,706
809,67	39,506
809,84	42,976
810,01	44,997
810,18	43,960
810,36	42,181
810,53	44,675
810,70	40,328
810,87	42,242
811,05	40,066
811,22	45,883
811,39	40,114
811,57	43,510
811,74	48,300
811,91	38,179
812,08	43,679
812,26	43,297
812,43	40,895
812,60	44,829
812,77	39,267
812,95	42,743
813,12	42,030
813,29	36,022
813,46	42,892
813,64	43,718
813,81	39,147
813,98	41,303
814,15	48,722
814,32	43,361
814,50	45,925
814,67	44,804
814,84	44,263
815,01	47,593
815,19	40,369
815,36	38,064
815,53	47,966
815,70	43,779
815,87	41,691
816,05	43,657
816,22	42,440
816,39	48,078
816,56	44,146
816,74	44,957
816,91	42,828
817,08	48,143
817,25	41,508
817,42	43,331
817,60	48,390
817,77	38,111
817,94	45,933
818,11	42,083
818,28	45,308
818,45	43,747
818,63	41,883
818,80	40,612
818,97	44,009
819,14	48,294
819,31	50,111
819,49	47,592
819,66	45,722
819,83	39,150
820,00	39,195
820,17	43,014
820,34	44,922
820,52	43,484
820,69	45,697
820,86	41,950
821,03	43,976
821,20	38,298
821,37	44,837
821,55	42,404
821,72	42,631
821,89	43,574
822,06	43,752
822,23	40,491
822,40	45,243
822,57	42,081
822,75	47,405
822,92	43,114
823,09	42,378
823,26	39,145
823,43	45,866
823,60	46,939
823,77	46,326
823,94	43,263
824,12	47,583
824,29	44,185
824,46	40,834
824,63	46,489
824,80	44,573
824,97	45,821
825,14	46,266
825,31	48,953
825,49	41,003
825,66	42,024
825,83	47,075
826,00	41,817
826,17	46,028
826,34	43,453
826,51	40,021
826,68	45,692
826,85	42,195
827,02	43,448
827,20	40,088
827,37	44,804
827,54	39,847
827,71	46,520
827,88	45,554
828,05	51,231
828,22	40,450
828,39	44,917
828,56	47,721
828,73	42,481
828,90	48,815
829,07	47,009
829,25	46,787
829,42	45,932
829,59	44,536
829,76	47,041
829,93	43,493
830,10	43,753
830,27	40,915
830,44	48,865
830,61	46,827
830,78	46,993
830,95	44,487
831,12	45,925
831,29	43,620
831,46	47,757
831,63	44,707
831,80	48,785
831,97	44,145
832,14	46,616
832,31	51,124
832,48	42,373
832,65	52,154
832,83	45,934
833,00	47,334
833,17	42,518
833,34	43,061
833,51	45,692
833,68	50,007
833,85	51,627
834,02	42,251
834,19	45,330
834,36	46,011
834,53	40,278
834,70	45,443
834,87	44,787
835,04	41,943
835,21	44,259
835,38	40,127
835,55	43,974
835,72	47,711
835,89	43,385
836,06	48,230
836,23	43,254
836,40	45,298
836,57	44,832
836,74	54,852
836,91	49,136
837,08	49,492
837,25	47,944
837,42	42,421
837,59	41,439
837,76	47,558
837,93	44,854
838,09	46,869
838,26	44,912
838,43	49,499
838,60	44,663
838,77	40,133
838,94	49,264
839,11	53,638
839,28	53,831
839,45	44,939
839,62	45,447
839,79	47,842
839,96	46,301
840,13	49,267
840,30	48,186
840,47	45,574
840,64	42,111
840,81	51,860
840,98	40,446
841,15	52,712
841,32	45,701
841,48	57,005
841,65	47,209
841,82	46,432
841,99	45,839
842,16	40,046
842,33	52,291
842,50	51,555
842,67	42,497
842,84	45,402
843,01	37,981
843,18	46,242
843,35	47,129
843,52	43,430
843,68	50,486
843,85	41,256
844,02	46,474
844,19	41,079
844,36	50,291
844,53	53,876
844,70	53,611
844,87	45,763
845,04	48,270
845,21	39,894
845,37	48,620
845,54	39,278
845,71	39,135
845,88	44,797
846,05	41,553
846,22	48,331
846,39	40,772
846,56	55,509
846,72	37,430
846,89	45,460
847,06	59,091
847,23	41,303
847,40	48,771
847,57	41,173
847,74	35,889
847,90	48,956
848,07	62,341
848,24	48,174
848,41	47,423
848,58	50,250
848,75	45,015
848,92	42,654
849,08	51,514
849,25	53,354
849,42	46,482
849,59	47,906
849,76	52,263
849,93	41,588
850,09	49,125
850,26	44,273
850,43	63,722
850,60	47,876
850,77	49,728
850,94	51,584
851,10	45,516
851,27	49,105
851,44	41,273
851,61	43,780
851,78	52,600
851,95	50,746
852,11	53,184
852,28	43,674
852,45	43,529
852,62	44,219
852,79	54,898
852,95	44,461
853,12	49,600
853,29	45,121
853,46	46,480
853,63	45,181
853,79	47,426
853,96	43,451
854,13	61,740
854,30	56,647
854,46	57,283
854,63	58,179
854,80	45,246
854,97	37,415
855,14	41,816
855,30	42,282
855,47	37,440
855,64	51,823
855,81	43,263
855,97	52,544
856,14	50,594
856,31	43,226
856,48	45,319
856,65	70,595
856,81	49,541
856,98	41,574
857,15	48,603
857,32	48,862
857,48	52,040
857,65	51,345
857,82	42,553
857,99	46,426
858,15	46,903
858,32	52,769
858,49	52,939
858,65	48,637
858,82	52,163
858,99	47,120
859,16	51,554
859,32	56,524
859,49	39,494
859,66	36,794
859,83	53,362
859,99	49,191
860,16	45,593
860,33	48,862
860,49	39,137
860,66	48,658
860,83	48,422
861,00	58,137
861,16	44,007
861,33	45,247
861,50	46,866
861,66	58,744
861,83	55,308
862,00	52,963
862,16	56,923
862,33	57,551
862,50	62,926
862,67	53,017
862,83	63,399
863,00	53,893
863,17	60,386
863,33	47,967
863,50	48,229
863,67	37,967
863,83	42,656
864,00	62,403
864,17	57,744
864,33	53,836
864,50	66,498
864,67	50,019
864,83	40,398
865,00	43,930
865,17	44,420
865,33	60,758
865,50	35,471
865,67	48,630
865,83	46,659
866,00	55,188
866,17	56,690
866,33	58,422
866,50	76,279
866,66	53,103
866,83	47,447
867,00	56,449
867,16	55,213
867,33	39,804
867,50	19,997
867,66	39,834
867,83	64,059
868,00	50,111
868,16	60,493
868,33	42,160
868,49	55,398
868,66	44,286
868,83	57,945
868,99	52,755
869,16	41,238
869,32	48,488
869,49	53,115
869,66	57,655
869,82	76,054
869,99	59,160
870,15	69,145
870,32	60,846
870,49	72,888
870,65	80,013
870,82	49,698
870,98	65,125
871,15	71,374
871,32	32,598
871,48	57,910
871,65	48,029
871,81	58,978
871,98	37,002
872,15	42,572
872,31	56,935
872,48	62,886
872,64	47,144
872,81	34,407
872,97	58,304
873,14	55,062
873,31	69,563
873,47	61,761
873,64	33,910
873,80	58,169
873,97	53,321
874,13	43,934
874,30	47,850
874,46	49,031
874,63	22,510
874,80	33,592
874,96	55,280
875,13	90,138
875,29	63,736
875,46	57,911
875,62	40,809
875,79	58,787
875,95	74,733
876,12	53,399
876,28	40,647
876,45	56,735
876,61	40,431
876,78	47,689
876,94	80,571
877,11	25,128
877,27	25,937
877,44	64,735
877,60	38,837
877,77	62,187
877,94	105,974
878,10	89,144
878,27	48,380
878,43	69,632
878,60	16,189
878,76	46,957
878,93	20,422
879,09	72,499
879,26	70,239
879,42	25,236
879,58	68,095
879,75	67,164
879,91	60,090
880,08	19,031
880,24	43,597
880,41	76,241
880,57	63,202
880,74	46,801
880,90	42,708
881,07	25,942
881,23	10,757
881,40	47,896
881,56	76,429
881,73	74,748
881,89	38,708
882,06	67,086
882,22	119,261
882,38	73,265
882,55	50,057
882,71	40,225
882,88	65,558
883,04	58,213
883,21	154,158
883,37	24,433
883,54	39,354
883,70	85,229
883,86	56,493
884,03	74,660
884,19	35,335
884,36	-9,672
884,52	153,278
884,69	91,112
884,85	74,481
885,01	126,567
885,18	60,248
885,34	83,323
885,51	10,130
885,67	71,973
>>>>> Data<<<<< Espectral Procesado Extremo
