Fichero De Datos De SpectraSuite
++++++++++++++++++++++++++++++++++++
Fecha: Wed Apr 22 10:18:41 CEST 2009
Usuario: evoflor
Presente Oscuro Del Espectro: Sí
La Referencia de Presente Del Espectro De: Sí
Muestreados de los componentes de Número de espectros: 1
Espectrómetros: USB4F02353
Tiempo de integración (usec): 500000 (USB4F02353)
Promedio de Espectros Hechos un: 5 (USB4F02353)
El Alisar Del Furgón: 0 (USB4F02353)
Párrafo de de Corregir del la del del de Eléctrica del obscuridad: Sí (USB4F02353)
Estrobo/Lámpara Permitido: No (USB4F02353)
Correct for Detector Non-linearity: No (USB4F02353)
Párrafo de de Corregir del la del del de Externa del luz: No (USB4F02353)
Procesado del espectro de Número de pixeles en: 3648
>>>>> Comienza Data<<<<< Espectral Procesado Del EL
177,79	102,970
178,00	102,970
178,22	102,970
178,44	-311,044
178,66	15,398
178,88	27,997
179,09	293,170
179,31	136,878
179,53	65,341
179,75	304,834
179,96	-213,750
180,18	-42,785
180,40	196,194
180,62	225,477
180,83	68,616
181,05	-92,744
181,27	-7605,000
181,49	-96,750
181,70	216,173
181,92	504,594
182,14	120,497
182,36	56,013
182,58	76,950
182,79	50,022
183,01	115,830
183,23	136,803
183,45	-159,092
183,66	42,013
183,88	-691,147
184,10	-1791,000
184,32	21,052
184,53	66,915
184,75	-73,175
184,97	49,996
185,18	-76,889
185,40	-430,313
185,62	1,332
185,84	81,452
186,05	56,447
186,27	-21,584
186,49	-1438,269
186,71	-59,452
186,92	58,168
187,14	135,584
187,36	48,813
187,58	81,289
187,79	-0,616
188,01	71,569
188,23	-62,514
188,45	174,429
188,66	-162,924
188,88	647,182
189,10	-580,050
189,31	71,493
189,53	-28,823
189,75	115,466
189,97	-64,212
190,18	-36,888
190,40	235,324
190,62	146,335
190,83	42,986
191,05	53,585
191,27	227,443
191,49	212,636
191,70	-339,447
191,92	-422,924
192,14	36,408
192,35	337,679
192,57	-2174,143
192,79	83,737
193,01	28,313
193,22	-19,975
193,44	86,852
193,66	97,736
193,87	-6,842
194,09	66,153
194,31	64,385
194,53	468,566
194,74	115,331
194,96	99,495
195,18	93,217
195,39	-157,797
195,61	-4,500
195,83	-77,185
196,04	49,404
196,26	377,864
196,48	-70,081
196,70	-34,980
196,91	-6,028
197,13	-85,557
197,35	-93,415
197,56	332,833
197,78	560,485
198,00	506,329
198,21	355,850
198,43	144,157
198,65	128,341
198,86	247,500
199,08	-217,033
199,30	139,281
199,51	101,287
199,73	143,088
199,95	165,854
200,16	29,250
200,38	145,421
200,60	-12,261
200,81	12,430
201,03	-1,345
201,25	-733,050
201,46	94,346
201,68	8,864
201,90	500,114
202,11	-114,905
202,33	34,659
202,55	-321,188
202,76	72,649
202,98	-83,258
203,20	292,284
203,41	-92,132
203,63	31,539
203,85	-49005,000
204,06	-70,058
204,28	166,012
204,50	110,151
204,71	-19,956
204,93	-507,960
205,15	-31,310
205,36	30,201
205,58	140,701
205,80	-97,326
206,01	-10,352
206,23	45,200
206,45	153,121
206,66	87,813
206,88	-58,160
207,10	19,330
207,31	137,623
207,53	173,443
207,75	57,542
207,96	90,336
208,18	43,848
208,39	87,162
208,61	-219,857
208,83	-231,166
209,04	-16,478
209,26	-117,995
209,48	210,149
209,69	36,944
209,91	13,530
210,13	-9,040
210,34	-49,140
210,56	49,619
210,77	-740,197
210,99	-19,260
211,21	5370,882
211,42	71,672
211,64	31,259
211,86	55,164
212,07	66,915
212,29	38,424
212,50	45,671
212,72	-50,365
212,94	68,919
213,15	54,221
213,37	-43,332
213,58	-46,796
213,80	-1814,464
214,02	7541,471
214,23	74,644
214,45	66,246
214,67	-795,183
214,88	-34,581
215,10	34,146
215,31	61,801
215,53	-170,898
215,75	-33,730
215,96	773,944
216,18	31,056
216,39	103,206
216,61	48,046
216,83	-138,817
217,04	1056,236
217,26	140,008
217,47	122,004
217,69	105,567
217,91	-54,394
218,12	46395,000
218,34	-45,981
218,55	-323,594
218,77	40,650
218,99	118,542
219,20	-19,793
219,42	140,556
219,63	158,412
219,85	120,520
220,06	112,327
220,28	96,235
220,50	117,705
220,71	-38,340
220,93	313,302
221,14	-103,050
221,36	25,038
221,58	149,809
221,79	75,073
222,01	756,078
222,22	221,743
222,44	-379,719
222,65	30,567
222,87	260,874
223,09	97,863
223,30	10,517
223,52	-10,141
223,73	48,175
223,95	-34,923
224,16	47,227
224,38	160,912
224,60	96,194
224,81	-101,381
225,03	36,129
225,24	46,713
225,46	112,799
225,67	-16,481
225,89	38,226
226,10	136,762
226,32	204,840
226,54	34,182
226,75	-7,792
226,97	4,111
227,18	35,267
227,40	47,243
227,61	19,045
227,83	-0,318
228,04	33,946
228,26	22,165
228,47	37,337
228,69	-59,365
228,91	35,258
229,12	13,849
229,34	27,586
229,55	22,665
229,77	-5,938
229,98	-7,067
230,20	68,118
230,41	2,055
230,63	12,349
230,84	-34,990
231,06	4,600
231,27	-20,799
231,49	20,390
231,71	24,027
231,92	17,175
232,14	2,600
232,35	30,573
232,57	10,194
232,78	9,391
233,00	11,720
233,21	59,018
233,43	-5,788
233,64	10,340
233,86	18,018
234,07	-2,589
234,29	19,188
234,50	11,089
234,72	3,374
234,93	0,298
235,15	26,536
235,36	1,399
235,58	5,764
235,79	8,756
236,01	20,083
236,22	9,498
236,44	7,535
236,65	4,829
236,87	10,634
237,08	9,780
237,30	-13,197
237,51	11,202
237,73	-0,895
237,94	4,066
238,16	-4,259
238,37	-1,116
238,59	14,444
238,80	3,374
239,02	-0,887
239,23	10,518
239,45	-10,691
239,66	16,903
239,88	9,689
240,09	18,080
240,31	-1,980
240,52	6,174
240,74	4,049
240,95	1,093
241,17	1,141
241,38	12,195
241,60	14,940
241,81	15,803
242,03	12,555
242,24	8,733
242,46	15,871
242,67	1,134
242,89	11,138
243,10	11,354
243,32	4,247
243,53	3,177
243,75	5,912
243,96	3,377
244,18	3,308
244,39	2,968
244,60	2,903
244,82	4,539
245,03	9,914
245,25	0,681
245,46	8,587
245,68	7,535
245,89	10,195
246,11	9,500
246,32	8,182
246,54	5,185
246,75	1,266
246,97	1,781
247,18	14,487
247,39	2,366
247,61	2,020
247,82	7,449
248,04	7,024
248,25	6,621
248,47	8,552
248,68	6,939
248,90	5,137
249,11	1,977
249,33	8,086
249,54	5,438
249,75	8,997
249,97	2,733
250,18	6,518
250,40	10,466
250,61	1,339
250,83	3,857
251,04	-4,528
251,25	4,169
251,47	2,387
251,68	4,402
251,90	6,510
252,11	8,669
252,33	7,440
252,54	8,304
252,76	5,689
252,97	4,831
253,18	1,042
253,40	5,583
253,61	2,397
253,83	5,311
254,04	7,473
254,25	4,996
254,47	3,164
254,68	4,124
254,90	6,545
255,11	6,900
255,33	6,688
255,54	0,819
255,75	0,423
255,97	7,328
256,18	1,913
256,40	2,920
256,61	4,655
256,82	-1,629
257,04	7,156
257,25	-0,730
257,47	0,554
257,68	3,257
257,89	3,016
258,11	4,122
258,32	1,649
258,54	1,737
258,75	3,810
258,96	7,550
259,18	5,227
259,39	3,198
259,61	5,990
259,82	2,813
260,03	7,787
260,25	2,285
260,46	-1,013
260,68	1,520
260,89	2,458
261,10	4,998
261,32	2,720
261,53	5,131
261,75	3,015
261,96	-0,480
262,17	5,804
262,39	7,680
262,60	3,558
262,81	-0,023
263,03	6,988
263,24	4,608
263,46	0,223
263,67	7,554
263,88	2,184
264,10	3,127
264,31	0,309
264,52	6,414
264,74	3,874
264,95	2,369
265,17	0,413
265,38	2,762
265,59	5,156
265,81	3,874
266,02	2,527
266,23	3,278
266,45	5,721
266,66	8,231
266,87	6,447
267,09	2,365
267,30	0,352
267,52	2,448
267,73	3,042
267,94	4,032
268,16	3,226
268,37	5,694
268,58	4,173
268,80	6,211
269,01	1,509
269,22	5,540
269,44	2,707
269,65	4,270
269,86	2,451
270,08	5,950
270,29	0,963
270,50	6,328
270,72	7,093
270,93	3,458
271,14	4,144
271,36	6,033
271,57	7,257
271,78	4,016
272,00	9,981
272,21	6,778
272,42	5,136
272,64	9,348
272,85	1,923
273,06	-0,285
273,28	6,017
273,49	2,097
273,70	4,993
273,92	5,921
274,13	3,358
274,34	7,366
274,56	3,533
274,77	2,437
274,98	3,904
275,20	6,576
275,41	3,386
275,62	8,706
275,84	2,823
276,05	4,455
276,26	5,164
276,47	1,360
276,69	2,213
276,90	4,792
277,11	5,825
277,33	2,721
277,54	4,610
277,75	4,275
277,97	2,245
278,18	4,964
278,39	3,459
278,61	3,298
278,82	1,141
279,03	4,873
279,24	2,264
279,46	4,204
279,67	6,511
279,88	2,101
280,10	6,622
280,31	4,127
280,52	5,451
280,73	1,663
280,95	4,942
281,16	5,764
281,37	5,379
281,59	7,190
281,80	5,246
282,01	2,393
282,22	5,248
282,44	4,002
282,65	7,454
282,86	7,040
283,08	6,311
283,29	5,254
283,50	5,835
283,71	2,887
283,93	5,302
284,14	6,481
284,35	3,985
284,56	1,383
284,78	2,063
284,99	2,760
285,20	5,616
285,42	3,204
285,63	2,769
285,84	0,998
286,05	4,243
286,27	5,249
286,48	0,935
286,69	2,176
286,90	2,570
287,12	4,342
287,33	2,616
287,54	5,190
287,75	2,493
287,97	5,394
288,18	3,855
288,39	2,126
288,60	3,048
288,82	4,214
289,03	2,399
289,24	4,158
289,45	5,586
289,67	4,014
289,88	5,580
290,09	4,746
290,30	5,565
290,52	3,642
290,73	3,781
290,94	4,354
291,15	2,355
291,37	4,802
291,58	5,929
291,79	2,628
292,00	6,247
292,21	4,753
292,43	2,633
292,64	2,184
292,85	0,387
293,06	4,270
293,28	3,245
293,49	0,751
293,70	4,909
293,91	9,498
294,12	5,616
294,34	4,636
294,55	4,126
294,76	0,591
294,97	2,493
295,19	1,998
295,40	2,710
295,61	1,029
295,82	2,692
296,03	3,583
296,25	5,065
296,46	2,849
296,67	1,951
296,88	2,618
297,09	5,490
297,31	3,568
297,52	5,212
297,73	5,068
297,94	4,795
298,15	4,907
298,37	5,104
298,58	6,722
298,79	7,041
299,00	3,490
299,21	2,609
299,43	0,716
299,64	3,899
299,85	5,424
300,06	2,204
300,27	4,659
300,49	6,257
300,70	3,377
300,91	4,545
301,12	2,944
301,33	4,553
301,54	3,014
301,76	5,893
301,97	3,526
302,18	3,295
302,39	5,908
302,60	4,630
302,82	0,109
303,03	4,805
303,24	3,759
303,45	3,641
303,66	3,079
303,87	2,883
304,09	7,282
304,30	4,604
304,51	2,460
304,72	0,890
304,93	4,357
305,14	7,327
305,36	3,207
305,57	1,807
305,78	3,625
305,99	3,066
306,20	3,718
306,41	1,695
306,62	4,215
306,84	3,196
307,05	1,993
307,26	0,816
307,47	3,498
307,68	4,044
307,89	3,625
308,11	2,839
308,32	2,747
308,53	1,580
308,74	3,039
308,95	3,251
309,16	3,680
309,37	5,668
309,59	2,591
309,80	4,588
310,01	4,280
310,22	4,899
310,43	1,212
310,64	3,090
310,85	1,714
311,06	3,819
311,28	4,984
311,49	0,931
311,70	6,152
311,91	2,271
312,12	3,517
312,33	6,703
312,54	4,401
312,75	1,001
312,97	4,958
313,18	5,143
313,39	3,054
313,60	5,024
313,81	4,810
314,02	4,828
314,23	2,348
314,44	3,336
314,65	5,667
314,87	2,193
315,08	2,779
315,29	6,525
315,50	5,425
315,71	5,264
315,92	5,706
316,13	4,708
316,34	4,260
316,55	4,508
316,77	1,752
316,98	2,720
317,19	3,805
317,40	3,364
317,61	3,398
317,82	0,754
318,03	0,352
318,24	2,441
318,45	6,257
318,66	3,365
318,87	0,353
319,09	5,517
319,30	3,757
319,51	3,870
319,72	6,475
319,93	3,503
320,14	5,632
320,35	4,575
320,56	2,990
320,77	0,147
320,98	5,583
321,19	5,956
321,40	2,263
321,62	3,874
321,83	3,503
322,04	4,110
322,25	2,562
322,46	2,900
322,67	2,705
322,88	2,825
323,09	3,499
323,30	4,132
323,51	2,277
323,72	5,935
323,93	2,638
324,14	3,322
324,35	1,800
324,56	0,340
324,77	4,317
324,99	0,452
325,20	4,946
325,41	2,858
325,62	4,390
325,83	2,233
326,04	3,982
326,25	5,515
326,46	1,256
326,67	3,972
326,88	4,573
327,09	3,604
327,30	2,619
327,51	2,940
327,72	6,504
327,93	4,709
328,14	2,121
328,35	4,395
328,56	5,864
328,77	2,923
328,98	4,193
329,19	4,364
329,40	5,552
329,61	4,272
329,82	3,058
330,04	3,307
330,25	0,643
330,46	4,154
330,67	3,220
330,88	0,560
331,09	6,896
331,30	2,054
331,51	1,812
331,72	3,679
331,93	2,387
332,14	0,654
332,35	3,318
332,56	2,780
332,77	3,956
332,98	3,190
333,19	2,036
333,40	1,995
333,61	2,143
333,82	5,088
334,03	3,642
334,24	2,420
334,45	5,294
334,66	4,385
334,87	4,917
335,08	2,741
335,29	2,318
335,50	2,074
335,71	0,248
335,92	2,948
336,13	6,532
336,34	2,509
336,55	5,739
336,76	2,241
336,97	2,017
337,18	3,466
337,39	0,978
337,60	4,079
337,81	3,265
338,02	3,134
338,23	5,264
338,44	2,901
338,65	4,990
338,86	3,496
339,07	1,556
339,28	4,465
339,49	0,572
339,70	3,146
339,91	4,813
340,11	4,417
340,32	2,129
340,53	-0,417
340,74	3,568
340,95	0,996
341,16	6,913
341,37	5,717
341,58	3,279
341,79	3,198
342,00	4,057
342,21	4,313
342,42	4,393
342,63	-0,369
342,84	-2,054
343,05	2,561
343,26	3,881
343,47	1,735
343,68	0,605
343,89	3,412
344,10	5,563
344,31	5,813
344,52	0,542
344,73	4,031
344,94	4,506
345,14	3,018
345,35	7,158
345,56	2,167
345,77	2,790
345,98	4,594
346,19	3,687
346,40	4,167
346,61	4,638
346,82	2,660
347,03	0,857
347,24	4,191
347,45	1,469
347,66	6,990
347,87	3,180
348,08	2,051
348,28	1,182
348,49	2,981
348,70	7,365
348,91	3,103
349,12	-1,499
349,33	3,826
349,54	1,059
349,75	5,739
349,96	5,365
350,17	4,873
350,38	0,861
350,59	6,184
350,80	3,592
351,00	2,605
351,21	6,993
351,42	3,138
351,63	0,548
351,84	0,286
352,05	2,012
352,26	4,832
352,47	2,933
352,68	2,690
352,89	7,200
353,09	5,748
353,30	0,886
353,51	-0,376
353,72	2,255
353,93	4,426
354,14	-0,202
354,35	5,302
354,56	4,215
354,77	2,116
354,98	0,043
355,18	2,158
355,39	5,907
355,60	3,304
355,81	6,379
356,02	2,029
356,23	2,389
356,44	1,513
356,65	6,024
356,85	7,674
357,06	5,106
357,27	5,635
357,48	3,012
357,69	4,375
357,90	4,595
358,11	0,245
358,32	4,071
358,52	4,651
358,73	5,095
358,94	3,784
359,15	6,422
359,36	2,207
359,57	3,017
359,78	2,692
359,98	2,836
360,19	0,345
360,40	2,217
360,61	5,331
360,82	2,248
361,03	2,467
361,24	3,030
361,44	0,467
361,65	3,586
361,86	2,194
362,07	5,732
362,28	0,341
362,49	3,725
362,70	4,457
362,90	5,122
363,11	3,010
363,32	2,972
363,53	5,028
363,74	4,253
363,95	4,053
364,15	0,661
364,36	5,273
364,57	2,847
364,78	4,828
364,99	5,082
365,20	4,221
365,40	3,037
365,61	1,546
365,82	3,426
366,03	2,659
366,24	7,156
366,45	3,262
366,65	6,160
366,86	1,659
367,07	4,017
367,28	3,442
367,49	2,864
367,69	3,398
367,90	1,511
368,11	3,508
368,32	-1,276
368,53	0,368
368,73	6,199
368,94	2,024
369,15	-0,108
369,36	3,008
369,57	4,288
369,78	0,201
369,98	5,951
370,19	5,785
370,40	1,117
370,61	3,992
370,82	5,242
371,02	1,443
371,23	7,514
371,44	3,865
371,65	4,635
371,85	5,318
372,06	2,733
372,27	4,755
372,48	3,271
372,69	2,798
372,89	2,198
373,10	5,529
373,31	-1,701
373,52	4,694
373,73	4,567
373,93	3,985
374,14	0,891
374,35	5,081
374,56	6,220
374,76	3,526
374,97	1,923
375,18	2,371
375,39	1,313
375,60	1,735
375,80	6,109
376,01	2,140
376,22	6,173
376,43	3,052
376,63	2,660
376,84	1,265
377,05	6,078
377,26	3,085
377,46	3,101
377,67	3,478
377,88	4,950
378,09	4,247
378,29	-0,018
378,50	7,457
378,71	2,289
378,92	2,066
379,12	0,991
379,33	2,258
379,54	6,988
379,75	4,029
379,95	1,288
380,16	3,045
380,37	5,007
380,58	6,102
380,78	7,364
380,99	1,442
381,20	4,589
381,41	3,925
381,61	8,600
381,82	2,774
382,03	3,317
382,24	6,102
382,44	8,472
382,65	3,904
382,86	5,252
383,06	0,181
383,27	2,411
383,48	5,488
383,69	4,009
383,89	5,027
384,10	6,704
384,31	5,903
384,51	5,812
384,72	4,796
384,93	6,263
385,14	5,211
385,34	5,854
385,55	4,859
385,76	6,226
385,96	4,724
386,17	4,867
386,38	7,692
386,59	5,290
386,79	2,934
387,00	4,977
387,21	4,989
387,41	7,058
387,62	2,279
387,83	6,358
388,03	7,368
388,24	-0,851
388,45	6,432
388,66	5,362
388,86	5,787
389,07	2,350
389,28	8,392
389,48	3,581
389,69	3,577
389,90	5,292
390,10	7,112
390,31	8,851
390,52	2,106
390,72	4,419
390,93	4,158
391,14	7,283
391,34	6,485
391,55	9,466
391,76	5,854
391,96	6,638
392,17	6,856
392,38	9,028
392,58	9,390
392,79	4,780
393,00	3,320
393,20	6,671
393,41	6,002
393,62	7,614
393,82	7,118
394,03	8,293
394,24	6,716
394,44	7,102
394,65	10,370
394,86	10,263
395,06	7,357
395,27	5,268
395,48	8,042
395,68	8,787
395,89	11,271
396,10	10,252
396,30	6,823
396,51	8,018
396,72	11,490
396,92	8,180
397,13	7,417
397,34	4,979
397,54	8,996
397,75	6,387
397,95	10,706
398,16	11,033
398,37	9,792
398,57	11,967
398,78	11,602
398,99	12,323
399,19	12,634
399,40	12,041
399,60	10,652
399,81	13,086
400,02	10,022
400,22	12,990
400,43	14,092
400,64	13,864
400,84	15,367
401,05	13,188
401,25	15,924
401,46	18,395
401,67	15,165
401,87	16,245
402,08	13,596
402,29	14,866
402,49	14,938
402,70	15,696
402,90	12,672
403,11	18,870
403,32	20,891
403,52	15,993
403,73	18,012
403,93	19,222
404,14	17,550
404,35	20,352
404,55	20,058
404,76	20,407
404,96	19,335
405,17	21,247
405,38	19,515
405,58	16,462
405,79	22,740
405,99	21,732
406,20	18,661
406,40	18,974
406,61	23,945
406,82	19,770
407,02	23,206
407,23	21,034
407,43	23,497
407,64	23,823
407,85	21,855
408,05	20,705
408,26	25,051
408,46	24,575
408,67	24,535
408,87	24,572
409,08	27,456
409,29	25,501
409,49	27,229
409,70	25,972
409,90	28,578
410,11	27,461
410,31	26,771
410,52	27,293
410,72	28,537
410,93	30,430
411,14	25,017
411,34	26,586
411,55	28,155
411,75	32,074
411,96	26,070
412,16	31,655
412,37	30,592
412,57	33,975
412,78	27,930
412,99	28,022
413,19	33,215
413,40	33,759
413,60	31,956
413,81	31,978
414,01	33,151
414,22	32,050
414,42	31,312
414,63	32,219
414,83	34,322
415,04	34,226
415,24	36,506
415,45	37,755
415,65	34,831
415,86	29,984
416,07	33,565
416,27	36,348
416,48	36,575
416,68	36,453
416,89	35,428
417,09	38,061
417,30	39,026
417,50	37,642
417,71	38,631
417,91	39,688
418,12	34,182
418,32	38,011
418,53	37,181
418,73	35,323
418,94	38,326
419,14	37,002
419,35	35,079
419,55	41,690
419,76	39,082
419,96	38,681
420,17	36,801
420,37	40,500
420,58	41,991
420,78	40,469
420,99	38,773
421,19	45,993
421,40	39,313
421,60	42,212
421,81	40,836
422,01	46,261
422,22	40,591
422,42	41,120
422,63	43,031
422,83	39,417
423,04	41,707
423,24	43,696
423,45	42,409
423,65	45,447
423,86	44,490
424,06	39,675
424,27	41,928
424,47	43,270
424,67	43,936
424,88	41,047
425,08	44,599
425,29	48,124
425,49	43,580
425,70	40,621
425,90	43,966
426,11	44,050
426,31	46,216
426,52	44,526
426,72	42,627
426,93	40,709
427,13	44,500
427,33	45,793
427,54	47,727
427,74	49,683
427,95	49,654
428,15	40,760
428,36	48,185
428,56	41,776
428,77	44,284
428,97	44,627
429,18	48,698
429,38	44,849
429,58	47,669
429,79	46,315
429,99	46,371
430,20	44,182
430,40	48,457
430,61	43,041
430,81	44,112
431,01	49,966
431,22	45,703
431,42	47,834
431,63	44,670
431,83	47,025
432,04	47,792
432,24	49,175
432,44	46,889
432,65	46,531
432,85	46,475
433,06	47,099
433,26	47,027
433,47	43,684
433,67	41,935
433,87	44,530
434,08	42,275
434,28	40,916
434,49	47,994
434,69	44,811
434,89	40,264
435,10	44,740
435,30	49,465
435,51	42,515
435,71	45,240
435,91	46,298
436,12	43,263
436,32	44,995
436,53	44,292
436,73	48,953
436,93	46,670
437,14	47,545
437,34	46,948
437,55	46,529
437,75	46,747
437,95	51,454
438,16	51,051
438,36	49,013
438,57	48,670
438,77	48,237
438,97	50,999
439,18	52,124
439,38	48,371
439,58	51,383
439,79	46,529
439,99	51,083
440,20	48,609
440,40	48,800
440,60	50,196
440,81	53,271
441,01	48,664
441,21	52,141
441,42	51,698
441,62	53,239
441,83	52,271
442,03	52,643
442,23	49,874
442,44	47,339
442,64	49,321
442,84	47,962
443,05	45,733
443,25	49,040
443,45	50,314
443,66	47,380
443,86	49,638
444,06	48,794
444,27	50,124
444,47	50,336
444,67	50,114
444,88	49,480
445,08	50,416
445,28	54,962
445,49	48,430
445,69	46,824
445,90	49,409
446,10	48,435
446,30	52,480
446,51	52,775
446,71	50,569
446,91	53,277
447,12	50,313
447,32	50,090
447,52	51,689
447,72	51,835
447,93	53,378
448,13	46,756
448,33	52,228
448,54	49,942
448,74	48,152
448,94	53,294
449,15	49,675
449,35	49,463
449,55	49,608
449,76	54,831
449,96	50,768
450,16	51,070
450,37	49,208
450,57	51,213
450,77	48,212
450,98	50,288
451,18	51,711
451,38	47,105
451,58	49,831
451,79	53,118
451,99	50,076
452,19	49,752
452,40	50,964
452,60	52,741
452,80	49,436
453,00	50,533
453,21	49,894
453,41	49,591
453,61	52,386
453,82	48,747
454,02	46,404
454,22	51,883
454,42	51,851
454,63	52,210
454,83	49,731
455,03	49,634
455,24	51,722
455,44	51,055
455,64	49,981
455,84	47,677
456,05	47,038
456,25	49,898
456,45	50,571
456,65	54,230
456,86	55,078
457,06	48,731
457,26	58,612
457,47	55,500
457,67	52,631
457,87	47,436
458,07	48,543
458,28	53,857
458,48	53,153
458,68	50,948
458,88	52,096
459,09	53,045
459,29	51,915
459,49	52,496
459,69	47,347
459,90	52,667
460,10	52,123
460,30	56,059
460,50	45,933
460,71	52,646
460,91	45,964
461,11	52,264
461,31	44,939
461,52	49,693
461,72	53,975
461,92	52,436
462,12	56,671
462,32	50,288
462,53	48,651
462,73	50,063
462,93	54,518
463,13	48,088
463,34	51,643
463,54	48,951
463,74	48,216
463,94	47,691
464,14	54,647
464,35	47,244
464,55	54,304
464,75	52,716
464,95	54,065
465,16	49,176
465,36	53,935
465,56	49,063
465,76	52,355
465,96	50,548
466,17	51,374
466,37	47,322
466,57	52,545
466,77	50,564
466,97	46,426
467,18	52,322
467,38	49,645
467,58	50,205
467,78	50,254
467,98	56,112
468,19	51,981
468,39	52,878
468,59	53,621
468,79	53,904
468,99	45,934
469,19	49,908
469,40	51,668
469,60	51,444
469,80	52,809
470,00	51,684
470,20	54,252
470,41	49,781
470,61	50,449
470,81	50,334
471,01	50,129
471,21	49,025
471,41	51,565
471,62	55,177
471,82	54,250
472,02	53,988
472,22	53,435
472,42	52,075
472,62	49,050
472,83	55,623
473,03	49,760
473,23	51,163
473,43	55,355
473,63	51,159
473,83	51,627
474,03	51,016
474,24	58,115
474,44	50,936
474,64	55,765
474,84	52,118
475,04	50,587
475,24	49,904
475,45	54,031
475,65	50,515
475,85	53,523
476,05	50,280
476,25	50,000
476,45	52,011
476,65	54,262
476,85	50,755
477,06	51,492
477,26	52,619
477,46	52,558
477,66	52,264
477,86	50,550
478,06	51,909
478,26	54,444
478,46	50,810
478,67	52,551
478,87	50,506
479,07	51,725
479,27	53,045
479,47	52,661
479,67	51,139
479,87	47,011
480,07	49,536
480,28	52,793
480,48	48,002
480,68	48,427
480,88	53,176
481,08	49,645
481,28	51,477
481,48	49,959
481,68	49,376
481,88	50,651
482,08	49,270
482,29	54,096
482,49	48,273
482,69	52,130
482,89	51,945
483,09	48,874
483,29	50,593
483,49	51,712
483,69	49,065
483,89	48,774
484,09	50,371
484,29	48,133
484,50	48,999
484,70	50,818
484,90	49,140
485,10	48,366
485,30	48,897
485,50	48,630
485,70	49,114
485,90	49,130
486,10	45,989
486,30	48,632
486,50	49,167
486,70	48,085
486,90	50,192
487,10	49,989
487,30	50,539
487,51	50,244
487,71	47,458
487,91	48,001
488,11	49,199
488,31	46,940
488,51	49,467
488,71	48,371
488,91	50,394
489,11	47,633
489,31	50,184
489,51	46,018
489,71	49,202
489,91	47,168
490,11	47,119
490,31	47,263
490,51	47,725
490,71	48,897
490,91	48,347
491,11	49,014
491,31	47,432
491,51	47,562
491,72	48,777
491,92	49,129
492,12	50,278
492,32	50,968
492,52	51,964
492,72	46,574
492,92	49,931
493,12	50,841
493,32	49,415
493,52	49,138
493,72	48,963
493,92	49,690
494,12	49,758
494,32	50,899
494,52	48,864
494,72	52,806
494,92	49,595
495,12	51,897
495,32	51,327
495,52	49,436
495,72	51,233
495,92	52,920
496,12	51,546
496,32	50,325
496,52	52,632
496,72	49,248
496,92	53,336
497,12	50,527
497,32	52,184
497,52	53,189
497,72	52,245
497,92	52,263
498,12	52,365
498,32	49,366
498,52	52,997
498,72	51,339
498,92	50,495
499,12	53,287
499,32	51,497
499,52	51,795
499,72	54,346
499,92	51,676
500,12	52,208
500,32	52,459
500,52	52,227
500,72	53,174
500,91	53,227
501,11	54,731
501,31	50,241
501,51	52,439
501,71	52,814
501,91	54,724
502,11	54,194
502,31	52,378
502,51	56,541
502,71	54,022
502,91	53,300
503,11	51,917
503,31	53,361
503,51	50,845
503,71	51,788
503,91	53,077
504,11	54,257
504,31	52,555
504,51	55,387
504,71	53,746
504,91	53,773
505,10	55,354
505,30	55,654
505,50	53,854
505,70	54,731
505,90	51,484
506,10	49,853
506,30	51,921
506,50	54,978
506,70	55,411
506,90	53,039
507,10	54,849
507,30	53,808
507,50	54,007
507,70	54,521
507,89	54,045
508,09	51,971
508,29	54,218
508,49	55,403
508,69	52,091
508,89	51,889
509,09	54,330
509,29	53,210
509,49	54,455
509,69	55,376
509,89	53,082
510,09	53,785
510,28	55,890
510,48	54,175
510,68	52,688
510,88	53,786
511,08	55,095
511,28	52,967
511,48	52,451
511,68	52,422
511,88	53,878
512,07	54,362
512,27	54,413
512,47	52,979
512,67	53,517
512,87	52,183
513,07	53,040
513,27	52,578
513,47	54,698
513,67	52,282
513,86	53,903
514,06	51,636
514,26	55,788
514,46	55,429
514,66	52,636
514,86	55,013
515,06	56,958
515,26	53,926
515,45	55,670
515,65	53,248
515,85	52,742
516,05	55,695
516,25	53,618
516,45	54,429
516,65	52,525
516,84	52,611
517,04	53,543
517,24	55,022
517,44	54,171
517,64	57,285
517,84	54,412
518,04	54,338
518,23	53,999
518,43	57,743
518,63	49,347
518,83	54,486
519,03	55,674
519,23	55,004
519,42	54,131
519,62	54,261
519,82	55,546
520,02	54,299
520,22	54,250
520,42	52,903
520,61	53,310
520,81	53,674
521,01	54,354
521,21	52,347
521,41	55,997
521,61	55,258
521,80	53,946
522,00	54,343
522,20	55,428
522,40	54,239
522,60	52,281
522,79	53,756
522,99	54,014
523,19	53,071
523,39	52,416
523,59	53,669
523,78	54,874
523,98	52,214
524,18	52,962
524,38	54,404
524,58	51,006
524,77	54,335
524,97	54,614
525,17	53,408
525,37	51,528
525,57	54,934
525,76	53,855
525,96	56,722
526,16	51,645
526,36	52,111
526,56	54,213
526,75	50,587
526,95	53,103
527,15	54,471
527,35	53,401
527,55	56,517
527,74	54,664
527,94	53,703
528,14	54,793
528,34	54,272
528,53	53,193
528,73	53,361
528,93	55,541
529,13	54,274
529,32	53,708
529,52	56,166
529,72	54,340
529,92	55,430
530,12	53,417
530,31	47,996
530,51	55,025
530,71	55,482
530,91	52,096
531,10	49,313
531,30	54,176
531,50	52,585
531,70	50,889
531,89	53,709
532,09	52,075
532,29	52,430
532,49	53,267
532,68	53,791
532,88	54,385
533,08	50,363
533,28	53,754
533,47	51,399
533,67	54,008
533,87	51,688
534,06	54,722
534,26	51,706
534,46	53,894
534,66	50,259
534,85	51,336
535,05	48,434
535,25	51,712
535,45	52,861
535,64	53,837
535,84	51,178
536,04	51,906
536,23	51,028
536,43	51,537
536,63	49,184
536,83	54,307
537,02	52,186
537,22	50,253
537,42	51,886
537,61	50,393
537,81	49,756
538,01	48,642
538,20	47,312
538,40	50,722
538,60	49,654
538,80	46,534
538,99	46,452
539,19	45,963
539,39	46,984
539,58	43,503
539,78	42,608
539,98	41,095
540,17	43,303
540,37	42,158
540,57	41,140
540,76	39,748
540,96	39,455
541,16	38,802
541,36	36,622
541,55	37,159
541,75	37,424
541,95	36,882
542,14	35,711
542,34	36,762
542,54	36,763
542,73	35,697
542,93	36,628
543,13	35,183
543,32	36,568
543,52	36,198
543,72	35,636
543,91	34,344
544,11	35,386
544,31	37,771
544,50	36,000
544,70	36,722
544,89	38,065
545,09	37,720
545,29	37,528
545,48	38,018
545,68	39,583
545,88	38,148
546,07	40,210
546,27	39,572
546,47	40,944
546,66	42,020
546,86	44,365
547,06	41,432
547,25	42,233
547,45	47,376
547,64	44,658
547,84	46,205
548,04	47,349
548,23	46,994
548,43	44,957
548,63	47,334
548,82	47,165
549,02	46,846
549,21	47,334
549,41	47,850
549,61	46,294
549,80	48,968
550,00	48,082
550,20	47,317
550,39	48,042
550,59	48,293
550,78	50,711
550,98	46,419
551,18	51,676
551,37	51,558
551,57	48,371
551,76	49,481
551,96	48,281
552,16	49,263
552,35	49,653
552,55	53,446
552,74	49,564
552,94	49,355
553,14	50,971
553,33	51,633
553,53	50,614
553,72	51,251
553,92	52,159
554,12	51,110
554,31	51,892
554,51	51,041
554,70	51,711
554,90	52,589
555,09	55,526
555,29	54,033
555,49	53,570
555,68	53,846
555,88	51,383
556,07	51,886
556,27	55,256
556,46	51,907
556,66	51,938
556,86	52,186
557,05	51,772
557,25	51,828
557,44	52,318
557,64	50,628
557,83	54,053
558,03	52,320
558,22	50,367
558,42	49,586
558,62	56,378
558,81	52,167
559,01	51,222
559,20	52,916
559,40	53,897
559,59	53,224
559,79	52,523
559,98	54,169
560,18	53,801
560,37	53,393
560,57	55,486
560,76	52,454
560,96	51,442
561,16	52,186
561,35	51,732
561,55	55,715
561,74	51,548
561,94	54,142
562,13	53,034
562,33	55,269
562,52	53,160
562,72	53,658
562,91	51,683
563,11	52,907
563,30	54,213
563,50	50,455
563,69	52,774
563,89	53,846
564,08	52,919
564,28	51,066
564,47	51,861
564,67	53,609
564,86	53,903
565,06	51,562
565,25	54,876
565,45	53,148
565,64	55,602
565,84	54,823
566,03	53,158
566,23	52,823
566,42	51,495
566,62	52,741
566,81	54,393
567,01	55,686
567,20	55,136
567,40	52,363
567,59	52,928
567,79	54,016
567,98	55,920
568,18	56,068
568,37	55,493
568,57	54,937
568,76	56,027
568,96	52,904
569,15	52,520
569,35	53,944
569,54	52,088
569,73	54,252
569,93	52,100
570,12	54,744
570,32	52,424
570,51	53,890
570,71	55,241
570,90	56,312
571,10	54,067
571,29	55,722
571,49	54,129
571,68	52,149
571,87	52,126
572,07	52,347
572,26	53,848
572,46	55,119
572,65	53,484
572,85	51,105
573,04	52,763
573,24	53,763
573,43	56,210
573,62	54,986
573,82	54,809
574,01	51,690
574,21	54,819
574,40	53,840
574,60	53,541
574,79	55,360
574,98	51,335
575,18	54,869
575,37	53,276
575,57	52,864
575,76	52,926
575,96	53,816
576,15	54,769
576,34	52,608
576,54	53,072
576,73	52,808
576,93	52,279
577,12	51,735
577,31	53,860
577,51	51,662
577,70	52,544
577,90	51,801
578,09	51,528
578,28	52,855
578,48	54,018
578,67	54,109
578,87	51,073
579,06	51,616
579,25	51,455
579,45	52,445
579,64	51,615
579,84	51,418
580,03	51,480
580,22	52,945
580,42	51,262
580,61	51,633
580,81	51,031
581,00	51,480
581,19	53,319
581,39	51,679
581,58	52,780
581,77	52,960
581,97	52,615
582,16	50,006
582,35	51,737
582,55	51,544
582,74	51,957
582,94	52,059
583,13	49,961
583,32	51,210
583,52	51,581
583,71	49,955
583,90	53,128
584,10	50,408
584,29	50,983
584,48	49,533
584,68	52,222
584,87	51,859
585,06	51,442
585,26	50,833
585,45	49,048
585,65	50,996
585,84	50,652
586,03	51,083
586,23	48,950
586,42	49,814
586,61	51,491
586,81	52,267
587,00	52,924
587,19	48,676
587,39	51,360
587,58	51,451
587,77	50,605
587,97	50,919
588,16	51,191
588,35	52,265
588,54	52,614
588,74	49,790
588,93	51,960
589,12	51,084
589,32	51,330
589,51	51,134
589,70	50,007
589,90	50,771
590,09	52,503
590,28	53,700
590,48	50,119
590,67	52,754
590,86	51,743
591,06	51,020
591,25	51,109
591,44	52,385
591,63	52,354
591,83	50,771
592,02	51,127
592,21	50,329
592,41	51,711
592,60	51,231
592,79	51,935
592,98	50,355
593,18	52,264
593,37	53,593
593,56	53,007
593,76	51,960
593,95	52,488
594,14	52,409
594,33	53,786
594,53	54,304
594,72	52,262
594,91	55,047
595,10	54,078
595,30	52,375
595,49	53,168
595,68	51,885
595,88	52,086
596,07	53,744
596,26	53,197
596,45	53,253
596,65	51,380
596,84	52,063
597,03	53,955
597,22	53,088
597,42	54,063
597,61	52,327
597,80	53,375
597,99	53,305
598,19	52,083
598,38	52,615
598,57	53,253
598,76	51,568
598,95	53,608
599,15	52,748
599,34	54,223
599,53	52,797
599,72	53,635
599,92	53,318
600,11	53,563
600,30	52,153
600,49	53,698
600,69	51,752
600,88	51,985
601,07	52,773
601,26	54,097
601,45	54,462
601,65	53,975
601,84	52,713
602,03	52,704
602,22	54,352
602,42	55,271
602,61	53,175
602,80	53,883
602,99	53,668
603,18	51,592
603,38	52,011
603,57	53,302
603,76	53,290
603,95	52,076
604,14	54,156
604,34	52,522
604,53	52,090
604,72	54,140
604,91	51,361
605,10	54,767
605,29	53,689
605,49	52,076
605,68	52,997
605,87	52,862
606,06	52,703
606,25	53,143
606,45	53,421
606,64	51,355
606,83	52,980
607,02	52,551
607,21	51,200
607,40	51,396
607,60	51,391
607,79	51,558
607,98	49,189
608,17	47,588
608,36	48,178
608,55	49,055
608,75	46,561
608,94	45,535
609,13	44,216
609,32	43,652
609,51	41,982
609,70	43,255
609,89	43,798
610,09	43,342
610,28	43,343
610,47	43,414
610,66	42,818
610,85	40,590
611,04	42,246
611,23	42,031
611,43	41,196
611,62	41,960
611,81	42,742
612,00	41,993
612,19	41,184
612,38	42,445
612,57	43,828
612,77	43,570
612,96	43,895
613,15	44,700
613,34	46,350
613,53	45,837
613,72	47,563
613,91	47,517
614,10	46,767
614,29	49,103
614,49	48,250
614,68	47,588
614,87	49,550
615,06	51,071
615,25	46,930
615,44	49,043
615,63	48,846
615,82	49,519
616,01	50,506
616,21	49,165
616,40	51,170
616,59	50,034
616,78	51,395
616,97	48,918
617,16	52,240
617,35	53,260
617,54	51,713
617,73	51,369
617,92	49,769
618,11	50,735
618,31	49,921
618,50	51,383
618,69	50,614
618,88	48,463
619,07	50,478
619,26	47,040
619,45	51,217
619,64	49,545
619,83	49,186
620,02	48,469
620,21	51,475
620,40	50,689
620,59	49,362
620,78	48,417
620,97	50,538
621,17	49,833
621,36	51,398
621,55	50,743
621,74	50,392
621,93	49,868
622,12	51,897
622,31	49,748
622,50	50,572
622,69	50,861
622,88	51,804
623,07	49,697
623,26	50,284
623,45	51,471
623,64	50,085
623,83	49,320
624,02	51,659
624,21	51,770
624,40	53,229
624,59	52,351
624,78	50,719
624,97	52,416
625,16	49,887
625,35	49,742
625,54	49,979
625,73	49,901
625,92	50,404
626,12	51,180
626,31	52,676
626,50	51,171
626,69	51,519
626,88	51,003
627,07	50,977
627,26	50,881
627,45	50,714
627,64	52,852
627,83	52,388
628,02	50,166
628,21	50,823
628,40	50,332
628,59	51,267
628,78	49,344
628,97	49,603
629,16	48,748
629,35	50,904
629,54	52,015
629,73	49,728
629,92	49,310
630,10	51,126
630,29	50,681
630,48	51,653
630,67	48,929
630,86	50,522
631,05	50,558
631,24	53,546
631,43	50,208
631,62	51,431
631,81	51,382
632,00	50,645
632,19	49,360
632,38	51,302
632,57	51,221
632,76	52,974
632,95	52,658
633,14	52,359
633,33	51,098
633,52	52,312
633,71	52,242
633,90	53,490
634,09	51,550
634,28	52,172
634,47	52,120
634,66	52,624
634,85	53,207
635,04	53,242
635,22	53,298
635,41	52,198
635,60	53,692
635,79	51,527
635,98	51,508
636,17	54,390
636,36	53,183
636,55	51,732
636,74	52,053
636,93	52,130
637,12	54,250
637,31	52,367
637,50	50,857
637,69	54,167
637,87	51,210
638,06	54,289
638,25	53,910
638,44	52,193
638,63	49,856
638,82	53,022
639,01	53,267
639,20	51,671
639,39	52,888
639,58	51,990
639,77	53,684
639,95	52,949
640,14	52,183
640,33	51,071
640,52	53,186
640,71	52,877
640,90	52,243
641,09	53,994
641,28	53,476
641,47	52,069
641,66	51,511
641,84	51,180
642,03	53,755
642,22	51,476
642,41	53,112
642,60	51,627
642,79	52,930
642,98	53,352
643,17	51,316
643,35	52,805
643,54	52,583
643,73	52,531
643,92	52,396
644,11	52,104
644,30	51,468
644,49	54,081
644,67	52,117
644,86	51,288
645,05	51,248
645,24	52,076
645,43	53,361
645,62	52,429
645,81	53,366
645,99	52,855
646,18	52,322
646,37	51,702
646,56	53,687
646,75	54,182
646,94	52,137
647,13	52,903
647,31	51,523
647,50	51,568
647,69	53,074
647,88	52,419
648,07	52,755
648,26	53,914
648,44	52,279
648,63	51,247
648,82	53,229
649,01	54,251
649,20	52,206
649,38	52,122
649,57	54,156
649,76	50,542
649,95	52,912
650,14	51,597
650,33	50,960
650,51	52,296
650,70	52,657
650,89	51,531
651,08	51,857
651,27	52,513
651,45	52,636
651,64	52,164
651,83	50,581
652,02	53,543
652,21	52,899
652,39	53,507
652,58	51,962
652,77	51,944
652,96	51,858
653,15	51,944
653,33	52,009
653,52	53,607
653,71	53,387
653,90	51,907
654,09	53,447
654,27	53,722
654,46	54,300
654,65	54,405
654,84	52,784
655,02	53,420
655,21	55,079
655,40	54,527
655,59	54,455
655,77	54,717
655,96	53,220
656,15	54,237
656,34	55,278
656,53	53,068
656,71	53,768
656,90	54,298
657,09	55,268
657,28	54,032
657,46	53,343
657,65	52,911
657,84	51,915
658,03	53,889
658,21	52,193
658,40	53,340
658,59	52,637
658,78	53,736
658,96	54,016
659,15	52,050
659,34	53,341
659,52	54,521
659,71	53,756
659,90	50,638
660,09	53,202
660,27	52,250
660,46	51,996
660,65	51,058
660,84	53,206
661,02	51,960
661,21	52,221
661,40	52,607
661,58	52,655
661,77	53,792
661,96	51,306
662,15	53,861
662,33	51,037
662,52	51,737
662,71	53,409
662,89	51,602
663,08	51,073
663,27	51,158
663,45	51,669
663,64	51,746
663,83	51,773
664,02	51,614
664,20	50,536
664,39	51,103
664,58	52,667
664,76	53,186
664,95	52,252
665,14	52,373
665,32	52,294
665,51	52,503
665,70	51,971
665,88	53,699
666,07	54,777
666,26	53,338
666,44	53,104
666,63	52,802
666,82	52,119
667,00	52,329
667,19	51,611
667,38	52,579
667,56	52,400
667,75	51,111
667,94	52,719
668,12	51,262
668,31	52,768
668,50	51,551
668,68	51,414
668,87	53,463
669,06	51,845
669,24	54,266
669,43	52,900
669,62	50,804
669,80	52,395
669,99	53,441
670,18	53,326
670,36	52,425
670,55	52,292
670,74	52,536
670,92	50,591
671,11	52,623
671,29	53,449
671,48	53,432
671,67	52,450
671,85	53,274
672,04	51,551
672,23	51,326
672,41	50,810
672,60	54,338
672,78	53,123
672,97	53,789
673,16	51,849
673,34	52,764
673,53	52,569
673,71	51,740
673,90	53,087
674,09	53,747
674,27	51,297
674,46	52,686
674,64	52,695
674,83	51,859
675,02	52,283
675,20	52,344
675,39	51,366
675,57	52,894
675,76	50,976
675,95	52,321
676,13	53,782
676,32	53,851
676,50	53,288
676,69	51,586
676,88	52,567
677,06	52,227
677,25	52,990
677,43	53,359
677,62	51,756
677,80	52,974
677,99	52,981
678,18	52,313
678,36	52,633
678,55	50,971
678,73	52,867
678,92	52,749
679,10	52,209
679,29	53,581
679,48	52,140
679,66	51,181
679,85	51,692
680,03	53,501
680,22	53,119
680,40	52,381
680,59	51,654
680,77	51,255
680,96	52,392
681,15	52,117
681,33	51,862
681,52	52,209
681,70	52,350
681,89	53,368
682,07	54,230
682,26	52,292
682,44	53,440
682,63	52,251
682,81	52,797
683,00	51,857
683,18	50,434
683,37	52,537
683,55	52,109
683,74	53,006
683,92	54,672
684,11	52,791
684,29	52,311
684,48	50,943
684,67	51,811
684,85	53,120
685,04	51,477
685,22	52,975
685,41	52,519
685,59	53,523
685,78	52,659
685,96	51,603
686,15	51,049
686,33	51,589
686,52	51,450
686,70	53,435
686,89	51,521
687,07	53,349
687,26	52,798
687,44	53,103
687,62	51,510
687,81	53,187
687,99	51,703
688,18	53,099
688,36	53,289
688,55	51,698
688,73	53,161
688,92	50,745
689,10	53,250
689,29	53,699
689,47	53,267
689,66	52,942
689,84	51,384
690,03	50,235
690,21	53,530
690,40	53,018
690,58	52,485
690,76	52,199
690,95	53,020
691,13	53,501
691,32	53,186
691,50	52,652
691,69	53,114
691,87	51,261
692,06	51,186
692,24	51,488
692,43	51,677
692,61	51,065
692,79	53,643
692,98	50,196
693,16	52,604
693,35	51,544
693,53	51,793
693,72	53,123
693,90	53,788
694,08	51,940
694,27	51,744
694,45	53,850
694,64	53,489
694,82	52,467
695,01	51,341
695,19	52,947
695,37	51,339
695,56	52,306
695,74	52,884
695,93	52,900
696,11	51,513
696,29	52,827
696,48	53,109
696,66	51,485
696,85	54,787
697,03	51,316
697,21	52,334
697,40	51,740
697,58	51,929
697,77	52,276
697,95	53,823
698,13	54,276
698,32	51,832
698,50	53,496
698,69	50,905
698,87	51,786
699,05	51,056
699,24	50,792
699,42	51,697
699,60	51,719
699,79	53,069
699,97	52,034
700,16	51,043
700,34	51,521
700,52	52,844
700,71	52,169
700,89	52,125
701,07	53,707
701,26	51,440
701,44	51,532
701,63	51,215
701,81	53,173
701,99	52,648
702,18	52,045
702,36	51,267
702,54	50,496
702,73	52,590
702,91	50,698
703,09	51,938
703,28	51,016
703,46	51,713
703,64	51,525
703,83	52,868
704,01	53,722
704,19	52,384
704,38	52,519
704,56	51,048
704,74	52,958
704,93	51,615
705,11	53,656
705,29	51,161
705,48	52,257
705,66	50,924
705,84	51,790
706,03	50,982
706,21	52,419
706,39	50,844
706,58	51,289
706,76	51,716
706,94	52,559
707,12	52,170
707,31	51,880
707,49	48,450
707,67	52,044
707,86	49,670
708,04	50,975
708,22	51,519
708,41	50,298
708,59	50,932
708,77	50,730
708,95	52,181
709,14	52,562
709,32	51,108
709,50	51,081
709,69	49,160
709,87	48,557
710,05	51,848
710,23	51,249
710,42	49,030
710,60	51,170
710,78	51,294
710,97	51,133
711,15	51,615
711,33	53,189
711,51	51,859
711,70	49,851
711,88	50,399
712,06	53,126
712,24	51,182
712,43	52,530
712,61	51,900
712,79	52,050
712,97	49,313
713,16	50,716
713,34	52,085
713,52	51,395
713,70	50,743
713,89	52,667
714,07	52,353
714,25	50,175
714,43	52,958
714,62	48,754
714,80	52,385
714,98	51,230
715,16	52,153
715,35	51,303
715,53	51,172
715,71	50,536
715,89	52,909
716,07	51,424
716,26	53,106
716,44	52,233
716,62	52,881
716,80	53,303
716,99	51,452
717,17	52,568
717,35	53,662
717,53	50,698
717,71	51,346
717,90	52,695
718,08	50,299
718,26	51,458
718,44	51,929
718,62	52,469
718,81	52,704
718,99	52,260
719,17	51,999
719,35	50,619
719,53	51,684
719,72	50,231
719,90	52,942
720,08	48,977
720,26	51,755
720,44	50,950
720,62	52,490
720,81	51,594
720,99	54,764
721,17	50,939
721,35	52,900
721,53	53,439
721,72	53,157
721,90	50,644
722,08	52,172
722,26	52,859
722,44	52,497
722,62	52,337
722,81	50,435
722,99	52,465
723,17	50,501
723,35	52,351
723,53	53,841
723,71	52,197
723,89	53,576
724,08	52,459
724,26	52,612
724,44	51,730
724,62	52,438
724,80	52,026
724,98	55,468
725,16	52,376
725,35	51,435
725,53	50,528
725,71	49,976
725,89	53,696
726,07	51,293
726,25	52,454
726,43	54,267
726,61	51,644
726,80	53,482
726,98	52,361
727,16	53,205
727,34	53,176
727,52	51,977
727,70	50,450
727,88	52,620
728,06	51,541
728,25	50,849
728,43	51,466
728,61	49,840
728,79	49,220
728,97	51,214
729,15	52,636
729,33	51,984
729,51	51,244
729,69	54,040
729,87	52,896
730,06	52,169
730,24	52,130
730,42	53,768
730,60	51,843
730,78	53,354
730,96	50,831
731,14	50,985
731,32	50,683
731,50	50,908
731,68	52,055
731,86	50,548
732,04	51,540
732,22	51,721
732,41	51,084
732,59	52,179
732,77	52,186
732,95	54,421
733,13	52,638
733,31	50,770
733,49	51,453
733,67	53,352
733,85	53,526
734,03	51,565
734,21	51,367
734,39	50,325
734,57	53,101
734,75	51,842
734,93	52,083
735,11	53,486
735,29	51,737
735,47	51,332
735,65	53,012
735,84	51,206
736,02	51,308
736,20	54,378
736,38	53,425
736,56	52,914
736,74	50,557
736,92	50,256
737,10	51,662
737,28	51,277
737,46	51,443
737,64	49,899
737,82	51,107
738,00	53,727
738,18	52,302
738,36	52,847
738,54	50,717
738,72	49,975
738,90	51,806
739,08	53,744
739,26	49,046
739,44	52,554
739,62	52,246
739,80	51,163
739,98	53,229
740,16	52,416
740,34	52,012
740,52	51,869
740,70	52,047
740,88	48,761
741,06	51,696
741,24	53,001
741,42	52,388
741,60	51,010
741,78	53,653
741,96	50,257
742,14	51,373
742,32	52,943
742,50	51,882
742,68	51,134
742,86	50,655
743,04	52,733
743,21	51,612
743,39	51,629
743,57	50,598
743,75	51,825
743,93	49,740
744,11	51,228
744,29	52,732
744,47	52,754
744,65	50,831
744,83	51,789
745,01	51,636
745,19	50,076
745,37	50,896
745,55	53,225
745,73	50,887
745,91	51,601
746,09	52,650
746,27	50,242
746,45	50,100
746,62	52,499
746,80	50,777
746,98	52,927
747,16	51,763
747,34	51,749
747,52	50,300
747,70	51,136
747,88	49,695
748,06	52,820
748,24	50,652
748,42	52,540
748,60	50,362
748,78	50,777
748,95	49,634
749,13	52,782
749,31	50,454
749,49	51,755
749,67	53,972
749,85	52,798
750,03	51,943
750,21	53,322
750,39	52,598
750,57	53,736
750,74	52,234
750,92	51,545
751,10	50,959
751,28	50,913
751,46	53,746
751,64	53,008
751,82	53,480
752,00	51,182
752,17	51,703
752,35	50,256
752,53	50,831
752,71	51,972
752,89	51,313
753,07	50,492
753,25	52,713
753,43	52,164
753,60	53,078
753,78	49,826
753,96	54,271
754,14	51,105
754,32	52,328
754,50	52,661
754,68	52,500
754,85	53,153
755,03	52,219
755,21	53,773
755,39	51,984
755,57	52,368
755,75	52,017
755,92	50,221
756,10	50,347
756,28	52,910
756,46	51,054
756,64	51,357
756,82	50,985
756,99	52,970
757,17	51,149
757,35	50,867
757,53	50,327
757,71	52,512
757,89	51,119
758,06	50,689
758,24	51,447
758,42	50,906
758,60	50,367
758,78	51,644
758,95	52,889
759,13	52,743
759,31	51,844
759,49	51,275
759,67	50,048
759,84	52,494
760,02	52,410
760,20	53,290
760,38	51,240
760,56	51,782
760,73	53,196
760,91	52,893
761,09	51,700
761,27	51,405
761,45	51,642
761,62	52,863
761,80	51,886
761,98	50,989
762,16	52,958
762,33	52,107
762,51	51,392
762,69	52,453
762,87	52,156
763,05	51,860
763,22	49,737
763,40	53,145
763,58	52,706
763,76	54,594
763,93	53,262
764,11	49,950
764,29	52,717
764,47	51,575
764,64	53,420
764,82	53,826
765,00	50,136
765,18	49,398
765,35	50,239
765,53	54,636
765,71	51,350
765,89	50,939
766,06	48,747
766,24	51,666
766,42	52,903
766,60	50,616
766,77	50,487
766,95	51,815
767,13	51,386
767,30	51,379
767,48	51,381
767,66	52,427
767,84	52,162
768,01	52,481
768,19	53,106
768,37	52,383
768,54	48,817
768,72	51,461
768,90	52,525
769,08	51,283
769,25	53,666
769,43	49,788
769,61	50,055
769,78	52,323
769,96	52,025
770,14	51,286
770,31	50,566
770,49	50,474
770,67	52,982
770,85	51,420
771,02	49,458
771,20	53,906
771,38	51,814
771,55	52,240
771,73	50,232
771,91	53,162
772,08	52,363
772,26	52,335
772,44	51,120
772,61	50,755
772,79	51,415
772,97	52,339
773,14	50,565
773,32	50,793
773,50	52,388
773,67	50,742
773,85	53,449
774,03	52,569
774,20	51,323
774,38	52,474
774,56	52,357
774,73	52,190
774,91	51,860
775,09	52,051
775,26	50,788
775,44	49,564
775,61	52,509
775,79	50,317
775,97	51,149
776,14	51,291
776,32	49,505
776,50	53,311
776,67	51,846
776,85	51,344
777,03	51,098
777,20	53,349
777,38	53,394
777,55	50,204
777,73	50,319
777,91	51,431
778,08	53,373
778,26	51,458
778,43	54,260
778,61	49,725
778,79	51,188
778,96	49,594
779,14	52,723
779,32	54,246
779,49	53,367
779,67	53,285
779,84	52,827
780,02	51,358
780,20	50,338
780,37	51,452
780,55	49,596
780,72	55,126
780,90	52,491
781,07	49,842
781,25	52,612
781,43	52,681
781,60	51,460
781,78	53,289
781,95	51,054
782,13	51,956
782,30	52,370
782,48	49,883
782,66	50,149
782,83	51,130
783,01	50,984
783,18	53,353
783,36	50,930
783,53	53,429
783,71	51,726
783,89	52,329
784,06	53,283
784,24	53,096
784,41	53,210
784,59	52,339
784,76	51,825
784,94	53,141
785,11	50,756
785,29	50,712
785,46	52,219
785,64	51,959
785,82	49,671
785,99	52,253
786,17	50,023
786,34	49,835
786,52	51,162
786,69	53,056
786,87	53,107
787,04	52,053
787,22	50,162
787,39	49,638
787,57	49,863
787,74	54,031
787,92	52,077
788,09	54,046
788,27	51,333
788,44	51,974
788,62	51,402
788,79	53,438
788,97	53,617
789,14	50,411
789,32	51,602
789,49	54,828
789,67	51,165
789,84	53,567
790,02	51,023
790,19	52,421
790,37	54,278
790,54	53,625
790,72	52,744
790,89	55,910
791,07	52,938
791,24	48,708
791,42	55,709
791,59	49,406
791,77	53,071
791,94	52,047
792,12	49,626
792,29	51,008
792,47	49,006
792,64	52,653
792,81	52,340
792,99	52,574
793,16	50,356
793,34	52,107
793,51	50,253
793,69	54,258
793,86	49,062
794,04	51,567
794,21	50,254
794,39	47,398
794,56	52,854
794,73	51,701
794,91	54,417
795,08	53,383
795,26	54,504
795,43	51,663
795,61	50,449
795,78	54,340
795,95	52,926
796,13	51,056
796,30	51,880
796,48	52,762
796,65	54,499
796,83	49,740
797,00	55,671
797,17	49,583
797,35	52,337
797,52	54,097
797,70	56,489
797,87	51,221
798,04	49,337
798,22	51,198
798,39	50,778
798,57	53,437
798,74	51,406
798,91	47,642
799,09	51,342
799,26	51,533
799,44	53,238
799,61	51,515
799,78	53,966
799,96	50,154
800,13	54,900
800,31	50,610
800,48	53,968
800,65	53,002
800,83	50,043
801,00	51,460
801,17	52,041
801,35	50,928
801,52	52,282
801,70	53,399
801,87	50,689
802,04	55,075
802,22	48,824
802,39	50,965
802,56	51,039
802,74	50,901
802,91	50,512
803,08	50,470
803,26	50,331
803,43	52,007
803,61	52,489
803,78	53,279
803,95	52,031
804,13	55,405
804,30	50,592
804,47	55,715
804,65	52,263
804,82	50,425
804,99	49,185
805,17	52,942
805,34	50,920
805,51	53,041
805,69	52,289
805,86	51,449
806,03	55,537
806,21	51,455
806,38	51,848
806,55	55,044
806,72	52,585
806,90	51,644
807,07	54,789
807,24	54,208
807,42	53,546
807,59	55,226
807,76	49,149
807,94	50,721
808,11	51,563
808,28	54,174
808,45	53,216
808,63	55,543
808,80	54,374
808,97	51,523
809,15	50,403
809,32	51,966
809,49	50,406
809,67	49,893
809,84	52,936
810,01	57,645
810,18	53,394
810,36	49,080
810,53	53,547
810,70	56,439
810,87	53,696
811,05	49,891
811,22	50,568
811,39	51,115
811,57	57,862
811,74	53,482
811,91	48,494
812,08	50,255
812,26	51,225
812,43	52,827
812,60	49,909
812,77	49,007
812,95	54,912
813,12	57,708
813,29	49,691
813,46	54,697
813,64	56,132
813,81	49,610
813,98	50,629
814,15	60,044
814,32	52,940
814,50	55,550
814,67	55,161
814,84	53,006
815,01	49,106
815,19	50,181
815,36	48,129
815,53	53,489
815,70	45,632
815,87	59,556
816,05	53,572
816,22	53,226
816,39	55,059
816,56	54,900
816,74	50,331
816,91	51,709
817,08	54,344
817,25	51,563
817,42	57,327
817,60	53,644
817,77	49,711
817,94	56,139
818,11	56,441
818,28	55,687
818,45	53,256
818,63	51,161
818,80	48,640
818,97	56,215
819,14	56,435
819,31	53,057
819,49	55,066
819,66	49,761
819,83	52,478
820,00	57,301
820,17	53,442
820,34	54,405
820,52	55,191
820,69	53,714
820,86	53,338
821,03	52,761
821,20	52,829
821,37	53,000
821,55	46,156
821,72	54,097
821,89	56,292
822,06	58,836
822,23	53,247
822,40	53,819
822,57	53,368
822,75	58,175
822,92	50,985
823,09	52,431
823,26	52,396
823,43	55,990
823,60	46,185
823,77	46,504
823,94	50,177
824,12	53,959
824,29	49,796
824,46	48,709
824,63	53,039
824,80	53,720
824,97	57,937
825,14	53,254
825,31	56,783
825,49	52,555
825,66	50,428
825,83	48,388
826,00	52,440
826,17	53,182
826,34	49,283
826,51	52,528
826,68	51,289
826,85	53,658
827,02	54,124
827,20	50,538
827,37	56,090
827,54	52,400
827,71	57,758
827,88	53,346
828,05	51,544
828,22	54,957
828,39	55,977
828,56	58,001
828,73	53,529
828,90	58,649
829,07	55,341
829,25	59,444
829,42	48,975
829,59	56,713
829,76	51,333
829,93	50,582
830,10	51,219
830,27	49,075
830,44	54,037
830,61	54,647
830,78	62,460
830,95	54,874
831,12	53,034
831,29	54,931
831,46	54,964
831,63	54,718
831,80	58,163
831,97	57,314
832,14	60,115
832,31	54,554
832,48	62,136
832,65	55,412
832,83	60,153
833,00	52,906
833,17	51,322
833,34	56,887
833,51	58,819
833,68	59,131
833,85	61,102
834,02	56,825
834,19	54,854
834,36	55,112
834,53	49,087
834,70	55,852
834,87	55,781
835,04	52,749
835,21	51,795
835,38	49,211
835,55	55,086
835,72	54,284
835,89	51,104
836,06	62,575
836,23	54,268
836,40	52,010
836,57	49,561
836,74	56,970
836,91	55,098
837,08	61,865
837,25	53,924
837,42	44,352
837,59	50,975
837,76	50,986
837,93	51,508
838,09	53,268
838,26	54,276
838,43	56,955
838,60	55,603
838,77	55,054
838,94	60,888
839,11	59,771
839,28	61,186
839,45	48,552
839,62	59,355
839,79	55,801
839,96	56,058
840,13	57,381
840,30	51,698
840,47	60,501
840,64	52,173
840,81	52,069
840,98	57,490
841,15	56,874
841,32	48,564
841,48	59,838
841,65	66,513
841,82	57,664
841,99	58,872
842,16	48,479
842,33	61,636
842,50	62,878
842,67	56,049
842,84	62,622
843,01	50,966
843,18	58,943
843,35	54,939
843,52	46,805
843,68	59,642
843,85	54,029
844,02	49,608
844,19	52,926
844,36	61,054
844,53	51,723
844,70	56,417
844,87	52,146
845,04	46,563
845,21	51,456
845,37	71,932
845,54	53,962
845,71	50,461
845,88	60,427
846,05	52,901
846,22	59,197
846,39	57,471
846,56	61,767
846,72	50,730
846,89	54,707
847,06	57,401
847,23	60,634
847,40	53,898
847,57	53,953
847,74	56,251
847,90	53,837
848,07	54,310
848,24	55,878
848,41	40,699
848,58	57,573
848,75	54,372
848,92	55,616
849,08	50,775
849,25	59,846
849,42	59,540
849,59	57,657
849,76	51,869
849,93	55,094
850,09	66,357
850,26	48,412
850,43	54,978
850,60	58,233
850,77	48,206
850,94	59,252
851,10	61,612
851,27	59,591
851,44	53,293
851,61	56,031
851,78	56,568
851,95	60,531
852,11	49,533
852,28	55,141
852,45	54,202
852,62	53,912
852,79	67,051
852,95	53,041
853,12	52,787
853,29	50,833
853,46	52,592
853,63	60,211
853,79	49,037
853,96	48,645
854,13	64,884
854,30	57,220
854,46	63,898
854,63	61,349
854,80	60,672
854,97	57,805
855,14	58,526
855,30	59,157
855,47	55,076
855,64	53,680
855,81	59,991
855,97	49,340
856,14	55,795
856,31	53,274
856,48	57,298
856,65	67,460
856,81	54,380
856,98	53,122
857,15	60,143
857,32	60,864
857,48	50,197
857,65	55,201
857,82	55,158
857,99	65,757
858,15	59,674
858,32	64,020
858,49	67,962
858,65	44,985
858,82	60,432
858,99	45,034
859,16	67,049
859,32	57,040
859,49	60,973
859,66	63,222
859,83	31,753
859,99	53,578
860,16	58,068
860,33	49,253
860,49	60,419
860,66	57,136
860,83	51,357
861,00	65,033
861,16	55,363
861,33	64,175
861,50	44,794
861,66	53,300
861,83	57,312
862,00	55,892
862,16	62,202
862,33	57,223
862,50	62,227
862,67	58,098
862,83	40,864
863,00	61,479
863,17	67,275
863,33	59,349
863,50	55,207
863,67	49,375
863,83	61,087
864,00	47,713
864,17	57,725
864,33	45,448
864,50	52,214
864,67	42,426
864,83	62,503
865,00	42,116
865,17	47,010
865,33	70,459
865,50	39,807
865,67	60,438
865,83	68,283
866,00	65,693
866,17	62,436
866,33	51,617
866,50	63,562
866,66	42,693
866,83	58,273
867,00	58,365
867,16	53,681
867,33	54,665
867,50	50,572
867,66	58,512
867,83	67,199
868,00	66,701
868,16	51,723
868,33	49,635
868,49	67,455
868,66	55,165
868,83	70,521
868,99	53,463
869,16	72,689
869,32	46,484
869,49	54,208
869,66	11,621
869,82	59,798
869,99	56,445
870,15	46,515
870,32	68,549
870,49	71,995
870,65	91,600
870,82	84,768
870,98	48,978
871,15	57,201
871,32	63,316
871,48	35,128
871,65	40,650
871,81	39,932
871,98	48,022
872,15	50,804
872,31	48,849
872,48	55,202
872,64	47,113
872,81	47,670
872,97	57,522
873,14	76,504
873,31	50,001
873,47	64,837
873,64	42,512
873,80	57,520
873,97	108,529
874,13	59,332
874,30	56,541
874,46	41,244
874,63	44,406
874,80	53,456
874,96	69,435
875,13	104,309
875,29	59,868
875,46	81,957
875,62	41,777
875,79	48,195
875,95	65,573
876,12	53,950
876,28	48,661
876,45	91,533
876,61	58,902
876,78	24,480
876,94	42,930
877,11	29,919
877,27	62,050
877,44	75,594
877,60	52,610
877,77	42,571
877,94	61,851
878,10	71,851
878,27	88,856
878,43	91,577
878,60	50,002
878,76	47,996
878,93	67,562
879,09	110,089
879,26	59,821
879,42	89,504
879,58	64,911
879,75	82,716
879,91	73,178
880,08	72,476
880,24	24,095
880,41	62,409
880,57	73,120
880,74	22,319
880,90	107,098
881,07	43,975
881,23	13,442
881,40	38,683
881,56	45,238
881,73	84,793
881,89	48,787
882,06	107,562
882,22	68,810
882,38	90,789
882,55	93,218
882,71	51,643
882,88	26,986
883,04	28,770
883,21	156,249
883,37	54,238
883,54	66,290
883,70	72,488
883,86	60,308
884,03	42,599
884,19	52,578
884,36	21,924
884,52	138,249
884,69	67,016
884,85	59,429
885,01	127,518
885,18	55,102
885,34	131,887
885,51	-13,411
885,67	79,543
>>>>> Data<<<<< Espectral Procesado Extremo
