Fichero De Datos De SpectraSuite
++++++++++++++++++++++++++++++++++++
Fecha: Wed Apr 22 10:17:41 CEST 2009
Usuario: evoflor
Presente Oscuro Del Espectro: Sí
La Referencia de Presente Del Espectro De: Sí
Muestreados de los componentes de Número de espectros: 1
Espectrómetros: USB4F02353
Tiempo de integración (usec): 500000 (USB4F02353)
Promedio de Espectros Hechos un: 5 (USB4F02353)
El Alisar Del Furgón: 0 (USB4F02353)
Párrafo de de Corregir del la del del de Eléctrica del obscuridad: Sí (USB4F02353)
Estrobo/Lámpara Permitido: No (USB4F02353)
Correct for Detector Non-linearity: No (USB4F02353)
Párrafo de de Corregir del la del del de Externa del luz: No (USB4F02353)
Procesado del espectro de Número de pixeles en: 3648
>>>>> Comienza Data<<<<< Espectral Procesado Del EL
177,79	46,942
178,00	46,942
178,22	46,942
178,44	54,835
178,66	266,074
178,88	92,476
179,09	-20,894
179,31	136,887
179,53	313,344
179,75	98,825
179,96	1438,879
180,18	153,815
180,40	81,561
180,62	122,838
180,83	-437,149
181,05	-850,122
181,27	31990,000
181,49	53,891
181,70	-43,423
181,92	449,797
182,14	250,633
182,36	105,908
182,58	-256,100
182,79	-363,795
183,01	76,325
183,23	168,858
183,45	-45,569
183,66	-81,460
183,88	-145,824
184,10	-1103,818
184,32	12,153
184,53	95,535
184,75	-144,025
184,97	61,181
185,18	-14,305
185,40	-313,510
185,62	37,153
185,84	191,507
186,05	55,024
186,27	67,189
186,49	-2511,154
186,71	57,886
186,92	74,498
187,14	59,063
187,36	45,640
187,58	78,406
187,79	132,052
188,01	-9,104
188,23	-62,528
188,45	70,241
188,66	154,509
188,88	-2363,818
189,10	-1048,100
189,31	91,451
189,53	99,288
189,75	41,841
189,97	320,038
190,18	-268,627
190,40	346,529
190,62	76,045
190,83	20,214
191,05	102,242
191,27	111,743
191,49	188,144
191,70	166,779
191,92	-232,288
192,14	-43,526
192,35	282,785
192,57	-322,571
192,79	-128,244
193,01	-6,168
193,22	93,415
193,44	40,768
193,66	71,405
193,87	-29,957
194,09	31,872
194,31	86,757
194,53	581,888
194,74	-67,565
194,96	9,731
195,18	112,715
195,39	141,398
195,61	36,780
195,83	-34,152
196,04	21,844
196,26	-467,889
196,48	34,277
196,70	-22,445
196,91	-12,811
197,13	80,785
197,35	-60,017
197,56	502,817
197,78	-198,433
198,00	657,413
198,21	334,029
198,43	-86,105
198,65	137,921
198,86	231,331
199,08	36,754
199,30	213,988
199,51	51,433
199,73	130,257
199,95	161,411
200,16	247,346
200,38	140,015
200,60	-16,106
200,81	207,088
201,03	98,940
201,25	-1066,100
201,46	104,010
201,68	43,648
201,90	807,045
202,11	177,061
202,33	-17,038
202,55	-186,125
202,76	-12,826
202,98	-23,659
203,20	-53,894
203,41	125,737
203,63	89,860
203,85	-53510,000
204,06	-109,722
204,28	-107,253
204,50	84,693
204,71	-108,993
204,93	-68,720
205,15	1,235
205,36	73,212
205,58	163,167
205,80	20,197
206,01	74,457
206,23	52,411
206,45	67,699
206,66	24,061
206,88	41,664
207,10	-37,932
207,31	114,980
207,53	266,029
207,75	-18,888
207,96	-97,687
208,18	49,983
208,39	83,039
208,61	1606,000
208,83	-0,669
209,04	20,150
209,26	-10,184
209,48	251,312
209,69	112,435
209,91	162,534
210,13	100,378
210,34	85,981
210,56	41,925
210,77	-81,181
210,99	20,070
211,21	2830,000
211,42	-124,102
211,64	13,410
211,86	175,957
212,07	306,228
212,29	39,256
212,50	110,640
212,72	115,808
212,94	0,359
213,15	144,859
213,37	79,797
213,58	3,082
213,80	1271,071
214,02	1506,471
214,23	135,420
214,45	142,984
214,67	137,683
214,88	-55,738
215,10	5,616
215,31	18,581
215,53	-5,205
215,75	30,452
215,96	421,801
216,18	18,451
216,39	145,772
216,61	97,183
216,83	-223,170
217,04	601,236
217,26	-13,855
217,47	112,648
217,69	130,601
217,91	26,778
218,12	-7610,000
218,34	57,236
218,55	22,573
218,77	23,815
218,99	50,010
219,20	52,393
219,42	128,216
219,63	141,130
219,85	55,603
220,06	216,192
220,28	36,861
220,50	30,101
220,71	41,035
220,93	-263,962
221,14	175,900
221,36	12,983
221,58	107,255
221,79	-192,954
222,01	174,224
222,22	209,934
222,44	-136,966
222,65	56,814
222,87	411,958
223,09	124,593
223,30	74,639
223,52	140,888
223,73	-56,839
223,95	-5,761
224,16	-64,103
224,38	380,592
224,60	-65,467
224,81	30,186
225,03	13,337
225,24	96,794
225,46	184,568
225,67	56,306
225,89	17,029
226,10	142,199
226,32	737,680
226,54	9,166
226,75	13,888
226,97	30,248
227,18	-5,171
227,40	-8,658
227,61	-1,959
227,83	-2,050
228,04	34,697
228,26	-29,280
228,47	22,911
228,69	92,999
228,91	43,307
229,12	-5,516
229,34	42,836
229,55	-8,742
229,77	-20,064
229,98	-27,464
230,20	1,412
230,41	3,250
230,63	22,358
230,84	-30,671
231,06	2,594
231,27	6,052
231,49	17,630
231,71	-2,648
231,92	23,380
232,14	6,832
232,35	26,556
232,57	69,388
232,78	0,733
233,00	-3,808
233,21	12,245
233,43	8,468
233,64	-5,624
233,86	2,752
234,07	-20,479
234,29	21,331
234,50	26,281
234,72	16,540
234,93	-22,499
235,15	23,819
235,36	14,482
235,58	-2,651
235,79	14,478
236,01	7,625
236,22	5,505
236,44	6,350
236,65	14,176
236,87	11,528
237,08	-0,078
237,30	-11,603
237,51	-6,924
237,73	-2,397
237,94	-1,007
238,16	6,263
238,37	-2,421
238,59	-0,611
238,80	5,799
239,02	6,791
239,23	5,774
239,45	-7,393
239,66	14,643
239,88	17,139
240,09	7,598
240,31	-7,209
240,52	5,504
240,74	-0,383
240,95	2,768
241,17	-3,007
241,38	1,491
241,60	7,065
241,81	5,207
242,03	5,047
242,24	6,478
242,46	8,882
242,67	7,729
242,89	3,404
243,10	9,177
243,32	10,191
243,53	-1,651
243,75	0,401
243,96	-2,121
244,18	4,910
244,39	-0,847
244,60	-1,019
244,82	-4,546
245,03	4,207
245,25	0,826
245,46	9,477
245,68	7,262
245,89	0,738
246,11	0,165
246,32	6,061
246,54	5,695
246,75	9,441
246,97	3,711
247,18	8,135
247,39	-0,350
247,61	1,779
247,82	6,903
248,04	-0,708
248,25	8,200
248,47	-1,587
248,68	1,961
248,90	2,642
249,11	6,730
249,33	5,760
249,54	1,755
249,75	6,264
249,97	-0,985
250,18	3,192
250,40	6,736
250,61	-3,058
250,83	5,876
251,04	-3,259
251,25	3,951
251,47	1,834
251,68	3,716
251,90	3,388
252,11	4,717
252,33	3,924
252,54	-0,353
252,76	3,063
252,97	3,308
253,18	-3,185
253,40	-1,149
253,61	-1,356
253,83	6,332
254,04	7,067
254,25	6,941
254,47	4,395
254,68	-0,598
254,90	2,328
255,11	7,584
255,33	1,939
255,54	4,198
255,75	0,915
255,97	2,633
256,18	3,895
256,40	-2,878
256,61	5,256
256,82	-5,250
257,04	3,588
257,25	-0,120
257,47	6,151
257,68	3,131
257,89	4,623
258,11	5,139
258,32	1,273
258,54	3,999
258,75	3,389
258,96	4,957
259,18	4,465
259,39	0,234
259,61	4,737
259,82	4,815
260,03	4,418
260,25	1,273
260,46	-1,965
260,68	2,563
260,89	1,978
261,10	1,516
261,32	2,156
261,53	3,804
261,75	4,373
261,96	-0,896
262,17	6,426
262,39	9,245
262,60	1,198
262,81	-1,642
263,03	2,925
263,24	1,012
263,46	0,060
263,67	2,772
263,88	0,713
264,10	2,520
264,31	-2,221
264,52	7,058
264,74	3,225
264,95	0,700
265,17	2,586
265,38	1,092
265,59	5,079
265,81	2,468
266,02	-0,858
266,23	0,938
266,45	2,445
266,66	3,481
266,87	6,669
267,09	2,206
267,30	1,471
267,52	0,257
267,73	4,970
267,94	4,515
268,16	4,793
268,37	-1,156
268,58	2,948
268,80	3,472
269,01	0,706
269,22	2,467
269,44	1,871
269,65	4,500
269,86	1,500
270,08	4,260
270,29	1,228
270,50	4,913
270,72	1,209
270,93	-1,306
271,14	0,528
271,36	2,988
271,57	0,470
271,78	4,016
272,00	6,789
272,21	5,251
272,42	3,648
272,64	2,150
272,85	0,603
273,06	1,567
273,28	2,166
273,49	5,793
273,70	3,382
273,92	0,930
274,13	4,159
274,34	2,137
274,56	5,419
274,77	2,152
274,98	0,810
275,20	0,622
275,41	2,285
275,62	2,101
275,84	3,174
276,05	4,489
276,26	4,741
276,47	2,244
276,69	0,413
276,90	1,477
277,11	1,199
277,33	1,542
277,54	5,342
277,75	2,180
277,97	0,633
278,18	3,434
278,39	3,284
278,61	0,819
278,82	1,311
279,03	1,204
279,24	3,894
279,46	1,345
279,67	2,213
279,88	0,688
280,10	1,204
280,31	0,306
280,52	2,669
280,73	2,092
280,95	3,467
281,16	4,049
281,37	4,868
281,59	4,378
281,80	7,146
282,01	1,589
282,22	1,073
282,44	1,090
282,65	2,800
282,86	6,424
283,08	5,216
283,29	5,813
283,50	3,973
283,71	2,459
283,93	2,584
284,14	7,409
284,35	0,361
284,56	4,400
284,78	2,308
284,99	1,915
285,20	2,457
285,42	5,180
285,63	2,320
285,84	2,999
286,05	1,140
286,27	1,615
286,48	-0,284
286,69	1,007
286,90	2,657
287,12	1,504
287,33	4,399
287,54	-0,854
287,75	1,814
287,97	2,676
288,18	2,351
288,39	0,737
288,60	1,645
288,82	0,210
289,03	0,318
289,24	0,531
289,45	3,060
289,67	3,246
289,88	0,240
290,09	4,492
290,30	3,371
290,52	0,256
290,73	1,897
290,94	-0,317
291,15	3,137
291,37	3,941
291,58	0,593
291,79	2,147
292,00	5,634
292,21	4,674
292,43	-0,015
292,64	1,222
292,85	0,548
293,06	2,445
293,28	1,248
293,49	1,569
293,70	3,826
293,91	2,338
294,12	2,594
294,34	3,565
294,55	2,666
294,76	-0,251
294,97	2,927
295,19	0,630
295,40	1,943
295,61	3,293
295,82	1,249
296,03	2,001
296,25	1,084
296,46	0,139
296,67	0,767
296,88	-1,052
297,09	6,989
297,31	2,018
297,52	1,350
297,73	3,202
297,94	4,501
298,15	2,173
298,37	4,384
298,58	5,470
298,79	1,639
299,00	-0,115
299,21	2,130
299,43	3,123
299,64	2,417
299,85	6,061
300,06	3,006
300,27	4,659
300,49	2,670
300,70	1,979
300,91	2,070
301,12	3,790
301,33	3,870
301,54	2,568
301,76	2,086
301,97	2,371
302,18	2,922
302,39	6,376
302,60	2,213
302,82	2,123
303,03	2,107
303,24	4,646
303,45	2,872
303,66	4,925
303,87	0,882
304,09	2,451
304,30	0,546
304,51	3,300
304,72	0,248
304,93	3,024
305,14	2,537
305,36	0,060
305,57	-0,135
305,78	1,989
305,99	0,692
306,20	3,279
306,41	0,841
306,62	1,255
306,84	4,062
307,05	0,623
307,26	3,538
307,47	4,799
307,68	2,173
307,89	3,137
308,11	5,621
308,32	2,772
308,53	3,602
308,74	2,227
308,95	2,861
309,16	2,223
309,37	4,153
309,59	-0,162
309,80	3,475
310,01	2,737
310,22	5,807
310,43	0,741
310,64	3,831
310,85	2,104
311,06	1,643
311,28	4,538
311,49	3,594
311,70	4,919
311,91	-1,600
312,12	2,096
312,33	4,385
312,54	3,781
312,75	0,470
312,97	1,743
313,18	3,497
313,39	1,545
313,60	2,482
313,81	4,810
314,02	1,962
314,23	4,238
314,44	2,686
314,65	5,015
314,87	2,419
315,08	0,464
315,29	6,862
315,50	4,165
315,71	2,817
315,92	4,587
316,13	3,444
316,34	3,729
316,55	0,793
316,77	-0,821
316,98	2,994
317,19	2,065
317,40	6,056
317,61	5,907
317,82	1,928
318,03	2,423
318,24	-0,314
318,45	2,238
318,66	3,754
318,87	2,748
319,09	5,396
319,30	3,286
319,51	3,870
319,72	3,999
319,93	3,777
320,14	3,698
320,35	4,370
320,56	-1,205
320,77	-1,366
320,98	5,278
321,19	4,052
321,40	3,246
321,62	1,256
321,83	3,530
322,04	0,970
322,25	1,623
322,46	5,285
322,67	4,201
322,88	0,403
323,09	0,710
323,30	4,420
323,51	1,224
323,72	4,700
323,93	2,307
324,14	2,158
324,35	1,595
324,56	1,124
324,77	1,455
324,99	1,481
325,20	1,176
325,41	2,835
325,62	1,995
325,83	3,520
326,04	0,701
326,25	3,888
326,46	0,622
326,67	2,261
326,88	1,274
327,09	3,149
327,30	3,050
327,51	2,354
327,72	2,838
327,93	4,734
328,14	-2,818
328,35	-0,266
328,56	3,088
328,77	2,640
328,98	0,265
329,19	2,410
329,40	1,704
329,61	3,037
329,82	0,709
330,04	3,307
330,25	1,090
330,46	1,780
330,67	3,194
330,88	2,256
331,09	2,527
331,30	4,813
331,51	2,050
331,72	1,044
331,93	1,569
332,14	2,017
332,35	2,987
332,56	3,472
332,77	2,878
332,98	2,613
333,19	1,457
333,40	4,957
333,61	1,249
333,82	3,671
334,03	2,281
334,24	2,473
334,45	1,943
334,66	3,713
334,87	2,319
335,08	3,086
335,29	1,099
335,50	2,395
335,71	1,847
335,92	1,070
336,13	2,788
336,34	0,737
336,55	4,572
336,76	3,488
336,97	3,502
337,18	0,328
337,39	2,598
337,60	3,709
337,81	-0,869
338,02	2,395
338,23	0,148
338,44	5,028
338,65	3,383
338,86	3,416
339,07	1,370
339,28	3,626
339,49	2,781
339,70	2,755
339,91	3,784
340,11	2,645
340,32	-0,015
340,53	-0,309
340,74	2,098
340,95	2,690
341,16	2,870
341,37	2,974
341,58	1,950
341,79	3,336
342,00	2,293
342,21	4,549
342,42	2,244
342,63	0,639
342,84	-3,554
343,05	4,975
343,26	4,548
343,47	0,295
343,68	0,069
343,89	3,083
344,10	3,954
344,31	3,734
344,52	1,963
344,73	2,673
344,94	4,895
345,14	1,887
345,35	5,599
345,56	2,002
345,77	3,773
345,98	1,878
346,19	1,608
346,40	2,763
346,61	2,075
346,82	2,097
347,03	0,604
347,24	5,874
347,45	-1,780
347,66	5,246
347,87	0,071
348,08	2,759
348,28	1,981
348,49	4,508
348,70	3,025
348,91	3,532
349,12	-1,185
349,33	2,516
349,54	2,583
349,75	2,647
349,96	1,269
350,17	1,614
350,38	-0,074
350,59	3,490
350,80	-0,077
351,00	5,399
351,21	3,362
351,42	2,826
351,63	-2,015
351,84	-4,497
352,05	1,955
352,26	1,162
352,47	0,977
352,68	4,115
352,89	2,341
353,09	3,012
353,30	0,646
353,51	1,871
353,72	1,359
353,93	4,017
354,14	2,233
354,35	0,975
354,56	3,311
354,77	2,836
354,98	-3,665
355,18	2,981
355,39	4,887
355,60	2,294
355,81	1,979
356,02	4,196
356,23	0,824
356,44	1,363
356,65	5,546
356,85	6,417
357,06	5,046
357,27	5,407
357,48	3,132
357,69	0,397
357,90	1,986
358,11	2,306
358,32	2,012
358,52	3,095
358,73	0,811
358,94	4,113
359,15	3,534
359,36	1,504
359,57	1,470
359,78	1,809
359,98	1,425
360,19	1,550
360,40	2,951
360,61	3,175
360,82	1,422
361,03	0,871
361,24	-2,471
361,44	1,526
361,65	2,254
361,86	3,238
362,07	1,151
362,28	-0,284
362,49	1,900
362,70	3,687
362,90	2,738
363,11	0,488
363,32	0,692
363,53	2,741
363,74	1,680
363,95	3,904
364,15	2,842
364,36	4,777
364,57	3,774
364,78	2,153
364,99	2,416
365,20	1,199
365,40	2,889
365,61	2,095
365,82	3,574
366,03	-2,000
366,24	0,042
366,45	3,379
366,65	2,308
366,86	0,928
367,07	1,790
367,28	5,241
367,49	1,439
367,69	5,399
367,90	2,855
368,11	4,224
368,32	0,266
368,53	1,818
368,73	4,734
368,94	1,814
369,15	1,325
369,36	4,235
369,57	2,135
369,78	0,920
369,98	2,365
370,19	4,877
370,40	2,864
370,61	2,158
370,82	3,023
371,02	1,599
371,23	3,894
371,44	3,045
371,65	2,949
371,85	3,760
372,06	0,608
372,27	2,046
372,48	2,054
372,69	0,609
372,89	1,612
373,10	2,014
373,31	0,209
373,52	2,792
373,73	5,960
373,93	5,023
374,14	0,359
374,35	2,487
374,56	1,657
374,76	1,725
374,97	3,207
375,18	4,603
375,39	2,428
375,60	6,804
375,80	4,585
376,01	3,033
376,22	2,769
376,43	1,920
376,63	2,204
376,84	-0,455
377,05	4,203
377,26	0,750
377,46	2,125
377,67	3,222
377,88	5,009
378,09	1,701
378,29	-2,652
378,50	1,823
378,71	2,562
378,92	4,389
379,12	0,676
379,33	1,816
379,54	4,498
379,75	0,799
379,95	1,692
380,16	1,208
380,37	1,979
380,58	3,823
380,78	4,094
380,99	1,030
381,20	3,591
381,41	2,526
381,61	5,264
381,82	0,400
382,03	-0,770
382,24	1,649
382,44	1,947
382,65	-0,017
382,86	2,634
383,06	0,048
383,27	3,100
383,48	2,346
383,69	3,740
383,89	4,085
384,10	3,092
384,31	2,383
384,51	2,551
384,72	1,385
384,93	-0,084
385,14	5,406
385,34	4,763
385,55	2,470
385,76	0,783
385,96	2,696
386,17	1,533
386,38	7,371
386,59	2,425
386,79	1,524
387,00	2,823
387,21	1,651
387,41	1,451
387,62	1,572
387,83	4,411
388,03	1,355
388,24	0,182
388,45	3,472
388,66	4,454
388,86	3,170
389,07	1,572
389,28	1,377
389,48	1,529
389,69	1,551
389,90	1,293
390,10	7,112
390,31	4,417
390,52	-2,872
390,72	0,374
390,93	1,407
391,14	-1,153
391,34	-1,203
391,55	2,648
391,76	1,738
391,96	4,062
392,17	4,586
392,38	4,883
392,58	2,141
392,79	2,107
393,00	0,115
393,20	-1,019
393,41	1,824
393,62	1,751
393,82	2,073
394,03	1,651
394,24	3,088
394,44	0,085
394,65	2,513
394,86	0,917
395,06	0,418
395,27	-1,197
395,48	-0,862
395,68	3,421
395,89	3,235
396,10	3,622
396,30	2,041
396,51	-0,624
396,72	0,809
396,92	0,521
397,13	2,645
397,34	1,348
397,54	3,581
397,75	3,233
397,95	-0,018
398,16	6,218
398,37	-1,239
398,57	3,617
398,78	4,459
398,99	3,838
399,19	-1,558
399,40	0,721
399,60	-0,085
399,81	1,594
400,02	0,959
400,22	2,440
400,43	3,501
400,64	-0,351
400,84	1,865
401,05	2,154
401,25	0,768
401,46	1,745
401,67	0,613
401,87	2,737
402,08	1,473
402,29	2,332
402,49	2,176
402,70	1,553
402,90	1,174
403,11	0,741
403,32	7,831
403,52	2,436
403,73	3,344
403,93	4,494
404,14	5,612
404,35	4,901
404,55	0,570
404,76	-0,190
404,96	3,758
405,17	4,930
405,38	3,555
405,58	-0,298
405,79	2,839
405,99	0,753
406,20	1,863
406,40	-0,865
406,61	1,157
406,82	0,416
407,02	5,311
407,23	0,718
407,43	2,371
407,64	1,102
407,85	3,741
408,05	-1,846
408,26	7,706
408,46	0,846
408,67	0,960
408,87	0,230
409,08	3,750
409,29	-2,621
409,49	3,619
409,70	5,159
409,90	3,464
410,11	-0,766
410,31	5,780
410,52	1,167
410,72	-1,072
410,93	3,671
411,14	-0,421
411,34	1,451
411,55	5,358
411,75	6,561
411,96	2,979
412,16	3,396
412,37	1,874
412,57	4,504
412,78	0,720
412,99	4,735
413,19	1,874
413,40	2,930
413,60	0,454
413,81	2,249
414,01	-1,569
414,22	-0,859
414,42	0,944
414,63	-2,965
414,83	4,686
415,04	1,613
415,24	0,645
415,45	3,009
415,65	1,521
415,86	1,032
416,07	2,806
416,27	1,431
416,48	4,959
416,68	-1,236
416,89	0,090
417,09	1,760
417,30	4,680
417,50	1,777
417,71	4,980
417,91	2,911
418,12	-3,812
418,32	0,234
418,53	7,734
418,73	3,741
418,94	2,952
419,14	0,892
419,35	-2,449
419,55	5,199
419,76	3,703
419,96	-3,000
420,17	2,880
420,37	2,143
420,58	6,731
420,78	2,163
420,99	4,284
421,19	2,505
421,40	1,077
421,60	4,189
421,81	1,459
422,01	0,743
422,22	0,375
422,42	0,305
422,63	1,691
422,83	3,015
423,04	5,706
423,24	0,278
423,45	2,806
423,65	5,742
423,86	4,203
424,06	1,728
424,27	3,522
424,47	2,590
424,67	-2,054
424,88	2,663
425,08	3,793
425,29	4,725
425,49	0,689
425,70	-6,775
425,90	2,234
426,11	3,411
426,31	1,278
426,52	0,517
426,72	1,015
426,93	1,762
427,13	1,469
427,33	2,739
427,54	3,934
427,74	3,747
427,95	2,127
428,15	1,977
428,36	2,704
428,56	5,104
428,77	4,356
428,97	-0,728
429,18	3,119
429,38	-3,145
429,58	3,855
429,79	2,336
429,99	5,892
430,20	-0,813
430,40	2,107
430,61	-1,837
430,81	0,120
431,01	6,169
431,22	1,631
431,42	7,670
431,63	3,047
431,83	4,679
432,04	-0,267
432,24	3,422
432,44	1,713
432,65	2,166
432,85	2,468
433,06	5,027
433,26	3,686
433,47	4,090
433,67	2,429
433,87	2,856
434,08	2,666
434,28	1,618
434,49	0,617
434,69	2,845
434,89	1,257
435,10	1,901
435,30	2,740
435,51	0,593
435,71	3,971
435,91	0,347
436,12	1,619
436,32	1,138
436,53	4,317
436,73	-0,126
436,93	3,861
437,14	3,188
437,34	2,458
437,55	4,428
437,75	2,245
437,95	1,543
438,16	1,726
438,36	3,408
438,57	-1,150
438,77	2,844
438,97	0,017
439,18	3,514
439,38	-0,551
439,58	-0,573
439,79	0,565
439,99	2,536
440,20	1,884
440,40	3,145
440,60	3,177
440,81	4,868
441,01	-1,645
441,21	4,048
441,42	2,797
441,62	0,313
441,83	4,269
442,03	-2,396
442,23	5,929
442,44	3,725
442,64	4,055
442,84	-1,308
443,05	1,291
443,25	-0,122
443,45	0,608
443,66	2,461
443,86	-1,432
444,06	-2,653
444,27	-0,338
444,47	3,272
444,67	-1,155
444,88	1,465
445,08	4,316
445,28	4,680
445,49	0,391
445,69	-1,485
445,90	0,468
446,10	0,344
446,30	7,700
446,51	2,720
446,71	4,568
446,91	3,439
447,12	5,470
447,32	5,100
447,52	0,162
447,72	-0,057
447,93	2,819
448,13	-0,134
448,33	6,574
448,54	0,134
448,74	-0,998
448,94	2,881
449,15	6,305
449,35	2,818
449,55	2,258
449,76	7,587
449,96	7,220
450,16	6,475
450,37	0,137
450,57	1,754
450,77	0,217
450,98	1,094
451,18	2,799
451,38	3,675
451,58	-0,698
451,79	6,486
451,99	2,819
452,19	1,543
452,40	-2,190
452,60	0,491
452,80	3,775
453,00	-1,127
453,21	8,435
453,41	0,019
453,61	3,102
453,82	5,222
454,02	0,988
454,22	3,379
454,42	6,370
454,63	3,701
454,83	0,210
455,03	1,677
455,24	3,883
455,44	1,814
455,64	4,847
455,84	-0,833
456,05	4,441
456,25	0,141
456,45	7,853
456,65	-1,788
456,86	5,959
457,06	-0,098
457,26	0,629
457,47	4,170
457,67	4,127
457,87	-0,174
458,07	1,960
458,28	7,581
458,48	6,467
458,68	0,543
458,88	0,059
459,09	6,901
459,29	3,688
459,49	6,029
459,69	4,303
459,90	6,033
460,10	2,266
460,30	5,752
460,50	3,264
460,71	10,932
460,91	2,036
461,11	3,269
461,31	-1,689
461,52	6,006
461,72	2,143
461,92	6,050
462,12	8,156
462,32	1,581
462,53	2,335
462,73	-1,920
462,93	11,004
463,13	1,071
463,34	2,434
463,54	4,877
463,74	6,051
463,94	3,472
464,14	6,823
464,35	5,600
464,55	3,778
464,75	5,161
464,95	5,425
465,16	1,666
465,36	8,241
465,56	8,059
465,76	6,197
465,96	6,140
466,17	5,441
466,37	3,658
466,57	8,950
466,77	9,515
466,97	4,562
467,18	12,567
467,38	7,747
467,58	10,465
467,78	6,287
467,98	10,593
468,19	6,760
468,39	9,181
468,59	8,471
468,79	9,271
468,99	4,253
469,19	6,318
469,40	8,265
469,60	9,031
469,80	3,710
470,00	8,210
470,20	7,765
470,41	7,737
470,61	8,061
470,81	9,368
471,01	5,809
471,21	5,567
471,41	7,317
471,62	6,760
471,82	8,044
472,02	2,947
472,22	6,921
472,42	8,281
472,62	5,754
472,83	9,123
473,03	11,047
473,23	8,637
473,43	10,624
473,63	6,898
473,83	11,763
474,03	8,737
474,24	9,525
474,44	7,369
474,64	11,250
474,84	7,721
475,04	10,364
475,24	9,269
475,45	8,044
475,65	10,894
475,85	12,872
476,05	11,101
476,25	10,642
476,45	11,525
476,65	13,152
476,85	14,577
477,06	13,226
477,26	10,169
477,46	10,708
477,66	12,163
477,86	14,708
478,06	14,323
478,26	15,145
478,46	9,849
478,67	13,500
478,87	13,811
479,07	12,086
479,27	12,392
479,47	14,868
479,67	9,558
479,87	10,797
480,07	13,399
480,28	12,675
480,48	11,170
480,68	16,697
480,88	12,989
481,08	15,670
481,28	17,541
481,48	15,423
481,68	14,595
481,88	17,273
482,08	16,154
482,29	16,289
482,49	14,853
482,69	17,250
482,89	16,340
483,09	16,355
483,29	16,136
483,49	15,976
483,69	17,031
483,89	18,378
484,09	16,558
484,29	15,706
484,50	16,658
484,70	17,305
484,90	17,161
485,10	17,321
485,30	18,505
485,50	18,251
485,70	17,452
485,90	18,489
486,10	16,556
486,30	20,712
486,50	19,835
486,70	18,831
486,90	20,680
487,10	21,088
487,30	21,168
487,51	20,150
487,71	18,007
487,91	20,633
488,11	21,516
488,31	18,079
488,51	22,416
488,71	22,864
488,91	23,556
489,11	19,770
489,31	23,155
489,51	21,759
489,71	22,295
489,91	21,931
490,11	20,876
490,31	22,325
490,51	23,063
490,71	21,330
490,91	22,765
491,11	23,632
491,31	23,698
491,51	22,704
491,72	23,482
491,92	24,805
492,12	22,619
492,32	22,748
492,52	26,131
492,72	24,721
492,92	24,798
493,12	26,994
493,32	25,208
493,52	24,310
493,72	24,198
493,92	26,436
494,12	27,352
494,32	24,523
494,52	23,658
494,72	28,275
494,92	27,848
495,12	27,445
495,32	27,765
495,52	25,208
495,72	28,844
495,92	30,606
496,12	25,366
496,32	25,389
496,52	28,157
496,72	25,235
496,92	28,807
497,12	30,114
497,32	28,923
497,52	30,508
497,72	30,191
497,92	29,704
498,12	29,427
498,32	31,348
498,52	29,525
498,72	28,399
498,92	30,642
499,12	32,573
499,32	31,786
499,52	31,231
499,72	30,569
499,92	29,932
500,12	32,872
500,32	32,162
500,52	30,376
500,72	34,315
500,91	31,856
501,11	35,670
501,31	30,786
501,51	34,459
501,71	33,920
501,91	35,046
502,11	34,932
502,31	32,840
502,51	33,957
502,71	32,303
502,91	36,701
503,11	33,632
503,31	33,708
503,51	33,840
503,71	35,387
503,91	38,322
504,11	35,684
504,31	34,377
504,51	37,774
504,71	35,819
504,91	37,247
505,10	35,029
505,30	36,864
505,50	36,878
505,70	35,180
505,90	37,232
506,10	37,212
506,30	36,901
506,50	36,515
506,70	40,875
506,90	37,287
507,10	38,918
507,30	38,367
507,50	39,533
507,70	37,937
507,89	39,577
508,09	37,201
508,29	37,862
508,49	40,002
508,69	36,269
508,89	38,984
509,09	37,437
509,29	40,153
509,49	37,313
509,69	41,948
509,89	39,517
510,09	38,217
510,28	39,231
510,48	40,545
510,68	38,853
510,88	38,693
511,08	36,953
511,28	43,274
511,48	38,426
511,68	40,810
511,88	38,887
512,07	42,496
512,27	42,581
512,47	43,495
512,67	41,556
512,87	39,086
513,07	41,314
513,27	39,194
513,47	40,555
513,67	41,043
513,86	41,306
514,06	43,135
514,26	42,593
514,46	42,534
514,66	42,849
514,86	43,370
515,06	44,072
515,26	46,245
515,45	43,462
515,65	41,797
515,85	43,713
516,05	40,235
516,25	44,304
516,45	44,971
516,65	41,232
516,84	45,705
517,04	46,244
517,24	47,240
517,44	44,209
517,64	48,182
517,84	47,689
518,04	44,514
518,23	48,488
518,43	46,000
518,63	42,937
518,83	43,596
519,03	43,421
519,23	45,522
519,42	42,332
519,62	46,764
519,82	45,435
520,02	43,533
520,22	44,334
520,42	43,318
520,61	43,282
520,81	47,415
521,01	48,762
521,21	44,483
521,41	47,119
521,61	46,051
521,80	44,008
522,00	47,330
522,20	46,794
522,40	47,022
522,60	48,602
522,79	48,458
522,99	47,421
523,19	44,771
523,39	45,456
523,59	46,356
523,78	45,984
523,98	46,579
524,18	45,937
524,38	50,315
524,58	46,635
524,77	47,502
524,97	47,662
525,17	47,423
525,37	46,933
525,57	48,279
525,76	49,070
525,96	45,887
526,16	45,581
526,36	42,778
526,56	47,973
526,75	43,746
526,95	49,664
527,15	47,735
527,35	47,593
527,55	49,874
527,74	51,456
527,94	46,030
528,14	44,348
528,34	47,072
528,53	47,771
528,73	49,477
528,93	47,449
529,13	48,971
529,32	48,905
529,52	49,597
529,72	46,078
529,92	46,401
530,12	47,719
530,31	44,327
530,51	49,070
530,71	47,586
530,91	47,690
531,10	44,122
531,30	48,821
531,50	46,928
531,70	50,697
531,89	46,760
532,09	46,613
532,29	45,998
532,49	45,118
532,68	45,430
532,88	50,222
533,08	44,949
533,28	46,483
533,47	48,506
533,67	47,753
533,87	45,294
534,06	48,003
534,26	48,921
534,46	48,546
534,66	45,958
534,85	46,984
535,05	45,867
535,25	47,271
535,45	46,498
535,64	46,365
535,84	47,183
536,04	47,028
536,23	51,028
536,43	47,453
536,63	48,731
536,83	48,235
537,02	48,879
537,22	47,114
537,42	44,909
537,61	46,814
537,81	50,541
538,01	47,974
538,20	48,495
538,40	46,114
538,60	45,968
538,80	45,595
538,99	44,908
539,19	45,806
539,39	45,627
539,58	46,585
539,78	44,622
539,98	45,343
540,17	46,699
540,37	44,134
540,57	42,185
540,76	43,465
540,96	42,102
541,16	46,677
541,36	42,249
541,55	41,255
541,75	42,838
541,95	41,396
542,14	42,327
542,34	40,735
542,54	40,800
542,73	41,096
542,93	41,613
543,13	42,115
543,32	41,481
543,52	42,289
543,72	40,217
543,91	39,932
544,11	41,383
544,31	42,102
544,50	40,848
544,70	42,064
544,89	42,649
545,09	39,318
545,29	40,696
545,48	41,088
545,68	39,942
545,88	40,683
546,07	42,488
546,27	42,413
546,47	44,025
546,66	45,550
546,86	43,729
547,06	44,297
547,25	43,136
547,45	47,795
547,64	43,802
547,84	47,324
548,04	45,864
548,23	46,127
548,43	46,967
548,63	49,002
548,82	46,778
549,02	44,917
549,21	45,726
549,41	48,916
549,61	46,491
549,80	46,785
550,00	44,207
550,20	45,888
550,39	46,814
550,59	45,845
550,78	46,666
550,98	45,044
551,18	46,678
551,37	47,926
551,57	46,693
551,76	45,055
551,96	48,674
552,16	46,478
552,35	45,169
552,55	49,459
552,74	49,835
552,94	47,420
553,14	45,418
553,33	46,191
553,53	47,382
553,72	47,796
553,92	48,808
554,12	49,435
554,31	48,109
554,51	47,341
554,70	47,678
554,90	48,981
555,09	49,873
555,29	49,947
555,49	49,074
555,68	50,348
555,88	47,900
556,07	49,831
556,27	49,573
556,46	47,040
556,66	49,340
556,86	49,414
557,05	48,249
557,25	48,320
557,44	49,177
557,64	46,882
557,83	47,849
558,03	49,033
558,22	48,084
558,42	47,248
558,62	50,159
558,81	48,586
559,01	47,788
559,20	47,428
559,40	49,204
559,59	47,720
559,79	47,663
559,98	50,418
560,18	48,463
560,37	50,010
560,57	47,649
560,76	46,952
560,96	48,716
561,16	50,226
561,35	47,909
561,55	48,641
561,74	46,551
561,94	49,531
562,13	47,769
562,33	50,841
562,52	51,100
562,72	51,089
562,91	51,119
563,11	47,947
563,30	54,214
563,50	45,660
563,69	48,549
563,89	48,003
564,08	48,171
564,28	50,000
564,47	47,493
564,67	48,486
564,86	47,994
565,06	47,662
565,25	48,050
565,45	48,392
565,64	50,378
565,84	47,852
566,03	48,456
566,23	50,449
566,42	48,869
566,62	51,003
566,81	48,919
567,01	50,242
567,20	50,349
567,40	47,974
567,59	47,857
567,79	50,130
567,98	48,827
568,18	49,342
568,37	50,347
568,57	49,192
568,76	50,627
568,96	49,649
569,15	49,553
569,35	49,776
569,54	50,133
569,73	50,756
569,93	49,065
570,12	49,928
570,32	51,425
570,51	49,897
570,71	51,341
570,90	50,935
571,10	48,493
571,29	49,326
571,49	49,045
571,68	49,253
571,87	48,150
572,07	46,991
572,26	50,342
572,46	49,179
572,65	51,480
572,85	47,145
573,04	48,969
573,24	48,776
573,43	50,838
573,62	48,778
573,82	49,739
574,01	50,716
574,21	48,177
574,40	49,480
574,60	48,753
574,79	50,690
574,98	49,075
575,18	50,960
575,37	48,444
575,57	49,821
575,76	49,231
575,96	50,094
576,15	49,321
576,34	49,967
576,54	50,028
576,73	50,936
576,93	49,614
577,12	49,166
577,31	48,272
577,51	48,155
577,70	49,657
577,90	50,276
578,09	47,616
578,28	47,797
578,48	48,521
578,67	49,808
578,87	48,438
579,06	48,609
579,25	47,769
579,45	48,571
579,64	48,136
579,84	49,142
580,03	48,027
580,22	49,181
580,42	47,980
580,61	48,970
580,81	49,018
581,00	48,285
581,19	49,136
581,39	48,777
581,58	47,925
581,77	49,314
581,97	49,866
582,16	48,786
582,35	47,204
582,55	48,846
582,74	51,439
582,94	49,426
583,13	49,074
583,32	47,988
583,52	47,160
583,71	48,408
583,90	48,997
584,10	48,749
584,29	48,375
584,48	47,497
584,68	48,404
584,87	47,257
585,06	47,623
585,26	47,933
585,45	48,261
585,65	48,028
585,84	47,329
586,03	48,827
586,23	48,569
586,42	47,992
586,61	48,548
586,81	47,310
587,00	48,227
587,19	47,504
587,39	49,432
587,58	47,465
587,77	48,670
587,97	50,384
588,16	48,231
588,35	48,279
588,54	48,781
588,74	47,588
588,93	48,877
589,12	48,227
589,32	48,955
589,51	50,397
589,70	48,750
589,90	47,504
590,09	49,052
590,28	50,760
590,48	50,273
590,67	47,869
590,86	50,360
591,06	48,346
591,25	48,508
591,44	49,247
591,63	48,995
591,83	48,506
592,02	47,302
592,21	48,038
592,41	48,506
592,60	47,163
592,79	48,200
592,98	47,945
593,18	49,422
593,37	48,112
593,56	48,486
593,76	48,811
593,95	49,152
594,14	48,123
594,33	50,372
594,53	48,795
594,72	47,984
594,91	51,349
595,10	48,607
595,30	48,102
595,49	48,001
595,68	48,130
595,88	47,942
596,07	49,143
596,26	49,930
596,45	50,180
596,65	45,721
596,84	47,719
597,03	48,438
597,22	51,391
597,42	51,255
597,61	49,420
597,80	47,572
597,99	49,731
598,19	50,007
598,38	49,037
598,57	50,268
598,76	49,151
598,95	51,911
599,15	51,146
599,34	51,326
599,53	50,234
599,72	49,619
599,92	50,245
600,11	49,561
600,30	48,687
600,49	49,508
600,69	48,855
600,88	49,343
601,07	48,835
601,26	49,652
601,45	48,558
601,65	49,666
601,84	49,578
602,03	51,944
602,22	49,378
602,42	50,334
602,61	47,993
602,80	49,624
602,99	48,954
603,18	49,026
603,38	46,735
603,57	48,877
603,76	50,408
603,95	49,607
604,14	48,526
604,34	50,319
604,53	50,360
604,72	49,720
604,91	49,954
605,10	50,774
605,29	49,900
605,49	48,919
605,68	48,843
605,87	49,522
606,06	48,068
606,25	48,285
606,45	49,857
606,64	48,805
606,83	48,879
607,02	49,431
607,21	49,262
607,40	49,116
607,60	47,553
607,79	46,728
607,98	47,565
608,17	47,550
608,36	46,980
608,55	46,785
608,75	45,164
608,94	46,716
609,13	44,922
609,32	45,457
609,51	43,942
609,70	44,544
609,89	45,405
610,09	45,685
610,28	44,549
610,47	43,359
610,66	43,739
610,85	43,198
611,04	44,266
611,23	44,209
611,43	45,834
611,62	44,044
611,81	44,056
612,00	44,373
612,19	43,223
612,38	43,869
612,57	44,750
612,77	44,954
612,96	45,289
613,15	44,584
613,34	46,666
613,53	46,025
613,72	47,335
613,91	47,224
614,10	45,116
614,29	46,587
614,49	45,537
614,68	44,998
614,87	47,941
615,06	48,764
615,25	45,221
615,44	49,901
615,63	46,972
615,82	46,096
616,01	47,206
616,21	48,357
616,40	49,506
616,59	48,966
616,78	47,986
616,97	48,656
617,16	49,239
617,35	50,638
617,54	47,843
617,73	49,606
617,92	48,535
618,11	49,551
618,31	46,848
618,50	48,913
618,69	48,515
618,88	46,932
619,07	47,840
619,26	45,705
619,45	48,043
619,64	48,165
619,83	47,798
620,02	47,142
620,21	48,094
620,40	50,135
620,59	47,622
620,78	48,532
620,97	49,250
621,17	47,180
621,36	46,963
621,55	47,926
621,74	47,718
621,93	47,962
622,12	49,122
622,31	48,067
622,50	49,303
622,69	48,428
622,88	50,389
623,07	49,641
623,26	48,496
623,45	48,529
623,64	48,622
623,83	47,223
624,02	48,511
624,21	48,790
624,40	48,780
624,59	48,343
624,78	48,267
624,97	48,366
625,16	47,801
625,35	47,213
625,54	48,849
625,73	49,190
625,92	49,380
626,12	46,877
626,31	49,145
626,50	48,830
626,69	49,288
626,88	45,272
627,07	49,928
627,26	48,189
627,45	47,901
627,64	48,649
627,83	48,771
628,02	48,241
628,21	47,460
628,40	46,705
628,59	47,059
628,78	47,459
628,97	46,556
629,16	48,272
629,35	46,737
629,54	50,179
629,73	48,987
629,92	47,762
630,10	46,510
630,29	48,100
630,48	48,067
630,67	47,313
630,86	47,778
631,05	47,907
631,24	48,727
631,43	46,991
631,62	48,484
631,81	47,853
632,00	46,962
632,19	46,946
632,38	47,259
632,57	48,399
632,76	49,201
632,95	48,972
633,14	49,432
633,33	47,573
633,52	48,595
633,71	49,832
633,90	46,836
634,09	47,466
634,28	49,738
634,47	48,253
634,66	50,212
634,85	48,372
635,04	49,449
635,22	47,833
635,41	47,410
635,60	49,477
635,79	49,106
635,98	48,405
636,17	47,979
636,36	48,744
636,55	48,369
636,74	48,437
636,93	48,745
637,12	51,048
637,31	49,385
637,50	48,615
637,69	47,968
637,87	47,734
638,06	48,879
638,25	48,394
638,44	48,488
638,63	46,779
638,82	49,684
639,01	48,887
639,20	50,123
639,39	47,773
639,58	48,935
639,77	49,978
639,95	48,166
640,14	48,412
640,33	46,714
640,52	48,381
640,71	48,430
640,90	50,599
641,09	52,224
641,28	47,417
641,47	49,749
641,66	49,278
641,84	47,632
642,03	48,279
642,22	49,167
642,41	48,939
642,60	50,255
642,79	48,079
642,98	48,845
643,17	46,309
643,35	48,150
643,54	48,403
643,73	49,604
643,92	49,394
644,11	48,709
644,30	47,195
644,49	49,201
644,67	48,792
644,86	47,757
645,05	50,689
645,24	48,560
645,43	49,728
645,62	50,159
645,81	49,734
645,99	50,580
646,18	49,241
646,37	49,178
646,56	48,442
646,75	50,581
646,94	50,737
647,13	49,283
647,31	49,812
647,50	49,026
647,69	48,562
647,88	47,470
648,07	47,979
648,26	50,842
648,44	46,989
648,63	47,601
648,82	48,403
649,01	50,532
649,20	46,549
649,38	49,903
649,57	49,089
649,76	48,017
649,95	48,119
650,14	47,612
650,33	46,846
650,51	48,266
650,70	49,761
650,89	48,680
651,08	49,723
651,27	47,599
651,45	47,419
651,64	48,639
651,83	50,028
652,02	49,588
652,21	49,546
652,39	50,007
652,58	47,999
652,77	47,708
652,96	49,595
653,15	48,143
653,33	47,198
653,52	49,636
653,71	47,938
653,90	48,186
654,09	48,915
654,27	49,347
654,46	50,591
654,65	49,983
654,84	48,237
655,02	51,051
655,21	50,352
655,40	51,085
655,59	48,282
655,77	50,743
655,96	49,252
656,15	50,038
656,34	49,955
656,53	49,327
656,71	48,437
656,90	50,584
657,09	51,244
657,28	49,792
657,46	49,815
657,65	51,694
657,84	48,816
658,03	49,546
658,21	50,979
658,40	49,700
658,59	49,574
658,78	51,091
658,96	48,886
659,15	49,118
659,34	51,109
659,52	49,704
659,71	48,828
659,90	48,554
660,09	48,533
660,27	48,262
660,46	46,252
660,65	48,999
660,84	48,414
661,02	48,067
661,21	48,720
661,40	49,744
661,58	50,139
661,77	47,650
661,96	48,541
662,15	48,895
662,33	48,713
662,52	47,330
662,71	49,221
662,89	47,534
663,08	48,022
663,27	47,741
663,45	48,373
663,64	47,718
663,83	47,067
664,02	48,302
664,20	47,998
664,39	47,400
664,58	49,038
664,76	48,243
664,95	49,017
665,14	46,611
665,32	47,886
665,51	48,082
665,70	46,960
665,88	48,191
666,07	49,796
666,26	48,155
666,44	49,374
666,63	48,356
666,82	46,933
667,00	49,797
667,19	48,432
667,38	47,741
667,56	49,186
667,75	47,990
667,94	46,419
668,12	47,209
668,31	48,892
668,50	48,057
668,68	48,765
668,87	48,786
669,06	48,948
669,24	48,628
669,43	48,512
669,62	45,782
669,80	48,261
669,99	48,798
670,18	47,298
670,36	48,757
670,55	47,625
670,74	49,902
670,92	47,733
671,11	48,316
671,29	48,718
671,48	48,039
671,67	48,921
671,85	49,353
672,04	47,388
672,23	46,844
672,41	46,703
672,60	49,484
672,78	47,700
672,97	47,670
673,16	49,668
673,34	49,953
673,53	49,727
673,71	47,898
673,90	48,375
674,09	48,850
674,27	47,241
674,46	47,486
674,64	51,108
674,83	47,827
675,02	46,592
675,20	48,636
675,39	47,857
675,57	48,816
675,76	47,648
675,95	49,715
676,13	49,625
676,32	48,997
676,50	49,279
676,69	48,791
676,88	47,194
677,06	48,745
677,25	48,344
677,43	50,256
677,62	49,122
677,80	48,858
677,99	47,712
678,18	48,968
678,36	49,649
678,55	48,531
678,73	49,480
678,92	49,088
679,10	47,737
679,29	48,328
679,48	46,871
679,66	47,540
679,85	48,094
680,03	49,406
680,22	51,090
680,40	46,744
680,59	48,026
680,77	48,825
680,96	50,505
681,15	47,842
681,33	47,812
681,52	47,432
681,70	47,825
681,89	50,061
682,07	48,435
682,26	48,797
682,44	48,020
682,63	49,478
682,81	48,756
683,00	50,112
683,18	48,396
683,37	50,066
683,55	47,008
683,74	48,270
683,92	48,652
684,11	49,570
684,29	47,848
684,48	46,693
684,67	47,257
684,85	48,363
685,04	48,418
685,22	48,829
685,41	47,468
685,59	48,968
685,78	47,687
685,96	49,196
686,15	48,639
686,33	48,658
686,52	49,020
686,70	48,073
686,89	48,784
687,07	48,497
687,26	49,656
687,44	50,761
687,62	47,200
687,81	48,436
687,99	46,999
688,18	48,699
688,36	48,669
688,55	47,922
688,73	49,120
688,92	48,550
689,10	48,221
689,29	49,268
689,47	49,310
689,66	47,669
689,84	48,017
690,03	51,227
690,21	48,410
690,40	48,972
690,58	48,595
690,76	48,364
690,95	49,066
691,13	50,086
691,32	47,359
691,50	49,567
691,69	47,651
691,87	48,119
692,06	47,473
692,24	48,051
692,43	49,387
692,61	46,685
692,79	48,886
692,98	47,416
693,16	49,097
693,35	48,748
693,53	50,068
693,72	49,103
693,90	48,346
694,08	47,916
694,27	48,603
694,45	50,125
694,64	49,868
694,82	49,164
695,01	47,066
695,19	50,421
695,37	48,056
695,56	48,369
695,74	47,421
695,93	47,623
696,11	46,707
696,29	48,868
696,48	48,567
696,66	49,261
696,85	50,020
697,03	48,550
697,21	50,120
697,40	48,512
697,58	49,579
697,77	46,357
697,95	48,730
698,13	49,938
698,32	49,047
698,50	48,744
698,69	48,224
698,87	48,744
699,05	47,235
699,24	48,464
699,42	48,056
699,60	46,617
699,79	48,628
699,97	49,364
700,16	46,952
700,34	47,871
700,52	49,256
700,71	48,443
700,89	48,275
701,07	48,940
701,26	48,685
701,44	50,028
701,63	48,771
701,81	48,650
701,99	47,945
702,18	47,465
702,36	45,878
702,54	46,703
702,73	47,033
702,91	47,894
703,09	47,631
703,28	47,789
703,46	48,926
703,64	47,896
703,83	48,924
704,01	49,327
704,19	48,657
704,38	47,125
704,56	48,277
704,74	47,450
704,93	48,290
705,11	48,586
705,29	49,891
705,48	48,505
705,66	46,970
705,84	46,745
706,03	47,710
706,21	47,827
706,39	48,231
706,58	48,845
706,76	47,959
706,94	49,785
707,12	48,771
707,31	48,133
707,49	46,607
707,67	46,694
707,86	47,135
708,04	47,597
708,22	48,714
708,41	47,753
708,59	46,849
708,77	48,213
708,95	49,697
709,14	50,812
709,32	48,239
709,50	48,526
709,69	47,830
709,87	47,059
710,05	48,418
710,23	48,723
710,42	47,919
710,60	47,933
710,78	47,580
710,97	46,474
711,15	48,106
711,33	49,639
711,51	46,763
711,70	45,895
711,88	47,345
712,06	48,958
712,24	48,651
712,43	48,771
712,61	47,731
712,79	49,097
712,97	47,735
713,16	50,149
713,34	48,456
713,52	47,275
713,70	47,684
713,89	50,058
714,07	47,320
714,25	47,856
714,43	48,722
714,62	48,054
714,80	49,167
714,98	46,582
715,16	47,656
715,35	46,179
715,53	46,814
715,71	47,707
715,89	48,679
716,07	48,883
716,26	47,875
716,44	47,943
716,62	47,104
716,80	48,045
716,99	47,830
717,17	47,027
717,35	49,015
717,53	48,515
717,71	48,579
717,90	48,417
718,08	46,193
718,26	48,708
718,44	48,025
718,62	47,969
718,81	46,439
718,99	49,027
719,17	47,940
719,35	47,931
719,53	47,474
719,72	48,447
719,90	49,578
720,08	47,555
720,26	49,092
720,44	47,199
720,62	46,487
720,81	48,205
720,99	51,583
721,17	48,216
721,35	48,112
721,53	49,730
721,72	48,173
721,90	47,989
722,08	49,598
722,26	47,061
722,44	47,043
722,62	47,404
722,81	47,127
722,99	48,020
723,17	47,526
723,35	49,006
723,53	48,345
723,71	49,567
723,89	47,693
724,08	47,673
724,26	49,260
724,44	48,612
724,62	47,934
724,80	46,294
724,98	47,627
725,16	47,513
725,35	47,372
725,53	46,941
725,71	47,616
725,89	47,404
726,07	48,740
726,25	49,771
726,43	49,381
726,61	47,644
726,80	47,210
726,98	46,857
727,16	48,061
727,34	49,674
727,52	49,283
727,70	46,725
727,88	48,661
728,06	47,535
728,25	47,227
728,43	49,026
728,61	46,705
728,79	47,198
728,97	47,516
729,15	47,702
729,33	48,267
729,51	48,904
729,69	47,769
729,87	46,527
730,06	48,549
730,24	47,239
730,42	49,376
730,60	47,381
730,78	48,140
730,96	48,013
731,14	47,013
731,32	46,903
731,50	47,275
731,68	47,322
731,86	46,962
732,04	48,508
732,22	48,376
732,41	48,661
732,59	48,542
732,77	48,760
732,95	48,532
733,13	47,704
733,31	47,144
733,49	47,663
733,67	48,763
733,85	48,491
734,03	49,262
734,21	46,987
734,39	48,311
734,57	48,000
734,75	47,134
734,93	48,821
735,11	47,480
735,29	47,626
735,47	48,906
735,65	47,371
735,84	45,644
736,02	47,888
736,20	47,807
736,38	49,212
736,56	47,849
736,74	49,002
736,92	48,210
737,10	48,572
737,28	48,806
737,46	48,303
737,64	47,536
737,82	48,564
738,00	47,788
738,18	47,782
738,36	46,850
738,54	48,049
738,72	47,328
738,90	48,211
739,08	49,468
739,26	44,130
739,44	48,198
739,62	47,011
739,80	48,406
739,98	50,924
740,16	47,479
740,34	49,274
740,52	48,267
740,70	48,848
740,88	46,652
741,06	46,523
741,24	50,026
741,42	47,801
741,60	49,059
741,78	48,673
741,96	46,812
742,14	49,091
742,32	46,580
742,50	48,426
742,68	47,435
742,86	47,212
743,04	48,523
743,21	48,174
743,39	48,934
743,57	48,156
743,75	46,835
743,93	48,049
744,11	47,858
744,29	47,488
744,47	47,076
744,65	47,406
744,83	44,685
745,01	47,956
745,19	46,762
745,37	48,216
745,55	47,426
745,73	49,544
745,91	48,723
746,09	47,367
746,27	46,226
746,45	48,142
746,62	47,534
746,80	48,835
746,98	46,408
747,16	47,360
747,34	48,618
747,52	46,891
747,70	48,393
747,88	48,030
748,06	48,390
748,24	46,888
748,42	46,117
748,60	48,127
748,78	48,391
748,95	46,913
749,13	49,245
749,31	48,071
749,49	47,449
749,67	47,969
749,85	49,662
750,03	49,496
750,21	46,978
750,39	48,568
750,57	49,589
750,74	47,815
750,92	47,138
751,10	48,546
751,28	45,914
751,46	46,814
751,64	48,094
751,82	48,366
752,00	48,272
752,17	50,325
752,35	45,380
752,53	48,786
752,71	48,093
752,89	48,881
753,07	49,411
753,25	47,967
753,43	46,783
753,60	49,861
753,78	47,114
753,96	49,191
754,14	47,078
754,32	47,496
754,50	49,197
754,68	47,436
754,85	49,329
755,03	48,552
755,21	49,217
755,39	48,082
755,57	48,627
755,75	48,092
755,92	49,116
756,10	47,275
756,28	49,605
756,46	48,819
756,64	47,302
756,82	47,029
756,99	48,222
757,17	47,648
757,35	46,334
757,53	49,036
757,71	49,686
757,89	46,251
758,06	49,061
758,24	48,649
758,42	47,536
758,60	48,084
758,78	47,335
758,95	49,106
759,13	48,066
759,31	49,013
759,49	46,208
759,67	47,203
759,84	47,378
760,02	47,918
760,20	47,080
760,38	47,562
760,56	46,927
760,73	50,566
760,91	48,574
761,09	48,848
761,27	47,011
761,45	47,423
761,62	47,331
761,80	46,577
761,98	47,441
762,16	47,999
762,33	48,623
762,51	49,345
762,69	48,733
762,87	47,415
763,05	44,996
763,22	46,137
763,40	47,699
763,58	47,180
763,76	48,671
763,93	49,250
764,11	49,867
764,29	47,435
764,47	46,462
764,64	47,252
764,82	50,393
765,00	47,195
765,18	44,748
765,35	45,712
765,53	49,445
765,71	47,404
765,89	47,898
766,06	48,866
766,24	47,132
766,42	47,464
766,60	46,377
766,77	47,189
766,95	48,203
767,13	50,320
767,30	50,018
767,48	47,379
767,66	47,716
767,84	47,262
768,01	47,647
768,19	47,214
768,37	47,635
768,54	47,056
768,72	48,360
768,90	46,849
769,08	47,622
769,25	48,521
769,43	47,761
769,61	47,135
769,78	47,177
769,96	47,814
770,14	47,820
770,31	47,692
770,49	46,229
770,67	50,000
770,85	48,235
771,02	48,283
771,20	46,932
771,38	49,022
771,55	48,334
771,73	47,948
771,91	47,896
772,08	51,353
772,26	46,683
772,44	46,475
772,61	45,663
772,79	48,321
772,97	47,623
773,14	46,283
773,32	47,004
773,50	47,183
773,67	47,400
773,85	49,310
774,03	48,213
774,20	47,776
774,38	50,483
774,56	48,500
774,73	47,330
774,91	48,140
775,09	49,161
775,26	47,538
775,44	49,137
775,61	50,216
775,79	46,490
775,97	47,722
776,14	48,454
776,32	46,832
776,50	47,586
776,67	47,812
776,85	48,616
777,03	46,504
777,20	48,300
777,38	47,844
777,55	45,469
777,73	46,388
777,91	47,864
778,08	48,598
778,26	48,621
778,43	49,074
778,61	44,858
778,79	47,902
778,96	46,661
779,14	49,065
779,32	46,144
779,49	50,222
779,67	48,247
779,84	48,251
780,02	48,865
780,20	44,460
780,37	50,846
780,55	46,774
780,72	49,937
780,90	50,307
781,07	46,839
781,25	49,916
781,43	47,793
781,60	49,292
781,78	47,811
781,95	48,883
782,13	47,586
782,30	47,089
782,48	46,199
782,66	47,573
782,83	45,106
783,01	47,579
783,18	47,226
783,36	49,690
783,53	50,574
783,71	47,974
783,89	46,126
784,06	48,773
784,24	49,619
784,41	50,345
784,59	49,577
784,76	46,080
784,94	50,011
785,11	47,534
785,29	46,876
785,46	46,143
785,64	47,331
785,82	47,899
785,99	45,112
786,17	47,196
786,34	49,151
786,52	47,147
786,69	49,192
786,87	47,116
787,04	49,622
787,22	47,568
787,39	48,167
787,57	47,261
787,74	46,854
787,92	49,919
788,09	50,060
788,27	47,300
788,44	47,791
788,62	48,089
788,79	48,043
788,97	53,280
789,14	48,203
789,32	48,147
789,49	46,986
789,67	46,645
789,84	49,802
790,02	46,457
790,19	48,182
790,37	47,817
790,54	47,662
790,72	49,321
790,89	50,517
791,07	48,859
791,24	47,684
791,42	48,031
791,59	47,926
791,77	46,059
791,94	48,052
792,12	49,601
792,29	49,902
792,47	47,731
792,64	49,901
792,81	45,594
792,99	47,303
793,16	49,939
793,34	47,918
793,51	47,595
793,69	48,839
793,86	47,367
794,04	50,293
794,21	49,543
794,39	46,738
794,56	49,559
794,73	50,748
794,91	50,268
795,08	45,961
795,26	49,432
795,43	47,238
795,61	48,547
795,78	52,911
795,95	48,503
796,13	48,972
796,30	45,957
796,48	48,414
796,65	50,066
796,83	47,820
797,00	49,816
797,17	45,410
797,35	50,490
797,52	49,835
797,70	50,757
797,87	47,974
798,04	45,697
798,22	51,627
798,39	46,689
798,57	45,753
798,74	49,386
798,91	49,971
799,09	47,316
799,26	48,381
799,44	47,151
799,61	47,946
799,78	51,206
799,96	47,050
800,13	53,272
800,31	48,445
800,48	52,436
800,65	46,853
800,83	45,636
801,00	49,805
801,17	48,046
801,35	50,198
801,52	47,748
801,70	47,504
801,87	48,412
802,04	48,129
802,22	47,377
802,39	50,045
802,56	51,566
802,74	47,664
802,91	48,014
803,08	46,776
803,26	46,834
803,43	49,722
803,61	51,253
803,78	44,729
803,95	46,773
804,13	47,083
804,30	47,915
804,47	48,802
804,65	50,581
804,82	47,780
804,99	51,071
805,17	49,859
805,34	50,339
805,51	53,170
805,69	45,914
805,86	49,138
806,03	51,772
806,21	52,404
806,38	46,419
806,55	48,535
806,72	50,550
806,90	50,033
807,07	51,525
807,24	49,093
807,42	51,457
807,59	48,994
807,76	44,465
807,94	48,787
808,11	49,577
808,28	48,609
808,45	47,092
808,63	46,784
808,80	51,694
808,97	48,042
809,15	50,403
809,32	48,765
809,49	46,278
809,67	49,570
809,84	49,591
810,01	50,517
810,18	51,485
810,36	50,036
810,53	52,005
810,70	49,396
810,87	49,205
811,05	48,100
811,22	48,773
811,39	48,036
811,57	50,684
811,74	52,140
811,91	46,511
812,08	44,766
812,26	47,716
812,43	46,434
812,60	51,445
812,77	45,644
812,95	48,286
813,12	53,320
813,29	43,704
813,46	50,020
813,64	46,182
813,81	47,829
813,98	47,925
814,15	54,638
814,32	47,213
814,50	48,357
814,67	49,980
814,84	47,996
815,01	50,545
815,19	49,299
815,36	47,898
815,53	45,767
815,70	48,479
815,87	51,823
816,05	49,353
816,22	51,701
816,39	53,252
816,56	51,022
816,74	47,435
816,91	51,154
817,08	52,503
817,25	46,994
817,42	52,674
817,60	46,688
817,77	45,663
817,94	50,872
818,11	51,297
818,28	47,652
818,45	49,789
818,63	52,106
818,80	48,513
818,97	46,149
819,14	50,629
819,31	49,220
819,49	50,240
819,66	48,326
819,83	47,785
820,00	48,072
820,17	50,239
820,34	49,662
820,52	53,776
820,69	47,263
820,86	44,526
821,03	47,019
821,20	51,358
821,37	48,431
821,55	47,703
821,72	48,251
821,89	49,650
822,06	54,305
822,23	43,120
822,40	47,512
822,57	49,406
822,75	52,323
822,92	50,563
823,09	51,565
823,26	51,698
823,43	55,343
823,60	44,640
823,77	49,064
823,94	55,935
824,12	56,407
824,29	47,034
824,46	49,072
824,63	43,182
824,80	50,784
824,97	48,750
825,14	54,518
825,31	52,866
825,49	50,454
825,66	49,050
825,83	49,072
826,00	54,566
826,17	55,803
826,34	51,064
826,51	45,821
826,68	40,035
826,85	54,895
827,02	51,988
827,20	47,558
827,37	46,475
827,54	51,226
827,71	48,514
827,88	51,686
828,05	53,567
828,22	46,117
828,39	48,148
828,56	54,624
828,73	47,665
828,90	47,929
829,07	52,889
829,25	51,868
829,42	49,030
829,59	50,170
829,76	51,606
829,93	51,913
830,10	51,379
830,27	46,081
830,44	53,369
830,61	51,495
830,78	52,688
830,95	49,766
831,12	51,269
831,29	46,975
831,46	49,292
831,63	51,748
831,80	52,499
831,97	47,969
832,14	52,492
832,31	54,783
832,48	49,605
832,65	51,180
832,83	50,001
833,00	50,698
833,17	47,357
833,34	50,060
833,51	48,687
833,68	49,757
833,85	49,912
834,02	48,303
834,19	45,147
834,36	52,510
834,53	47,072
834,70	43,505
834,87	51,555
835,04	48,657
835,21	49,179
835,38	48,706
835,55	53,594
835,72	52,980
835,89	50,920
836,06	59,876
836,23	56,554
836,40	50,363
836,57	46,110
836,74	56,095
836,91	49,397
837,08	47,228
837,25	49,106
837,42	44,619
837,59	50,169
837,76	51,496
837,93	50,737
838,09	49,296
838,26	51,677
838,43	49,899
838,60	44,527
838,77	51,091
838,94	55,923
839,11	53,979
839,28	53,192
839,45	54,544
839,62	53,896
839,79	53,076
839,96	59,803
840,13	59,712
840,30	48,241
840,47	46,700
840,64	35,551
840,81	57,803
840,98	46,583
841,15	47,066
841,32	42,747
841,48	54,014
841,65	52,514
841,82	49,149
841,99	47,575
842,16	45,057
842,33	57,530
842,50	44,414
842,67	50,271
842,84	54,448
843,01	49,852
843,18	52,170
843,35	51,976
843,52	43,572
843,68	47,178
843,85	55,269
844,02	53,536
844,19	49,231
844,36	55,267
844,53	54,174
844,70	57,162
844,87	53,022
845,04	46,652
845,21	49,311
845,37	53,024
845,54	53,270
845,71	37,465
845,88	46,352
846,05	47,019
846,22	50,885
846,39	48,073
846,56	54,534
846,72	38,423
846,89	48,511
847,06	51,321
847,23	56,418
847,40	48,052
847,57	51,999
847,74	45,232
847,90	52,910
848,07	52,348
848,24	57,623
848,41	49,522
848,58	53,287
848,75	50,536
848,92	51,744
849,08	40,392
849,25	63,235
849,42	47,954
849,59	53,159
849,76	53,019
849,93	52,254
850,09	61,431
850,26	44,705
850,43	53,663
850,60	51,613
850,77	49,812
850,94	59,808
851,10	53,114
851,27	46,613
851,44	52,612
851,61	47,589
851,78	55,275
851,95	49,832
852,11	60,865
852,28	63,825
852,45	51,817
852,62	48,961
852,79	50,500
852,95	48,312
853,12	62,283
853,29	46,463
853,46	49,412
853,63	59,016
853,79	52,486
853,96	50,272
854,13	55,526
854,30	48,886
854,46	58,200
854,63	50,956
854,80	64,419
854,97	46,210
855,14	53,280
855,30	57,842
855,47	49,655
855,64	48,941
855,81	52,971
855,97	45,160
856,14	54,405
856,31	48,668
856,48	50,058
856,65	61,679
856,81	49,054
856,98	45,376
857,15	55,522
857,32	42,901
857,48	49,022
857,65	55,685
857,82	48,780
857,99	54,199
858,15	50,963
858,32	39,111
858,49	63,070
858,65	56,471
858,82	59,988
858,99	59,244
859,16	44,720
859,32	51,330
859,49	46,344
859,66	41,555
859,83	43,624
859,99	59,356
860,16	58,732
860,33	54,282
860,49	31,866
860,66	60,911
860,83	49,824
861,00	52,547
861,16	57,173
861,33	56,228
861,50	56,750
861,66	50,955
861,83	61,357
862,00	47,477
862,16	55,621
862,33	44,022
862,50	60,021
862,67	45,953
862,83	41,028
863,00	52,414
863,17	54,493
863,33	56,158
863,50	45,479
863,67	51,723
863,83	58,984
864,00	39,353
864,17	41,959
864,33	43,833
864,50	48,116
864,67	63,142
864,83	45,954
865,00	51,800
865,17	55,447
865,33	64,503
865,50	50,612
865,67	39,913
865,83	40,082
866,00	70,553
866,17	53,967
866,33	61,474
866,50	69,718
866,66	62,945
866,83	59,049
867,00	68,051
867,16	56,890
867,33	45,140
867,50	20,429
867,66	58,303
867,83	72,054
868,00	45,983
868,16	53,876
868,33	39,031
868,49	54,030
868,66	43,309
868,83	62,696
868,99	60,569
869,16	88,331
869,32	63,412
869,49	47,223
869,66	49,869
869,82	61,852
869,99	54,138
870,15	54,451
870,32	81,357
870,49	60,824
870,65	79,513
870,82	53,622
870,98	52,049
871,15	77,774
871,32	56,822
871,48	27,839
871,65	27,413
871,81	61,415
871,98	37,395
872,15	50,576
872,31	36,756
872,48	82,736
872,64	63,130
872,81	31,583
872,97	47,245
873,14	43,615
873,31	43,669
873,47	48,166
873,64	40,736
873,80	72,864
873,97	57,767
874,13	15,789
874,30	45,159
874,46	57,414
874,63	28,650
874,80	49,865
874,96	43,751
875,13	80,339
875,29	56,306
875,46	77,328
875,62	47,822
875,79	34,860
875,95	47,330
876,12	51,612
876,28	46,785
876,45	82,008
876,61	56,412
876,78	59,097
876,94	58,110
877,11	78,269
877,27	48,042
877,44	60,070
877,60	77,774
877,77	72,296
877,94	57,719
878,10	59,970
878,27	68,742
878,43	61,313
878,60	69,647
878,76	85,441
878,93	48,408
879,09	63,673
879,26	83,536
879,42	55,364
879,58	69,621
879,75	32,126
879,91	60,433
880,08	-5,107
880,24	30,386
880,41	74,228
880,57	50,802
880,74	33,394
880,90	44,482
881,07	39,960
881,23	18,943
881,40	67,441
881,56	71,258
881,73	77,012
881,89	69,851
882,06	12,071
882,22	117,172
882,38	133,155
882,55	102,145
882,71	66,409
882,88	41,080
883,04	100,573
883,21	136,672
883,37	51,416
883,54	23,480
883,70	54,757
883,86	88,220
884,03	50,205
884,19	61,371
884,36	-57,272
884,52	48,693
884,69	54,344
884,85	40,577
885,01	51,089
885,18	58,636
885,34	6,030
885,51	15,715
885,67	66,134
>>>>> Data<<<<< Espectral Procesado Extremo
