Fichero De Datos De SpectraSuite
++++++++++++++++++++++++++++++++++++
Fecha: Wed Apr 22 10:15:38 CEST 2009
Usuario: evoflor
Presente Oscuro Del Espectro: Sí
La Referencia de Presente Del Espectro De: Sí
Muestreados de los componentes de Número de espectros: 1
Espectrómetros: USB4F02353
Tiempo de integración (usec): 500000 (USB4F02353)
Promedio de Espectros Hechos un: 5 (USB4F02353)
El Alisar Del Furgón: 0 (USB4F02353)
Párrafo de de Corregir del la del del de Eléctrica del obscuridad: Sí (USB4F02353)
Estrobo/Lámpara Permitido: No (USB4F02353)
Correct for Detector Non-linearity: No (USB4F02353)
Párrafo de de Corregir del la del del de Externa del luz: No (USB4F02353)
Procesado del espectro de Número de pixeles en: 3648
>>>>> Comienza Data<<<<< Espectral Procesado Del EL
177,79	118,559
178,00	118,559
178,22	118,559
178,44	250,714
178,66	211,631
178,88	256,075
179,09	-102,064
179,31	145,017
179,53	235,867
179,75	88,509
179,96	82,629
180,18	-32,262
180,40	87,850
180,62	199,695
180,83	-79,401
181,05	91,646
181,27	-9585,000
181,49	-99,098
181,70	119,942
181,92	363,883
182,14	-38,901
182,36	-14,885
182,58	264,150
182,79	-242,478
183,01	86,244
183,23	-11,150
183,45	-167,954
183,66	232,367
183,88	-510,088
184,10	-1270,636
184,32	57,141
184,53	65,874
184,75	-2,657
184,97	57,829
185,18	-48,468
185,40	-379,255
185,62	62,128
185,84	32,718
186,05	32,409
186,27	-17,367
186,49	3276,346
186,71	19,531
186,92	-2,557
187,14	47,140
187,36	12,432
187,58	8,326
187,79	64,764
188,01	-33,872
188,23	41,804
188,45	25,105
188,66	-13,460
188,88	251,182
189,10	-194,850
189,31	15,896
189,53	214,571
189,75	246,784
189,97	5,712
190,18	-32,253
190,40	416,382
190,62	75,605
190,83	-51,916
191,05	12,377
191,27	9,386
191,49	59,369
191,70	347,668
191,92	-35,466
192,14	-36,488
192,35	390,676
192,57	-369,000
192,79	-46,927
193,01	-32,651
193,22	-18,912
193,44	91,152
193,66	95,892
193,87	120,739
194,09	140,386
194,31	50,751
194,53	469,825
194,74	16,911
194,96	-31,477
195,18	81,000
195,39	181,306
195,61	-12,922
195,83	-3,228
196,04	59,710
196,26	-16,508
196,48	18,348
196,70	-47,147
196,91	-56,632
197,13	131,354
197,35	8,575
197,56	511,718
197,78	830,485
198,00	41,853
198,21	247,500
198,43	-212,703
198,65	69,328
198,86	312,896
199,08	16,672
199,30	86,812
199,51	109,495
199,73	154,900
199,95	242,042
200,16	116,481
200,38	186,293
200,60	-33,830
200,81	182,409
201,03	-181,834
201,25	129,150
201,46	71,693
201,68	121,004
201,90	892,841
202,11	-67,500
202,33	93,151
202,55	-296,438
202,76	258,827
202,98	-101,446
203,20	66,418
203,41	44,289
203,63	-20,751
203,85	-21285,000
204,06	-92,610
204,28	11,602
204,50	92,766
204,71	88,489
204,93	-808,920
205,15	80,377
205,36	-37,256
205,58	154,866
205,80	34,374
206,01	-12,492
206,23	25,343
206,45	163,648
206,66	28,653
206,88	-64,513
207,10	44,284
207,31	112,828
207,53	-36,900
207,75	60,987
207,96	-264,291
208,18	40,469
208,39	-11,714
208,61	582,429
208,83	-25,914
209,04	-43,073
209,26	-93,940
209,48	36,948
209,69	0,944
209,91	74,949
210,13	48,469
210,34	-26,913
210,56	59,012
210,77	-316,417
210,99	3,262
211,21	-971,471
211,42	43,818
211,64	122,151
211,86	40,728
212,07	232,348
212,29	-1,944
212,50	48,790
212,72	-271,212
212,94	115,574
213,15	42,840
213,37	4,488
213,58	156,353
213,80	-1210,179
214,02	-1395,000
214,23	99,608
214,45	22,574
214,67	-259,573
214,88	236,628
215,10	63,935
215,31	22,893
215,53	-111,170
215,75	-8,374
215,96	204,876
216,18	223,732
216,39	4,569
216,61	-114,662
216,83	-391,138
217,04	127,921
217,26	-25,185
217,47	66,708
217,69	116,780
217,91	246,688
218,12	-33885,000
218,34	129,685
218,55	-46,194
218,77	28,675
218,99	69,123
219,20	114,726
219,42	81,837
219,63	56,322
219,85	107,788
220,06	5,712
220,28	14,123
220,50	48,527
220,71	47,381
220,93	-651,226
221,14	363,150
221,36	-23,489
221,58	82,391
221,79	-74,855
222,01	-57,026
222,22	80,822
222,44	-822,640
222,65	99,768
222,87	67,028
223,09	137,144
223,30	35,695
223,52	119,107
223,73	77,727
223,95	-94,246
224,16	-19,206
224,38	50,438
224,60	36,847
224,81	-0,731
225,03	6,591
225,24	91,779
225,46	-91,719
225,67	-10,043
225,89	63,200
226,10	327,063
226,32	-38,520
226,54	2,686
226,75	-59,192
226,97	8,700
227,18	3,873
227,40	-9,904
227,61	38,504
227,83	15,993
228,04	34,842
228,26	18,078
228,47	30,027
228,69	1,796
228,91	34,543
229,12	-29,279
229,34	40,151
229,55	18,477
229,77	-3,570
229,98	-72,053
230,20	2,099
230,41	-65,728
230,63	-37,575
230,84	10,916
231,06	16,734
231,27	16,054
231,49	10,939
231,71	24,448
231,92	22,655
232,14	-1,082
232,35	-10,429
232,57	13,379
232,78	-17,424
233,00	-19,629
233,21	16,245
233,43	-28,595
233,64	-6,573
233,86	-3,514
234,07	-26,932
234,29	23,011
234,50	4,826
234,72	2,862
234,93	-6,028
235,15	22,224
235,36	9,712
235,58	-10,247
235,79	24,479
236,01	-4,273
236,22	5,057
236,44	15,706
236,65	6,993
236,87	17,510
237,08	-0,479
237,30	-22,190
237,51	-2,759
237,73	2,685
237,94	7,832
238,16	-0,339
238,37	-4,224
238,59	7,212
238,80	-3,744
239,02	-5,224
239,23	0,444
239,45	-9,324
239,66	10,859
239,88	8,944
240,09	18,571
240,31	-11,138
240,52	5,331
240,74	0,070
240,95	3,939
241,17	6,840
241,38	4,210
241,60	7,463
241,81	10,391
242,03	1,451
242,24	7,299
242,46	8,079
242,67	1,464
242,89	2,194
243,10	16,957
243,32	5,436
243,53	3,115
243,75	3,575
243,96	2,129
244,18	1,794
244,39	0,708
244,60	4,037
244,82	0,113
245,03	-0,581
245,25	5,887
245,46	10,791
245,68	-6,982
245,89	-1,013
246,11	-1,434
246,32	3,754
246,54	-2,569
246,75	2,393
246,97	4,073
247,18	5,787
247,39	1,810
247,61	1,911
247,82	-3,185
248,04	2,238
248,25	6,520
248,47	4,761
248,68	0,147
248,90	-2,101
249,11	6,793
249,33	5,150
249,54	-0,299
249,75	5,810
249,97	-1,134
250,18	-2,447
250,40	5,304
250,61	-3,161
250,83	-0,926
251,04	-9,646
251,25	-1,709
251,47	-4,444
251,68	4,623
251,90	0,324
252,11	1,983
252,33	4,126
252,54	-1,327
252,76	-0,293
252,97	3,603
253,18	0,080
253,40	-0,895
253,61	-2,250
253,83	4,021
254,04	4,817
254,25	0,979
254,47	3,447
254,68	-0,236
254,90	1,671
255,11	5,156
255,33	3,957
255,54	-0,814
255,75	-2,432
255,97	2,553
256,18	-0,412
256,40	-1,351
256,61	3,504
256,82	-4,141
257,04	6,606
257,25	-2,553
257,47	-1,084
257,68	0,574
257,89	-0,232
258,11	1,977
258,32	-1,102
258,54	4,929
258,75	2,471
258,96	6,406
259,18	4,219
259,39	-0,015
259,61	2,240
259,82	2,696
260,03	1,175
260,25	0,148
260,46	-5,208
260,68	-1,724
260,89	-2,054
261,10	-1,472
261,32	1,599
261,53	1,353
261,75	0,585
261,96	-5,961
262,17	1,773
262,39	1,345
262,60	2,427
262,81	-2,299
263,03	3,770
263,24	1,823
263,46	-2,679
263,67	2,932
263,88	-2,875
264,10	0,783
264,31	-0,761
264,52	1,122
264,74	3,118
264,95	1,580
265,17	2,159
265,38	-0,093
265,59	3,169
265,81	-0,898
266,02	-3,797
266,23	-0,129
266,45	3,108
266,66	1,452
266,87	3,202
267,09	-1,168
267,30	1,777
267,52	0,106
267,73	1,310
267,94	0,805
268,16	0,509
268,37	3,833
268,58	2,733
268,80	2,368
269,01	-2,730
269,22	0,280
269,44	0,933
269,65	0,523
269,86	3,143
270,08	4,662
270,29	-0,203
270,50	2,454
270,72	4,158
270,93	2,369
271,14	-1,693
271,36	0,134
271,57	-0,843
271,78	-0,504
272,00	2,789
272,21	1,841
272,42	-1,138
272,64	0,566
272,85	-2,542
273,06	1,197
273,28	2,902
273,49	-1,161
273,70	-0,621
273,92	2,448
274,13	1,102
274,34	1,121
274,56	2,272
274,77	-0,440
274,98	-1,711
275,20	0,094
275,41	1,914
275,62	0,857
275,84	-0,398
276,05	0,298
276,26	1,046
276,47	-0,331
276,69	2,256
276,90	-0,262
277,11	-0,047
277,33	2,208
277,54	1,624
277,75	-2,314
277,97	0,194
278,18	3,180
278,39	-1,980
278,61	3,654
278,82	-2,467
279,03	2,943
279,24	-0,305
279,46	0,387
279,67	2,941
279,88	2,243
280,10	3,457
280,31	-1,242
280,52	3,244
280,73	-2,088
280,95	0,390
281,16	4,468
281,37	1,617
281,59	2,898
281,80	5,252
282,01	1,428
282,22	0,924
282,44	-1,910
282,65	3,946
282,86	1,468
283,08	1,784
283,29	1,385
283,50	2,295
283,71	1,670
283,93	1,053
284,14	5,965
284,35	-0,106
284,56	0,082
284,78	-1,632
284,99	-0,222
285,20	2,969
285,42	0,840
285,63	0,738
285,84	1,897
286,05	-0,437
286,27	4,425
286,48	-1,260
286,69	1,042
286,90	-0,039
287,12	1,710
287,33	1,518
287,54	1,696
287,75	-1,516
287,97	-0,171
288,18	0,742
288,39	-1,602
288,60	-2,186
288,82	1,935
289,03	1,406
289,24	-0,356
289,45	0,869
289,67	2,457
289,88	-0,521
290,09	1,549
290,30	1,697
290,52	-0,578
290,73	1,121
290,94	-0,889
291,15	0,071
291,37	2,251
291,58	0,792
291,79	2,820
292,00	1,510
292,21	2,165
292,43	0,045
292,64	-0,092
292,85	-1,804
293,06	1,710
293,28	-0,404
293,49	-2,411
293,70	-0,061
293,91	0,792
294,12	0,430
294,34	-0,427
294,55	-1,787
294,76	0,149
294,97	3,148
295,19	-2,130
295,40	1,056
295,61	2,128
295,82	-0,267
296,03	-0,290
296,25	-0,162
296,46	-0,239
296,67	-1,269
296,88	-2,337
297,09	3,480
297,31	0,626
297,52	0,774
297,73	1,710
297,94	0,973
298,15	0,066
298,37	1,557
298,58	0,617
298,79	0,534
299,00	0,218
299,21	-3,010
299,43	-1,078
299,64	0,745
299,85	1,387
300,06	-0,079
300,27	2,570
300,49	1,650
300,70	-1,019
300,91	1,732
301,12	4,192
301,33	2,775
301,54	-0,431
301,76	1,602
301,97	2,106
302,18	2,379
302,39	1,864
302,60	1,260
302,82	-0,721
303,03	1,967
303,24	-0,083
303,45	0,352
303,66	1,388
303,87	2,275
304,09	2,599
304,30	-1,126
304,51	0,232
304,72	0,372
304,93	0,510
305,14	3,447
305,36	-1,790
305,57	-1,877
305,78	-1,596
305,99	-1,395
306,20	0,138
306,41	-0,570
306,62	-1,452
306,84	1,912
307,05	1,558
307,26	3,069
307,47	2,496
307,68	2,324
307,89	-1,401
308,11	2,867
308,32	-3,706
308,53	0,872
308,74	0,631
308,95	1,112
309,16	-1,441
309,37	2,903
309,59	-0,331
309,80	2,193
310,01	1,463
310,22	0,620
310,43	2,183
310,64	0,947
310,85	0,308
311,06	2,588
311,28	4,050
311,49	1,492
311,70	1,346
311,91	-0,369
312,12	2,290
312,33	1,665
312,54	2,998
312,75	-1,191
312,97	1,352
313,18	2,291
313,39	1,501
313,60	1,359
313,81	2,343
314,02	0,666
314,23	1,085
314,44	0,498
314,65	1,950
314,87	-0,460
315,08	1,300
315,29	3,934
315,50	0,980
315,71	0,927
315,92	2,839
316,13	4,999
316,34	2,937
316,55	0,529
316,77	-1,371
316,98	0,016
317,19	-0,951
317,40	0,432
317,61	2,074
317,82	-1,231
318,03	0,698
318,24	0,968
318,45	-0,008
318,66	2,106
318,87	1,726
319,09	2,527
319,30	1,008
319,51	3,113
319,72	-0,207
319,93	1,413
320,14	1,357
320,35	0,940
320,56	1,133
320,77	-0,848
320,98	4,290
321,19	3,594
321,40	2,138
321,62	3,464
321,83	1,604
322,04	3,690
322,25	0,393
322,46	6,032
322,67	1,106
322,88	0,017
323,09	0,492
323,30	2,248
323,51	0,043
323,72	3,167
323,93	1,955
324,14	-1,121
324,35	-1,082
324,56	0,016
324,77	-2,113
324,99	-0,180
325,20	0,016
325,41	0,799
325,62	2,702
325,83	1,208
326,04	-1,269
326,25	3,533
326,46	0,462
326,67	2,266
326,88	0,577
327,09	2,722
327,30	1,260
327,51	2,335
327,72	1,022
327,93	1,842
328,14	-1,887
328,35	0,495
328,56	2,267
328,77	2,052
328,98	0,726
329,19	0,590
329,40	0,914
329,61	3,596
329,82	-0,654
330,04	-3,146
330,25	-0,561
330,46	1,481
330,67	1,647
330,88	-1,757
331,09	0,414
331,30	0,442
331,51	-1,677
331,72	-0,498
331,93	0,228
332,14	2,562
332,35	3,348
332,56	0,896
332,77	1,700
332,98	0,648
333,19	1,883
333,40	2,185
333,61	0,964
333,82	2,954
334,03	1,459
334,24	1,771
334,45	1,599
334,66	2,993
334,87	1,926
335,08	-0,142
335,29	0,176
335,50	-0,813
335,71	0,017
335,92	-0,988
336,13	2,662
336,34	-2,667
336,55	2,668
336,76	2,432
336,97	1,892
337,18	-1,143
337,39	1,114
337,60	2,024
337,81	0,128
338,02	0,073
338,23	3,618
338,44	3,379
338,65	3,099
338,86	0,500
339,07	-0,622
339,28	1,772
339,49	1,360
339,70	0,410
339,91	0,677
340,11	2,730
340,32	-0,878
340,53	-1,188
340,74	0,231
340,95	0,947
341,16	2,147
341,37	3,386
341,58	0,489
341,79	2,792
342,00	-0,145
342,21	2,194
342,42	0,426
342,63	-1,154
342,84	-1,878
343,05	1,156
343,26	0,818
343,47	-2,833
343,68	1,626
343,89	0,511
344,10	2,619
344,31	3,000
344,52	-0,149
344,73	0,628
344,94	2,237
345,14	0,928
345,35	2,954
345,56	1,289
345,77	1,141
345,98	3,639
346,19	2,069
346,40	3,342
346,61	3,947
346,82	-1,446
347,03	-0,742
347,24	1,476
347,45	0,858
347,66	2,253
347,87	1,617
348,08	-0,548
348,28	-0,381
348,49	0,782
348,70	4,883
348,91	2,680
349,12	-1,921
349,33	0,630
349,54	2,021
349,75	2,910
349,96	1,383
350,17	3,106
350,38	-0,916
350,59	1,844
350,80	0,141
351,00	2,467
351,21	2,861
351,42	2,462
351,63	0,525
351,84	0,292
352,05	2,675
352,26	-0,626
352,47	0,924
352,68	0,731
352,89	2,143
353,09	1,154
353,30	0,110
353,51	1,967
353,72	2,650
353,93	1,422
354,14	-0,874
354,35	1,913
354,56	1,449
354,77	-0,385
354,98	-1,057
355,18	1,900
355,39	2,427
355,60	-0,587
355,81	2,982
356,02	1,343
356,23	2,192
356,44	2,298
356,65	1,485
356,85	5,984
357,06	2,759
357,27	3,101
357,48	-0,580
357,69	-0,423
357,90	1,051
358,11	-0,852
358,32	-1,472
358,52	-0,744
358,73	1,969
358,94	1,635
359,15	3,028
359,36	1,369
359,57	-2,559
359,78	0,172
359,98	-1,962
360,19	-1,878
360,40	-1,215
360,61	0,910
360,82	1,489
361,03	0,581
361,24	-0,484
361,44	1,199
361,65	1,897
361,86	-0,041
362,07	2,817
362,28	-0,338
362,49	-0,893
362,70	0,345
362,90	1,665
363,11	-1,049
363,32	2,023
363,53	2,658
363,74	5,136
363,95	1,772
364,15	0,903
364,36	-0,127
364,57	0,495
364,78	2,843
364,99	0,136
365,20	1,175
365,40	0,849
365,61	-1,340
365,82	2,512
366,03	1,943
366,24	1,204
366,45	3,326
366,65	2,137
366,86	-2,143
367,07	1,344
367,28	3,419
367,49	4,503
367,69	3,963
367,90	-0,775
368,11	2,310
368,32	-2,654
368,53	5,670
368,73	4,241
368,94	-0,731
369,15	2,794
369,36	2,774
369,57	1,920
369,78	0,801
369,98	0,080
370,19	6,055
370,40	1,981
370,61	-2,683
370,82	0,111
371,02	-2,994
371,23	3,118
371,44	0,431
371,65	1,363
371,85	2,597
372,06	1,770
372,27	-1,427
372,48	2,699
372,69	-2,482
372,89	-2,683
373,10	-0,108
373,31	-2,600
373,52	0,020
373,73	2,962
373,93	1,364
374,14	2,087
374,35	0,417
374,56	4,431
374,76	1,250
374,97	-1,169
375,18	-1,520
375,39	-0,011
375,60	2,367
375,80	3,752
376,01	1,653
376,22	-3,508
376,43	0,705
376,63	3,000
376,84	-1,324
377,05	2,480
377,26	-2,218
377,46	0,430
377,67	-1,230
377,88	4,956
378,09	1,002
378,29	-1,410
378,50	4,201
378,71	2,537
378,92	3,128
379,12	2,920
379,33	1,411
379,54	2,293
379,75	-2,489
379,95	-0,663
380,16	2,347
380,37	1,309
380,58	3,299
380,78	3,695
380,99	-1,281
381,20	0,859
381,41	3,773
381,61	5,363
381,82	-1,295
382,03	0,119
382,24	1,078
382,44	5,121
382,65	2,256
382,86	0,220
383,06	-1,934
383,27	0,973
383,48	0,993
383,69	1,968
383,89	2,242
384,10	4,905
384,31	0,844
384,51	2,788
384,72	2,412
384,93	1,929
385,14	4,568
385,34	4,898
385,55	1,363
385,76	0,556
385,96	1,156
386,17	3,751
386,38	4,904
386,59	2,724
386,79	-2,176
387,00	4,298
387,21	4,728
387,41	5,229
387,62	0,341
387,83	1,163
388,03	3,780
388,24	-0,411
388,45	3,603
388,66	1,501
388,86	1,498
389,07	-1,704
389,28	4,449
389,48	2,343
389,69	3,159
389,90	1,857
390,10	4,699
390,31	4,612
390,52	-1,206
390,72	2,729
390,93	2,010
391,14	-0,109
391,34	1,462
391,55	2,964
391,76	3,180
391,96	2,228
392,17	5,232
392,38	3,004
392,58	1,761
392,79	4,174
393,00	3,860
393,20	3,737
393,41	-1,163
393,62	2,511
393,82	3,075
394,03	4,762
394,24	3,454
394,44	5,761
394,65	6,202
394,86	5,145
395,06	4,313
395,27	1,268
395,48	3,597
395,68	6,866
395,89	5,633
396,10	4,149
396,30	5,562
396,51	1,367
396,72	5,075
396,92	3,700
397,13	4,275
397,34	3,186
397,54	4,899
397,75	3,722
397,95	2,401
398,16	8,907
398,37	4,408
398,57	8,109
398,78	8,656
398,99	5,320
399,19	6,511
399,40	4,053
399,60	1,456
399,81	6,472
400,02	4,874
400,22	7,021
400,43	6,098
400,64	6,813
400,84	7,519
401,05	5,333
401,25	8,439
401,46	5,787
401,67	6,500
401,87	8,585
402,08	6,415
402,29	6,085
402,49	5,930
402,70	7,511
402,90	4,015
403,11	5,893
403,32	11,612
403,52	6,380
403,73	8,130
403,93	9,270
404,14	9,274
404,35	8,209
404,55	8,053
404,76	6,877
404,96	8,350
405,17	9,917
405,38	10,373
405,58	6,797
405,79	7,397
405,99	9,707
406,20	4,675
406,40	5,461
406,61	7,492
406,82	8,121
407,02	8,936
407,23	11,006
407,43	9,338
407,64	5,776
407,85	9,558
408,05	6,065
408,26	9,368
408,46	8,282
408,67	7,881
408,87	8,897
409,08	10,273
409,29	7,788
409,49	11,566
409,70	9,938
409,90	13,224
410,11	9,586
410,31	12,874
410,52	14,010
410,72	9,131
410,93	10,126
411,14	8,151
411,34	10,637
411,55	15,062
411,75	15,195
411,96	9,517
412,16	11,730
412,37	14,364
412,57	12,108
412,78	8,929
412,99	13,319
413,19	11,796
413,40	12,830
413,60	10,242
413,81	12,619
414,01	11,397
414,22	10,130
414,42	13,150
414,63	10,104
414,83	15,473
415,04	13,473
415,24	14,516
415,45	12,798
415,65	9,415
415,86	14,462
416,07	13,793
416,27	13,041
416,48	13,537
416,68	13,410
416,89	13,771
417,09	11,371
417,30	17,046
417,50	15,353
417,71	13,199
417,91	15,812
418,12	15,601
418,32	12,701
418,53	17,738
418,73	15,176
418,94	14,773
419,14	15,228
419,35	13,258
419,55	12,640
419,76	15,054
419,96	14,995
420,17	14,757
420,37	15,869
420,58	17,887
420,78	14,939
420,99	18,880
421,19	14,040
421,40	15,488
421,60	16,283
421,81	16,504
422,01	16,322
422,22	11,888
422,42	13,533
422,63	17,091
422,83	14,633
423,04	16,678
423,24	15,914
423,45	15,785
423,65	21,134
423,86	19,487
424,06	17,459
424,27	15,983
424,47	15,983
424,67	14,112
424,88	19,307
425,08	18,520
425,29	19,775
425,49	12,977
425,70	10,446
425,90	19,436
426,11	16,792
426,31	16,096
426,52	20,775
426,72	15,583
426,93	17,261
427,13	18,806
427,33	17,028
427,54	15,798
427,74	19,313
427,95	17,088
428,15	15,336
428,36	20,224
428,56	16,470
428,77	18,279
428,97	18,002
429,18	21,779
429,38	16,974
429,58	17,747
429,79	16,672
429,99	22,975
430,20	15,493
430,40	19,255
430,61	21,282
430,81	16,857
431,01	16,867
431,22	15,939
431,42	22,009
431,63	16,440
431,83	19,752
432,04	16,031
432,24	21,512
432,44	12,890
432,65	18,823
432,85	20,220
433,06	20,629
433,26	18,768
433,47	18,019
433,67	17,246
433,87	17,951
434,08	16,585
434,28	20,656
434,49	17,241
434,69	19,085
434,89	15,158
435,10	17,157
435,30	21,080
435,51	16,372
435,71	16,844
435,91	20,075
436,12	18,790
436,32	17,987
436,53	17,990
436,73	17,306
436,93	18,492
437,14	20,363
437,34	23,759
437,55	19,893
437,75	19,866
437,95	17,036
438,16	19,148
438,36	18,654
438,57	21,526
438,77	17,726
438,97	18,216
439,18	21,651
439,38	17,735
439,58	16,913
439,79	22,531
439,99	19,577
440,20	20,603
440,40	18,286
440,60	20,727
440,81	22,847
441,01	18,117
441,21	21,715
441,42	22,379
441,62	21,416
441,83	20,925
442,03	18,103
442,23	22,231
442,44	22,014
442,64	18,674
442,84	16,748
443,05	22,722
443,25	19,152
443,45	20,335
443,66	20,282
443,86	21,321
444,06	21,597
444,27	21,052
444,47	18,495
444,67	16,093
444,88	20,708
445,08	18,268
445,28	22,569
445,49	20,960
445,69	17,022
445,90	19,189
446,10	20,228
446,30	21,330
446,51	19,625
446,71	21,413
446,91	24,196
447,12	21,580
447,32	22,447
447,52	21,012
447,72	18,224
447,93	22,626
448,13	19,905
448,33	25,113
448,54	20,343
448,74	18,546
448,94	25,230
449,15	23,660
449,35	21,737
449,55	19,405
449,76	24,484
449,96	20,536
450,16	20,622
450,37	18,878
450,57	20,300
450,77	19,613
450,98	22,009
451,18	20,740
451,38	19,149
451,58	22,616
451,79	20,011
451,99	21,722
452,19	18,523
452,40	20,300
452,60	18,678
452,80	21,446
453,00	21,850
453,21	23,972
453,41	22,582
453,61	22,452
453,82	21,923
454,02	13,683
454,22	19,906
454,42	22,513
454,63	18,056
454,83	16,238
455,03	19,432
455,24	22,988
455,44	16,777
455,64	19,224
455,84	20,745
456,05	23,683
456,25	22,150
456,45	25,663
456,65	17,399
456,86	22,854
457,06	20,749
457,26	18,513
457,47	26,587
457,67	22,914
457,87	19,964
458,07	17,547
458,28	22,529
458,48	18,610
458,68	18,938
458,88	13,900
459,09	22,151
459,29	20,609
459,49	22,105
459,69	21,882
459,90	18,591
460,10	20,835
460,30	22,656
460,50	21,497
460,71	20,422
460,91	18,808
461,11	21,698
461,31	19,296
461,52	21,792
461,72	21,199
461,92	21,269
462,12	24,674
462,32	21,935
462,53	19,896
462,73	19,843
462,93	21,564
463,13	21,407
463,34	19,436
463,54	19,502
463,74	19,929
463,94	21,709
464,14	22,601
464,35	18,360
464,55	19,409
464,75	19,995
464,95	23,177
465,16	18,009
465,36	18,703
465,56	20,075
465,76	20,410
465,96	22,172
466,17	21,580
466,37	20,588
466,57	20,487
466,77	20,876
466,97	18,903
467,18	21,171
467,38	21,235
467,58	20,622
467,78	21,409
467,98	22,133
468,19	22,540
468,39	24,524
468,59	22,429
468,79	22,113
468,99	18,293
469,19	18,964
469,40	26,271
469,60	19,691
469,80	18,408
470,00	24,081
470,20	20,925
470,41	21,832
470,61	23,669
470,81	20,767
471,01	19,526
471,21	21,848
471,41	21,031
471,62	19,148
471,82	20,439
472,02	20,982
472,22	23,508
472,42	20,668
472,62	21,037
472,83	25,101
473,03	21,606
473,23	20,071
473,43	24,651
473,63	18,933
473,83	23,615
474,03	18,165
474,24	22,671
474,44	20,738
474,64	22,852
474,84	18,435
475,04	24,053
475,24	16,768
475,45	20,428
475,65	21,457
475,85	23,464
476,05	22,382
476,25	21,455
476,45	24,054
476,65	23,604
476,85	21,295
477,06	20,416
477,26	21,069
477,46	21,469
477,66	19,446
477,86	20,442
478,06	21,809
478,26	26,031
478,46	19,019
478,67	23,796
478,87	19,913
479,07	22,294
479,27	19,202
479,47	21,675
479,67	19,425
479,87	21,587
480,07	19,423
480,28	19,455
480,48	18,059
480,68	21,488
480,88	20,221
481,08	20,912
481,28	20,937
481,48	21,582
481,68	21,645
481,88	20,429
482,08	21,196
482,29	21,145
482,49	19,337
482,69	20,707
482,89	20,061
483,09	17,062
483,29	19,248
483,49	21,079
483,69	21,713
483,89	21,089
484,09	20,624
484,29	18,269
484,50	20,411
484,70	18,653
484,90	20,471
485,10	18,005
485,30	21,136
485,50	21,273
485,70	18,584
485,90	18,783
486,10	17,652
486,30	21,313
486,50	20,403
486,70	20,024
486,90	19,124
487,10	18,768
487,30	20,343
487,51	22,521
487,71	18,808
487,91	18,139
488,11	20,606
488,31	17,653
488,51	23,487
488,71	19,238
488,91	21,774
489,11	20,616
489,31	21,987
489,51	18,181
489,71	20,536
489,91	20,646
490,11	21,097
490,31	20,811
490,51	20,011
490,71	19,611
490,91	19,828
491,11	22,556
491,31	18,519
491,51	19,783
491,72	20,833
491,92	18,876
492,12	22,508
492,32	20,955
492,52	21,992
492,72	21,711
492,92	20,319
493,12	19,588
493,32	20,889
493,52	19,257
493,72	20,652
493,92	20,282
494,12	20,041
494,32	22,109
494,52	20,166
494,72	21,202
494,92	20,743
495,12	22,142
495,32	20,574
495,52	19,573
495,72	22,629
495,92	23,305
496,12	20,171
496,32	20,397
496,52	20,496
496,72	20,298
496,92	20,837
497,12	22,650
497,32	20,100
497,52	23,091
497,72	23,381
497,92	23,286
498,12	21,061
498,32	20,914
498,52	22,139
498,72	18,949
498,92	19,937
499,12	23,071
499,32	19,515
499,52	21,909
499,72	23,430
499,92	21,261
500,12	23,929
500,32	23,908
500,52	22,004
500,72	23,961
500,91	19,235
501,11	21,812
501,31	19,653
501,51	22,714
501,71	21,368
501,91	22,267
502,11	23,691
502,31	21,153
502,51	24,069
502,71	21,804
502,91	25,594
503,11	21,000
503,31	22,078
503,51	21,321
503,71	19,469
503,91	23,752
504,11	22,727
504,31	20,974
504,51	23,277
504,71	22,922
504,91	22,489
505,10	21,823
505,30	21,493
505,50	21,150
505,70	21,957
505,90	20,369
506,10	22,969
506,30	21,747
506,50	21,773
506,70	25,143
506,90	21,042
507,10	23,159
507,30	21,651
507,50	25,064
507,70	24,261
507,89	20,214
508,09	21,138
508,29	22,115
508,49	22,148
508,69	19,686
508,89	22,517
509,09	21,596
509,29	23,333
509,49	22,911
509,69	24,079
509,89	19,371
510,09	22,820
510,28	22,505
510,48	22,614
510,68	21,965
510,88	20,123
511,08	18,280
511,28	19,756
511,48	22,952
511,68	22,932
511,88	20,160
512,07	23,917
512,27	22,792
512,47	21,393
512,67	21,512
512,87	20,908
513,07	22,457
513,27	20,829
513,47	20,569
513,67	20,409
513,86	22,585
514,06	24,157
514,26	22,249
514,46	21,181
514,66	23,468
514,86	21,732
515,06	23,706
515,26	23,182
515,45	20,041
515,65	20,062
515,85	23,817
516,05	19,706
516,25	24,253
516,45	22,184
516,65	24,602
516,84	21,407
517,04	25,372
517,24	19,788
517,44	23,469
517,64	24,415
517,84	23,645
518,04	23,379
518,23	24,523
518,43	25,521
518,63	22,428
518,83	22,608
519,03	23,421
519,23	23,785
519,42	21,164
519,62	20,157
519,82	21,521
520,02	22,054
520,22	22,051
520,42	21,706
520,61	21,652
520,81	24,064
521,01	22,157
521,21	21,301
521,41	22,692
521,61	21,170
521,80	20,239
522,00	22,003
522,20	21,956
522,40	22,953
522,60	22,925
522,79	24,364
522,99	25,105
523,19	20,418
523,39	21,549
523,59	22,280
523,78	25,219
523,98	21,652
524,18	23,811
524,38	21,889
524,58	22,073
524,77	24,043
524,97	22,357
525,17	23,075
525,37	21,949
525,57	24,622
525,76	21,113
525,96	22,904
526,16	21,033
526,36	21,251
526,56	23,669
526,75	22,054
526,95	22,051
527,15	22,715
527,35	21,759
527,55	22,119
527,74	24,619
527,94	21,362
528,14	21,889
528,34	21,782
528,53	19,931
528,73	18,812
528,93	21,839
529,13	21,421
529,32	21,216
529,52	22,425
529,72	22,081
529,92	20,856
530,12	21,798
530,31	19,404
530,51	23,143
530,71	22,949
530,91	23,450
531,10	18,812
531,30	22,804
531,50	20,914
531,70	22,345
531,89	20,790
532,09	21,863
532,29	20,603
532,49	22,315
532,68	21,178
532,88	23,566
533,08	20,035
533,28	18,775
533,47	20,410
533,67	21,859
533,87	19,555
534,06	23,648
534,26	20,861
534,46	19,767
534,66	21,285
534,85	21,613
535,05	18,527
535,25	21,875
535,45	21,051
535,64	18,203
535,84	21,165
536,04	18,894
536,23	20,969
536,43	20,976
536,63	20,555
536,83	21,833
537,02	23,628
537,22	21,240
537,42	18,200
537,61	20,111
537,81	22,013
538,01	19,567
538,20	20,268
538,40	19,063
538,60	19,369
538,80	19,630
538,99	18,113
539,19	18,088
539,39	19,292
539,58	19,318
539,78	17,329
539,98	15,379
540,17	16,353
540,37	17,421
540,57	17,629
540,76	18,425
540,96	17,429
541,16	15,313
541,36	15,561
541,55	13,569
541,75	13,888
541,95	14,428
542,14	14,400
542,34	14,368
542,54	13,684
542,73	15,275
542,93	16,017
543,13	15,617
543,32	13,771
543,52	14,074
543,72	13,535
543,91	15,441
544,11	15,042
544,31	14,192
544,50	14,040
544,70	14,415
544,89	14,667
545,09	14,820
545,29	16,334
545,48	16,191
545,68	15,909
545,88	15,951
546,07	15,937
546,27	13,877
546,47	16,305
546,66	16,882
546,86	18,336
547,06	16,752
547,25	16,050
547,45	19,732
547,64	18,014
547,84	21,057
548,04	19,114
548,23	17,992
548,43	19,922
548,63	20,583
548,82	20,117
549,02	17,393
549,21	17,010
549,41	20,089
549,61	19,970
549,80	20,255
550,00	19,565
550,20	18,067
550,39	21,564
550,59	16,930
550,78	18,375
550,98	16,906
551,18	21,123
551,37	19,664
551,57	21,180
551,76	22,064
551,96	20,170
552,16	19,412
552,35	17,791
552,55	22,835
552,74	21,367
552,94	20,110
553,14	20,805
553,33	20,848
553,53	19,691
553,72	19,668
553,92	21,976
554,12	20,833
554,31	22,509
554,51	22,416
554,70	18,653
554,90	20,911
555,09	21,018
555,29	21,225
555,49	20,872
555,68	22,022
555,88	20,234
556,07	19,637
556,27	17,724
556,46	19,020
556,66	19,346
556,86	22,978
557,05	19,630
557,25	20,283
557,44	19,594
557,64	19,495
557,83	17,935
558,03	21,258
558,22	20,751
558,42	21,450
558,62	21,364
558,81	22,512
559,01	21,165
559,20	21,200
559,40	20,861
559,59	21,749
559,79	21,917
559,98	23,291
560,18	21,156
560,37	21,519
560,57	21,263
560,76	19,249
560,96	21,977
561,16	21,621
561,35	20,170
561,55	23,201
561,74	21,550
561,94	21,990
562,13	21,426
562,33	21,687
562,52	20,536
562,72	21,139
562,91	19,401
563,11	20,160
563,30	21,484
563,50	18,245
563,69	21,174
563,89	20,800
564,08	21,301
564,28	19,539
564,47	18,254
564,67	22,312
564,86	22,899
565,06	19,631
565,25	20,053
565,45	20,520
565,64	23,833
565,84	21,270
566,03	21,107
566,23	20,325
566,42	21,117
566,62	21,900
566,81	20,916
567,01	23,473
567,20	20,838
567,40	19,531
567,59	22,230
567,79	20,075
567,98	22,030
568,18	20,892
568,37	21,433
568,57	19,124
568,76	22,813
568,96	21,526
569,15	21,311
569,35	22,446
569,54	23,657
569,73	22,747
569,93	22,439
570,12	20,774
570,32	22,248
570,51	20,867
570,71	21,850
570,90	21,921
571,10	21,333
571,29	21,801
571,49	21,086
571,68	21,455
571,87	21,364
572,07	21,433
572,26	21,974
572,46	20,380
572,65	21,823
572,85	19,351
573,04	21,908
573,24	21,871
573,43	21,722
573,62	22,616
573,82	22,878
574,01	21,955
574,21	23,697
574,40	21,326
574,60	20,719
574,79	22,355
574,98	20,411
575,18	21,694
575,37	22,256
575,57	20,841
575,76	22,012
575,96	22,397
576,15	21,202
576,34	20,846
576,54	22,712
576,73	20,109
576,93	22,080
577,12	21,363
577,31	21,456
577,51	20,778
577,70	19,384
577,90	22,009
578,09	19,651
578,28	20,685
578,48	22,506
578,67	23,124
578,87	20,164
579,06	21,054
579,25	21,443
579,45	20,568
579,64	20,569
579,84	20,978
580,03	20,603
580,22	21,650
580,42	21,254
580,61	21,066
580,81	21,396
581,00	21,455
581,19	21,394
581,39	21,245
581,58	20,670
581,77	22,745
581,97	21,499
582,16	20,829
582,35	21,424
582,55	21,366
582,74	22,177
582,94	20,135
583,13	19,772
583,32	20,401
583,52	19,846
583,71	21,402
583,90	20,121
584,10	20,304
584,29	20,802
584,48	20,444
584,68	21,288
584,87	21,493
585,06	20,152
585,26	20,818
585,45	20,151
585,65	20,877
585,84	20,111
586,03	20,952
586,23	19,124
586,42	20,953
586,61	21,220
586,81	20,025
587,00	20,967
587,19	19,174
587,39	21,084
587,58	21,571
587,77	20,619
587,97	20,149
588,16	19,186
588,35	20,946
588,54	23,262
588,74	18,969
588,93	20,029
589,12	21,101
589,32	20,379
589,51	21,399
589,70	20,247
589,90	19,834
590,09	20,888
590,28	22,595
590,48	20,116
590,67	21,158
590,86	20,337
591,06	21,291
591,25	22,350
591,44	20,897
591,63	21,551
591,83	21,387
592,02	20,979
592,21	20,594
592,41	21,549
592,60	21,045
592,79	22,001
592,98	21,514
593,18	21,453
593,37	20,244
593,56	20,192
593,76	21,159
593,95	19,605
594,14	20,306
594,33	20,858
594,53	20,982
594,72	20,290
594,91	23,534
595,10	19,867
595,30	22,368
595,49	20,622
595,68	21,294
595,88	21,642
596,07	21,198
596,26	21,640
596,45	22,085
596,65	19,455
596,84	21,113
597,03	20,628
597,22	21,711
597,42	22,090
597,61	22,936
597,80	21,637
597,99	21,192
598,19	20,850
598,38	21,542
598,57	20,716
598,76	21,504
598,95	22,340
599,15	21,963
599,34	21,698
599,53	21,304
599,72	20,908
599,92	22,764
600,11	20,945
600,30	21,054
600,49	22,921
600,69	20,558
600,88	22,245
601,07	21,514
601,26	21,744
601,45	21,873
601,65	21,355
601,84	22,602
602,03	20,391
602,22	20,781
602,42	22,583
602,61	20,612
602,80	21,333
602,99	23,200
603,18	20,072
603,38	22,051
603,57	20,595
603,76	22,913
603,95	21,811
604,14	22,689
604,34	21,408
604,53	22,996
604,72	21,627
604,91	21,525
605,10	21,075
605,29	20,086
605,49	20,877
605,68	20,595
605,87	21,185
606,06	20,912
606,25	19,558
606,45	21,931
606,64	20,196
606,83	21,214
607,02	20,213
607,21	20,599
607,40	19,768
607,60	19,421
607,79	20,188
607,98	19,073
608,17	19,140
608,36	18,478
608,55	19,422
608,75	19,076
608,94	18,314
609,13	17,659
609,32	17,823
609,51	16,904
609,70	18,069
609,89	18,113
610,09	16,621
610,28	17,823
610,47	15,556
610,66	16,517
610,85	16,002
611,04	18,010
611,23	17,526
611,43	16,442
611,62	16,715
611,81	16,685
612,00	16,287
612,19	16,237
612,38	16,497
612,57	17,714
612,77	17,143
612,96	18,137
613,15	17,061
613,34	18,681
613,53	19,454
613,72	19,938
613,91	18,522
614,10	19,140
614,29	18,309
614,49	18,361
614,68	17,985
614,87	19,585
615,06	21,334
615,25	19,320
615,44	19,708
615,63	19,165
615,82	18,581
616,01	18,367
616,21	20,314
616,40	19,030
616,59	20,393
616,78	20,631
616,97	20,323
617,16	21,227
617,35	20,066
617,54	20,722
617,73	21,440
617,92	19,045
618,11	20,052
618,31	18,100
618,50	20,913
618,69	19,621
618,88	19,089
619,07	20,360
619,26	19,455
619,45	19,101
619,64	19,543
619,83	20,655
620,02	18,666
620,21	19,995
620,40	20,888
620,59	18,752
620,78	19,092
620,97	21,241
621,17	20,392
621,36	19,488
621,55	20,200
621,74	19,601
621,93	20,029
622,12	19,010
622,31	19,920
622,50	18,612
622,69	20,427
622,88	20,134
623,07	20,173
623,26	19,491
623,45	21,022
623,64	18,672
623,83	19,321
624,02	20,295
624,21	21,022
624,40	19,870
624,59	18,930
624,78	19,590
624,97	20,373
625,16	18,995
625,35	18,590
625,54	20,350
625,73	21,135
625,92	20,370
626,12	20,444
626,31	22,078
626,50	19,638
626,69	21,095
626,88	17,276
627,07	18,924
627,26	19,322
627,45	18,820
627,64	19,087
627,83	20,272
628,02	19,951
628,21	20,753
628,40	18,257
628,59	20,151
628,78	20,280
628,97	18,935
629,16	17,972
629,35	19,008
629,54	19,889
629,73	19,847
629,92	18,129
630,10	18,335
630,29	18,923
630,48	19,284
630,67	19,766
630,86	19,758
631,05	20,143
631,24	19,932
631,43	18,754
631,62	19,649
631,81	20,460
632,00	18,823
632,19	19,137
632,38	19,046
632,57	20,016
632,76	19,687
632,95	19,954
633,14	20,872
633,33	19,472
633,52	19,308
633,71	21,059
633,90	20,416
634,09	19,517
634,28	19,715
634,47	20,293
634,66	20,580
634,85	18,756
635,04	20,322
635,22	22,176
635,41	19,890
635,60	18,139
635,79	20,209
635,98	19,439
636,17	21,365
636,36	21,152
636,55	21,427
636,74	19,514
636,93	20,678
637,12	19,266
637,31	19,798
637,50	19,615
637,69	19,156
637,87	20,265
638,06	20,037
638,25	19,624
638,44	20,893
638,63	17,964
638,82	20,936
639,01	19,744
639,20	19,454
639,39	20,199
639,58	19,223
639,77	21,230
639,95	19,799
640,14	20,245
640,33	20,322
640,52	17,854
640,71	21,968
640,90	20,033
641,09	22,131
641,28	20,238
641,47	22,043
641,66	19,937
641,84	19,758
642,03	20,303
642,22	21,732
642,41	19,623
642,60	20,748
642,79	20,071
642,98	19,074
643,17	19,884
643,35	21,261
643,54	19,983
643,73	19,623
643,92	19,767
644,11	20,320
644,30	19,731
644,49	20,628
644,67	21,267
644,86	19,767
645,05	21,900
645,24	19,493
645,43	22,203
645,62	19,585
645,81	21,082
645,99	20,557
646,18	18,948
646,37	19,366
646,56	20,433
646,75	20,491
646,94	20,457
647,13	21,106
647,31	19,370
647,50	22,081
647,69	20,275
647,88	21,238
648,07	19,032
648,26	20,904
648,44	19,136
648,63	19,489
648,82	20,219
649,01	19,783
649,20	19,152
649,38	20,012
649,57	21,014
649,76	20,226
649,95	21,201
650,14	19,557
650,33	19,581
650,51	19,006
650,70	20,591
650,89	18,925
651,08	21,423
651,27	19,262
651,45	20,193
651,64	19,597
651,83	18,971
652,02	19,970
652,21	21,960
652,39	21,066
652,58	20,022
652,77	19,559
652,96	21,897
653,15	20,478
653,33	21,315
653,52	20,993
653,71	22,991
653,90	21,289
654,09	22,270
654,27	20,505
654,46	21,193
654,65	20,956
654,84	20,691
655,02	20,651
655,21	23,114
655,40	21,336
655,59	20,944
655,77	20,516
655,96	20,402
656,15	21,689
656,34	21,566
656,53	21,694
656,71	20,546
656,90	21,421
657,09	20,529
657,28	22,281
657,46	19,350
657,65	21,160
657,84	21,271
658,03	19,775
658,21	20,212
658,40	20,227
658,59	19,979
658,78	20,718
658,96	20,625
659,15	20,826
659,34	21,290
659,52	20,246
659,71	19,225
659,90	19,950
660,09	20,675
660,27	19,084
660,46	21,025
660,65	19,470
660,84	19,386
661,02	20,999
661,21	20,817
661,40	20,369
661,58	20,182
661,77	21,113
661,96	18,503
662,15	19,998
662,33	19,514
662,52	19,065
662,71	20,421
662,89	18,652
663,08	19,600
663,27	18,403
663,45	19,552
663,64	19,968
663,83	19,220
664,02	20,397
664,20	19,322
664,39	20,575
664,58	20,573
664,76	19,781
664,95	20,826
665,14	19,216
665,32	19,734
665,51	19,931
665,70	18,658
665,88	19,729
666,07	20,910
666,26	21,181
666,44	20,055
666,63	18,996
666,82	20,224
667,00	21,422
667,19	18,554
667,38	19,837
667,56	20,564
667,75	19,734
667,94	20,510
668,12	20,329
668,31	20,929
668,50	19,660
668,68	19,891
668,87	20,292
669,06	19,862
669,24	21,249
669,43	19,420
669,62	18,514
669,80	20,884
669,99	18,897
670,18	20,288
670,36	18,890
670,55	20,397
670,74	19,604
670,92	20,512
671,11	19,752
671,29	19,732
671,48	20,054
671,67	20,177
671,85	21,567
672,04	18,454
672,23	18,757
672,41	20,791
672,60	19,827
672,78	19,075
672,97	21,136
673,16	19,638
673,34	19,996
673,53	20,195
673,71	19,931
673,90	20,429
674,09	21,215
674,27	19,371
674,46	20,057
674,64	20,262
674,83	19,156
675,02	18,528
675,20	19,556
675,39	19,522
675,57	20,422
675,76	19,400
675,95	20,365
676,13	20,260
676,32	20,904
676,50	19,023
676,69	19,912
676,88	18,635
677,06	20,101
677,25	18,743
677,43	20,433
677,62	18,119
677,80	20,484
677,99	19,841
678,18	18,056
678,36	20,193
678,55	18,051
678,73	19,305
678,92	20,674
679,10	20,831
679,29	18,995
679,48	19,568
679,66	17,669
679,85	19,005
680,03	21,194
680,22	19,361
680,40	19,624
680,59	19,724
680,77	19,611
680,96	20,327
681,15	18,755
681,33	21,479
681,52	20,395
681,70	18,835
681,89	20,421
682,07	20,712
682,26	19,203
682,44	19,366
682,63	19,942
682,81	19,653
683,00	21,745
683,18	19,259
683,37	19,739
683,55	21,348
683,74	19,534
683,92	19,753
684,11	20,030
684,29	20,383
684,48	19,063
684,67	19,247
684,85	21,168
685,04	20,652
685,22	20,348
685,41	19,473
685,59	20,108
685,78	19,833
685,96	18,965
686,15	20,631
686,33	19,563
686,52	19,469
686,70	20,462
686,89	20,006
687,07	21,789
687,26	21,099
687,44	20,385
687,62	20,307
687,81	20,793
687,99	19,084
688,18	19,338
688,36	21,125
688,55	18,847
688,73	19,603
688,92	18,663
689,10	20,440
689,29	19,774
689,47	20,378
689,66	19,549
689,84	19,423
690,03	17,730
690,21	20,931
690,40	20,063
690,58	19,280
690,76	19,614
690,95	21,106
691,13	19,972
691,32	19,098
691,50	20,358
691,69	20,328
691,87	20,363
692,06	20,172
692,24	20,114
692,43	20,585
692,61	19,221
692,79	20,020
692,98	19,915
693,16	21,656
693,35	20,801
693,53	20,219
693,72	19,707
693,90	20,804
694,08	19,512
694,27	19,096
694,45	20,435
694,64	20,312
694,82	20,178
695,01	18,506
695,19	19,757
695,37	20,192
695,56	21,190
695,74	21,184
695,93	19,734
696,11	19,391
696,29	19,329
696,48	20,716
696,66	20,291
696,85	20,626
697,03	18,929
697,21	21,652
697,40	18,726
697,58	19,050
697,77	19,454
697,95	20,140
698,13	20,114
698,32	20,588
698,50	19,450
698,69	18,150
698,87	21,077
699,05	19,196
699,24	17,507
699,42	20,298
699,60	17,769
699,79	18,946
699,97	20,095
700,16	19,883
700,34	19,668
700,52	20,232
700,71	20,493
700,89	20,004
701,07	20,990
701,26	20,098
701,44	21,093
701,63	19,057
701,81	19,433
701,99	19,427
702,18	17,500
702,36	18,962
702,54	19,639
702,73	18,454
702,91	20,272
703,09	18,389
703,28	19,649
703,46	19,637
703,64	19,482
703,83	19,607
704,01	19,018
704,19	19,827
704,38	18,928
704,56	19,055
704,74	19,060
704,93	20,805
705,11	19,578
705,29	20,473
705,48	21,067
705,66	19,998
705,84	20,150
706,03	17,092
706,21	19,129
706,39	19,917
706,58	19,833
706,76	18,552
706,94	20,427
707,12	19,689
707,31	19,545
707,49	18,553
707,67	19,312
707,86	19,629
708,04	19,040
708,22	18,740
708,41	18,826
708,59	19,615
708,77	19,893
708,95	20,775
709,14	21,178
709,32	17,464
709,50	19,406
709,69	19,362
709,87	18,228
710,05	19,572
710,23	19,448
710,42	19,374
710,60	18,003
710,78	19,664
710,97	19,069
711,15	19,998
711,33	19,891
711,51	18,876
711,70	19,574
711,88	18,082
712,06	20,793
712,24	19,389
712,43	18,494
712,61	19,901
712,79	19,106
712,97	19,633
713,16	19,420
713,34	19,019
713,52	18,736
713,70	19,303
713,89	18,707
714,07	18,250
714,25	20,373
714,43	20,956
714,62	19,368
714,80	20,871
714,98	18,471
715,16	19,839
715,35	18,870
715,53	19,026
715,71	19,409
715,89	19,663
716,07	20,877
716,26	18,854
716,44	19,916
716,62	19,948
716,80	20,516
716,99	19,687
717,17	20,013
717,35	19,093
717,53	18,792
717,71	20,311
717,90	19,824
718,08	19,235
718,26	19,548
718,44	19,437
718,62	21,576
718,81	20,752
718,99	17,811
719,17	20,630
719,35	21,910
719,53	21,409
719,72	19,407
719,90	20,625
720,08	17,417
720,26	19,866
720,44	19,992
720,62	20,035
720,81	19,676
720,99	20,223
721,17	20,561
721,35	19,638
721,53	20,374
721,72	20,216
721,90	21,526
722,08	20,519
722,26	21,605
722,44	19,632
722,62	19,303
722,81	21,062
722,99	19,603
723,17	20,109
723,35	20,392
723,53	19,499
723,71	20,453
723,89	18,367
724,08	19,024
724,26	20,138
724,44	17,776
724,62	18,865
724,80	19,448
724,98	18,934
725,16	19,605
725,35	19,137
725,53	17,586
725,71	19,664
725,89	22,026
726,07	18,167
726,25	21,244
726,43	19,860
726,61	21,054
726,80	19,840
726,98	21,293
727,16	19,615
727,34	19,145
727,52	21,403
727,70	19,455
727,88	18,873
728,06	18,318
728,25	19,464
728,43	20,237
728,61	19,576
728,79	17,524
728,97	18,130
729,15	18,908
729,33	21,027
729,51	18,221
729,69	21,040
729,87	19,401
730,06	19,944
730,24	19,625
730,42	20,270
730,60	19,607
730,78	22,169
730,96	19,184
731,14	22,194
731,32	20,608
731,50	18,883
731,68	21,101
731,86	18,726
732,04	20,649
732,22	18,267
732,41	20,614
732,59	19,788
732,77	21,336
732,95	20,481
733,13	20,187
733,31	19,440
733,49	19,547
733,67	21,529
733,85	19,972
734,03	20,624
734,21	19,277
734,39	20,118
734,57	20,681
734,75	19,915
734,93	18,914
735,11	19,779
735,29	18,786
735,47	22,450
735,65	21,679
735,84	19,881
736,02	18,855
736,20	21,409
736,38	19,227
736,56	20,255
736,74	21,095
736,92	20,226
737,10	18,749
737,28	21,334
737,46	18,769
737,64	18,087
737,82	20,925
738,00	19,954
738,18	20,716
738,36	18,388
738,54	21,105
738,72	18,460
738,90	20,059
739,08	19,452
739,26	18,474
739,44	20,664
739,62	19,552
739,80	19,498
739,98	21,317
740,16	17,754
740,34	20,145
740,52	20,923
740,70	20,098
740,88	20,537
741,06	19,774
741,24	20,549
741,42	21,159
741,60	18,330
741,78	21,363
741,96	19,172
742,14	18,986
742,32	18,964
742,50	20,200
742,68	19,650
742,86	19,111
743,04	19,397
743,21	20,705
743,39	20,816
743,57	17,717
743,75	21,074
743,93	17,934
744,11	18,535
744,29	19,649
744,47	20,791
744,65	19,219
744,83	19,451
745,01	19,538
745,19	20,839
745,37	19,978
745,55	20,179
745,73	18,716
745,91	18,877
746,09	18,908
746,27	20,354
746,45	20,379
746,62	19,670
746,80	20,086
746,98	19,164
747,16	19,889
747,34	20,184
747,52	19,394
747,70	20,998
747,88	20,443
748,06	21,145
748,24	20,901
748,42	20,412
748,60	18,394
748,78	20,446
748,95	19,040
749,13	19,257
749,31	19,074
749,49	19,725
749,67	20,908
749,85	21,140
750,03	19,822
750,21	18,926
750,39	19,224
750,57	21,541
750,74	21,640
750,92	18,681
751,10	21,755
751,28	20,054
751,46	18,335
751,64	19,847
751,82	18,603
752,00	18,853
752,17	21,715
752,35	19,419
752,53	22,066
752,71	19,501
752,89	20,629
753,07	19,962
753,25	20,063
753,43	18,115
753,60	19,884
753,78	20,173
753,96	21,790
754,14	19,534
754,32	19,131
754,50	21,661
754,68	20,474
754,85	21,013
755,03	19,995
755,21	21,082
755,39	20,808
755,57	19,038
755,75	21,679
755,92	18,912
756,10	19,825
756,28	22,310
756,46	19,789
756,64	20,065
756,82	19,620
756,99	22,021
757,17	18,938
757,35	18,872
757,53	18,771
757,71	21,467
757,89	19,782
758,06	19,773
758,24	19,581
758,42	20,829
758,60	21,422
758,78	19,005
758,95	22,788
759,13	20,607
759,31	19,344
759,49	19,133
759,67	18,740
759,84	19,835
760,02	21,621
760,20	21,150
760,38	18,174
760,56	19,416
760,73	21,020
760,91	22,596
761,09	20,033
761,27	20,344
761,45	17,857
761,62	20,833
761,80	19,823
761,98	20,907
762,16	20,983
762,33	19,327
762,51	21,324
762,69	20,274
762,87	19,304
763,05	19,487
763,22	20,001
763,40	20,521
763,58	19,799
763,76	20,489
763,93	20,579
764,11	19,832
764,29	20,318
764,47	18,532
764,64	19,464
764,82	22,215
765,00	19,219
765,18	16,832
765,35	17,883
765,53	21,474
765,71	18,880
765,89	20,716
766,06	18,860
766,24	19,143
766,42	19,904
766,60	20,082
766,77	20,688
766,95	18,449
767,13	18,796
767,30	18,378
767,48	19,456
767,66	20,458
767,84	19,522
768,01	19,023
768,19	19,302
768,37	18,931
768,54	22,015
768,72	21,400
768,90	20,152
769,08	19,269
769,25	18,774
769,43	21,913
769,61	20,417
769,78	20,916
769,96	20,152
770,14	20,315
770,31	19,516
770,49	19,961
770,67	20,851
770,85	20,231
771,02	19,990
771,20	18,238
771,38	21,213
771,55	19,935
771,73	18,367
771,91	21,323
772,08	21,865
772,26	19,394
772,44	18,369
772,61	18,135
772,79	21,141
772,97	20,600
773,14	18,729
773,32	20,040
773,50	17,752
773,67	22,074
773,85	21,745
774,03	19,544
774,20	19,048
774,38	21,121
774,56	18,218
774,73	18,933
774,91	18,814
775,09	20,283
775,26	19,232
775,44	20,145
775,61	20,970
775,79	20,715
775,97	19,906
776,14	19,733
776,32	19,297
776,50	19,940
776,67	19,154
776,85	21,877
777,03	18,940
777,20	19,334
777,38	21,714
777,55	19,936
777,73	17,717
777,91	19,056
778,08	20,924
778,26	21,955
778,43	22,097
778,61	20,808
778,79	20,346
778,96	19,157
779,14	18,139
779,32	23,173
779,49	21,437
779,67	22,138
779,84	20,799
780,02	21,623
780,20	18,369
780,37	20,837
780,55	19,143
780,72	19,968
780,90	23,886
781,07	18,682
781,25	21,944
781,43	20,772
781,60	19,718
781,78	21,017
781,95	19,930
782,13	19,057
782,30	20,209
782,48	18,051
782,66	20,325
782,83	19,378
783,01	21,289
783,18	20,451
783,36	21,767
783,53	22,170
783,71	19,804
783,89	20,620
784,06	21,677
784,24	20,455
784,41	22,827
784,59	18,549
784,76	18,420
784,94	20,936
785,11	22,483
785,29	20,323
785,46	20,543
785,64	17,751
785,82	21,506
785,99	20,831
786,17	18,166
786,34	20,233
786,52	19,569
786,69	18,330
786,87	20,260
787,04	21,323
787,22	20,145
787,39	19,820
787,57	21,380
787,74	20,877
787,92	21,802
788,09	19,451
788,27	19,835
788,44	19,381
788,62	18,435
788,79	18,970
788,97	21,767
789,14	20,505
789,32	22,207
789,49	18,272
789,67	21,579
789,84	21,914
790,02	17,019
790,19	19,115
790,37	19,805
790,54	22,605
790,72	19,146
790,89	21,287
791,07	19,657
791,24	19,109
791,42	19,828
791,59	21,535
791,77	16,700
791,94	19,943
792,12	19,014
792,29	21,728
792,47	20,576
792,64	22,655
792,81	21,426
792,99	23,115
793,16	20,120
793,34	22,867
793,51	17,338
793,69	21,021
793,86	19,288
794,04	19,716
794,21	21,222
794,39	18,269
794,56	17,838
794,73	20,038
794,91	23,159
795,08	20,631
795,26	21,861
795,43	19,353
795,61	20,493
795,78	22,008
795,95	23,508
796,13	20,742
796,30	22,950
796,48	18,121
796,65	20,783
796,83	20,973
797,00	22,390
797,17	19,268
797,35	19,241
797,52	22,730
797,70	21,375
797,87	15,048
798,04	16,723
798,22	22,016
798,39	17,555
798,57	19,186
798,74	22,071
798,91	20,061
799,09	18,610
799,26	22,111
799,44	20,836
799,61	20,026
799,78	20,531
799,96	24,599
800,13	19,019
800,31	19,417
800,48	20,149
800,65	22,235
800,83	19,195
801,00	22,115
801,17	21,125
801,35	16,079
801,52	18,666
801,70	21,584
801,87	18,300
802,04	21,817
802,22	19,888
802,39	22,021
802,56	19,116
802,74	22,592
802,91	18,558
803,08	17,611
803,26	20,910
803,43	20,274
803,61	22,501
803,78	22,638
803,95	20,676
804,13	16,762
804,30	19,255
804,47	23,830
804,65	18,914
804,82	20,519
804,99	21,331
805,17	20,915
805,34	21,377
805,51	24,089
805,69	17,904
805,86	17,014
806,03	21,565
806,21	18,367
806,38	18,956
806,55	23,679
806,72	23,382
806,90	21,034
807,07	21,832
807,24	20,187
807,42	20,091
807,59	21,151
807,76	20,199
807,94	21,156
808,11	22,751
808,28	20,790
808,45	20,755
808,63	23,424
808,80	22,246
808,97	22,178
809,15	20,580
809,32	23,893
809,49	19,784
809,67	18,835
809,84	18,209
810,01	20,124
810,18	24,450
810,36	20,661
810,53	24,526
810,70	22,329
810,87	20,922
811,05	19,352
811,22	24,347
811,39	22,954
811,57	25,206
811,74	23,637
811,91	19,452
812,08	21,617
812,26	20,785
812,43	21,570
812,60	21,751
812,77	19,934
812,95	22,214
813,12	20,361
813,29	18,064
813,46	21,537
813,64	17,843
813,81	19,179
813,98	18,304
814,15	23,389
814,32	21,332
814,50	23,460
814,67	21,633
814,84	23,225
815,01	21,963
815,19	17,615
815,36	17,811
815,53	25,311
815,70	16,627
815,87	19,618
816,05	21,713
816,22	22,427
816,39	25,238
816,56	25,258
816,74	20,094
816,91	21,857
817,08	26,889
817,25	21,991
817,42	23,211
817,60	22,968
817,77	19,417
817,94	22,677
818,11	22,703
818,28	26,892
818,45	24,680
818,63	19,367
818,80	20,598
818,97	23,750
819,14	22,603
819,31	20,644
819,49	20,855
819,66	21,421
819,83	23,363
820,00	19,613
820,17	22,021
820,34	23,663
820,52	26,069
820,69	22,270
820,86	20,591
821,03	17,697
821,20	23,858
821,37	19,828
821,55	17,308
821,72	18,232
821,89	22,436
822,06	21,780
822,23	19,694
822,40	23,152
822,57	19,053
822,75	26,553
822,92	21,363
823,09	19,233
823,26	23,008
823,43	26,581
823,60	15,247
823,77	24,345
823,94	15,892
824,12	22,057
824,29	19,822
824,46	22,630
824,63	24,530
824,80	19,416
824,97	22,158
825,14	20,965
825,31	21,678
825,49	19,564
825,66	20,269
825,83	19,329
826,00	23,124
826,17	26,284
826,34	18,925
826,51	16,250
826,68	19,369
826,85	23,464
827,02	21,643
827,20	20,844
827,37	22,371
827,54	21,933
827,71	22,847
827,88	20,054
828,05	20,046
828,22	18,072
828,39	19,972
828,56	27,256
828,73	19,547
828,90	23,339
829,07	26,631
829,25	18,380
829,42	22,986
829,59	21,865
829,76	23,649
829,93	23,430
830,10	23,724
830,27	18,055
830,44	28,657
830,61	25,635
830,78	29,679
830,95	21,472
831,12	19,011
831,29	22,839
831,46	16,132
831,63	20,598
831,80	22,636
831,97	23,197
832,14	26,091
832,31	30,566
832,48	24,980
832,65	18,843
832,83	19,068
833,00	22,003
833,17	24,649
833,34	20,817
833,51	13,800
833,68	24,143
833,85	28,426
834,02	20,817
834,19	21,098
834,36	20,798
834,53	18,241
834,70	24,791
834,87	25,959
835,04	21,605
835,21	27,718
835,38	19,676
835,55	26,351
835,72	28,720
835,89	23,463
836,06	31,052
836,23	27,465
836,40	24,353
836,57	19,328
836,74	27,355
836,91	26,471
837,08	23,899
837,25	27,507
837,42	14,015
837,59	19,938
837,76	22,753
837,93	22,698
838,09	20,671
838,26	26,722
838,43	24,876
838,60	29,664
838,77	18,406
838,94	26,289
839,11	23,006
839,28	23,049
839,45	22,493
839,62	23,747
839,79	23,248
839,96	25,013
840,13	23,494
840,30	23,190
840,47	20,245
840,64	17,494
840,81	21,312
840,98	20,866
841,15	25,226
841,32	18,901
841,48	28,884
841,65	21,513
841,82	32,336
841,99	15,214
842,16	20,660
842,33	28,265
842,50	21,923
842,67	20,237
842,84	23,051
843,01	25,960
843,18	29,808
843,35	22,607
843,52	18,471
843,68	21,750
843,85	25,614
844,02	20,791
844,19	15,602
844,36	28,833
844,53	26,009
844,70	22,572
844,87	24,315
845,04	21,221
845,21	20,588
845,37	26,265
845,54	20,436
845,71	12,135
845,88	19,433
846,05	22,849
846,22	20,926
846,39	26,079
846,56	13,854
846,72	14,190
846,89	28,681
847,06	35,175
847,23	27,377
847,40	16,534
847,57	19,953
847,74	24,044
847,90	33,195
848,07	31,970
848,24	31,835
848,41	16,171
848,58	25,112
848,75	27,447
848,92	27,365
849,08	24,834
849,25	20,666
849,42	20,877
849,59	20,830
849,76	23,628
849,93	13,092
850,09	28,047
850,26	23,008
850,43	27,294
850,60	27,760
850,77	20,649
850,94	30,035
851,10	22,695
851,27	30,218
851,44	9,269
851,61	20,872
851,78	24,445
851,95	15,165
852,11	20,548
852,28	29,210
852,45	22,373
852,62	20,265
852,79	22,999
852,95	28,541
853,12	26,179
853,29	14,533
853,46	20,103
853,63	29,749
853,79	13,556
853,96	18,728
854,13	30,855
854,30	13,224
854,46	24,846
854,63	24,568
854,80	23,800
854,97	28,058
855,14	21,276
855,30	29,570
855,47	22,569
855,64	12,552
855,81	22,427
855,97	19,326
856,14	28,005
856,31	24,203
856,48	27,679
856,65	37,652
856,81	27,891
856,98	27,246
857,15	24,477
857,32	22,048
857,48	20,845
857,65	19,186
857,82	12,302
857,99	22,953
858,15	26,774
858,32	19,233
858,49	41,252
858,65	35,856
858,82	23,029
858,99	34,992
859,16	22,951
859,32	25,322
859,49	15,025
859,66	14,647
859,83	12,458
859,99	26,366
860,16	35,325
860,33	15,987
860,49	17,233
860,66	33,807
860,83	25,788
861,00	35,599
861,16	30,709
861,33	32,541
861,50	30,679
861,66	27,372
861,83	13,634
862,00	29,689
862,16	17,443
862,33	35,511
862,50	31,525
862,67	20,641
862,83	31,433
863,00	40,306
863,17	28,270
863,33	37,947
863,50	6,597
863,67	26,397
863,83	22,116
864,00	18,876
864,17	20,012
864,33	25,357
864,50	29,948
864,67	23,134
864,83	20,625
865,00	24,575
865,17	30,626
865,33	29,261
865,50	15,099
865,67	38,555
865,83	29,620
866,00	30,300
866,17	44,811
866,33	40,662
866,50	49,751
866,66	36,565
866,83	-9,395
867,00	21,421
867,16	27,109
867,33	18,387
867,50	-10,585
867,66	20,309
867,83	32,845
868,00	38,874
868,16	35,106
868,33	12,370
868,49	26,103
868,66	28,620
868,83	14,631
868,99	27,082
869,16	37,971
869,32	17,070
869,49	17,249
869,66	7,128
869,82	23,074
869,99	38,787
870,15	38,147
870,32	27,523
870,49	36,595
870,65	20,065
870,82	20,542
870,98	24,470
871,15	16,367
871,32	7,718
871,48	15,646
871,65	38,171
871,81	20,956
871,98	6,179
872,15	12,308
872,31	19,707
872,48	26,202
872,64	11,985
872,81	23,701
872,97	10,191
873,14	31,164
873,31	33,955
873,47	12,334
873,64	24,030
873,80	48,069
873,97	8,555
874,13	11,359
874,30	39,151
874,46	35,249
874,63	13,622
874,80	35,273
874,96	13,738
875,13	63,823
875,29	20,184
875,46	47,439
875,62	21,367
875,79	36,859
875,95	25,685
876,12	40,554
876,28	20,824
876,45	5,850
876,61	26,576
876,78	22,779
876,94	35,755
877,11	1,357
877,27	23,999
877,44	13,026
877,60	17,690
877,77	39,744
877,94	71,000
878,10	15,198
878,27	37,105
878,43	36,207
878,60	12,890
878,76	21,303
878,93	-2,607
879,09	63,774
879,26	49,150
879,42	53,059
879,58	30,072
879,75	7,475
879,91	29,607
880,08	-4,468
880,24	8,880
880,41	42,794
880,57	20,587
880,74	-12,353
880,90	19,430
881,07	43,252
881,23	-7,340
881,40	51,898
881,56	80,857
881,73	44,325
881,89	35,907
882,06	29,858
882,22	87,078
882,38	35,896
882,55	56,673
882,71	33,709
882,88	22,852
883,04	-4,399
883,21	37,458
883,37	42,216
883,54	-15,985
883,70	49,814
883,86	26,042
884,03	-24,951
884,19	15,657
884,36	-54,972
884,52	40,083
884,69	33,792
884,85	33,341
885,01	37,303
885,18	72,443
885,34	-14,008
885,51	8,291
885,67	29,958
>>>>> Data<<<<< Espectral Procesado Extremo
