Fichero De Datos De SpectraSuite
++++++++++++++++++++++++++++++++++++
Fecha: Wed Apr 22 10:23:16 CEST 2009
Usuario: evoflor
Presente Oscuro Del Espectro: Sí
La Referencia de Presente Del Espectro De: Sí
Muestreados de los componentes de Número de espectros: 1
Espectrómetros: USB4F02353
Tiempo de integración (usec): 500000 (USB4F02353)
Promedio de Espectros Hechos un: 5 (USB4F02353)
El Alisar Del Furgón: 0 (USB4F02353)
Párrafo de de Corregir del la del del de Eléctrica del obscuridad: Sí (USB4F02353)
Estrobo/Lámpara Permitido: No (USB4F02353)
Correct for Detector Non-linearity: No (USB4F02353)
Párrafo de de Corregir del la del del de Externa del luz: No (USB4F02353)
Procesado del espectro de Número de pixeles en: 3648
>>>>> Comienza Data<<<<< Espectral Procesado Del EL
177,79	86,482
178,00	86,482
178,22	86,482
178,44	148,462
178,66	102,626
178,88	41,075
179,09	-122,511
179,31	101,722
179,53	236,811
179,75	146,355
179,96	682,672
180,18	11,108
180,40	154,745
180,62	198,117
180,83	-145,083
181,05	-779,146
181,27	-64790,000
181,49	0,022
181,70	-529,654
181,92	438,528
182,14	173,464
182,36	49,924
182,58	297,100
182,79	76,295
183,01	90,628
183,23	45,386
183,45	-113,508
183,66	-43,761
183,88	-153,588
184,10	-1341,636
184,32	-6,708
184,53	55,910
184,75	-3,202
184,97	60,755
185,18	-224,981
185,40	-116,779
185,62	83,561
185,84	-78,624
186,05	27,170
186,27	-105,413
186,49	-1523,462
186,71	97,281
186,92	104,462
187,14	50,591
187,36	67,511
187,58	100,096
187,79	-13,663
188,01	119,614
188,23	-53,665
188,45	115,772
188,66	228,973
188,88	-932,545
189,10	-593,900
189,31	62,986
189,53	188,850
189,75	137,023
189,97	-180,038
190,18	-61,845
190,40	719,941
190,62	-104,257
190,83	-57,763
191,05	78,680
191,27	203,114
191,49	302,946
191,70	-64,856
191,92	-114,322
192,14	20,790
192,35	322,255
192,57	-1671,714
192,79	-30,857
193,01	129,036
193,22	33,652
193,44	19,983
193,66	69,122
193,87	107,901
194,09	46,039
194,31	66,024
194,53	12,517
194,74	27,565
194,96	3,440
195,18	139,704
195,39	-28,470
195,61	-5,771
195,83	-86,065
196,04	139,607
196,26	-348,191
196,48	2,257
196,70	-26,859
196,91	-98,509
197,13	173,139
197,35	-160,894
197,56	245,170
197,78	362,612
198,00	553,776
198,21	-118,010
198,43	418,663
198,65	134,903
198,86	184,496
199,08	-50,197
199,30	147,551
199,51	143,681
199,73	146,348
199,95	204,926
200,16	581,500
200,38	125,850
200,60	28,231
200,81	104,047
201,03	114,918
201,25	-683,900
201,46	110,624
201,68	94,995
201,90	204,318
202,11	-463,702
202,33	111,472
202,55	472,375
202,76	126,670
202,98	-150,557
203,20	-311,490
203,41	-397,842
203,63	-16,533
203,85	-80990,000
204,06	-22,993
204,28	2,193
204,50	49,161
204,71	122,420
204,93	-144,080
205,15	-62,380
205,36	-18,910
205,58	67,351
205,80	-85,313
206,01	43,540
206,23	76,059
206,45	166,529
206,66	57,817
206,88	-28,723
207,10	116,568
207,31	97,735
207,53	-92,600
207,75	-38,768
207,96	611,119
208,18	-121,314
208,39	-1,044
208,61	2571,143
208,83	-142,398
209,04	69,358
209,26	240,599
209,48	230,795
209,69	60,952
209,91	297,939
210,13	68,710
210,34	-2,203
210,56	66,972
210,77	-963,701
210,99	-90,278
211,21	899,412
211,42	10,526
211,64	41,646
211,86	150,229
212,07	96,228
212,29	164,605
212,50	90,082
212,72	79,577
212,94	8,660
213,15	61,112
213,37	44,475
213,58	107,783
213,80	64,643
214,02	4022,941
214,23	195,420
214,45	-150,525
214,67	109,878
214,88	63,456
215,10	-155,264
215,31	-7,882
215,53	-67,523
215,75	89,200
215,96	614,845
216,18	-215,634
216,39	110,139
216,61	135,568
216,83	220,937
217,04	829,101
217,26	81,274
217,47	106,552
217,69	234,249
217,91	-53,325
218,12	-17990,000
218,34	127,970
218,55	155,146
218,77	130,031
218,99	136,162
219,20	27,687
219,42	244,192
219,63	80,618
219,85	-11,221
220,06	-439,654
220,28	17,804
220,50	-14,804
220,71	117,324
220,93	-322,830
221,14	-215,900
221,36	-43,002
221,58	112,927
221,79	-106,804
222,01	511,983
222,22	-313,882
222,44	-677,640
222,65	68,996
222,87	201,329
223,09	134,869
223,30	13,284
223,52	17,551
223,73	89,132
223,95	76,042
224,16	-22,289
224,38	304,953
224,60	37,784
224,81	41,740
225,03	63,425
225,24	-3,968
225,46	-142,043
225,67	23,787
225,89	-14,149
226,10	390,331
226,32	-57,680
226,54	-37,539
226,75	17,534
226,97	29,950
227,18	67,852
227,40	60,729
227,61	54,724
227,83	-44,544
228,04	69,452
228,26	-10,579
228,47	39,434
228,69	93,579
228,91	8,928
229,12	23,235
229,34	49,709
229,55	8,139
229,77	26,343
229,98	-1,462
230,20	35,073
230,41	7,737
230,63	-16,331
230,84	-64,727
231,06	8,835
231,27	-1,475
231,49	32,830
231,71	34,395
231,92	33,857
232,14	-5,477
232,35	62,973
232,57	64,381
232,78	-6,871
233,00	47,307
233,21	-5,357
233,43	10,319
233,64	23,944
233,86	12,369
234,07	-19,521
234,29	15,322
234,50	7,242
234,72	18,283
234,93	-0,413
235,15	20,654
235,36	22,188
235,58	-3,525
235,79	15,499
236,01	19,125
236,22	1,436
236,44	10,000
236,65	-0,330
236,87	8,631
237,08	6,857
237,30	10,266
237,51	9,380
237,73	-21,589
237,94	3,604
238,16	5,763
238,37	-3,527
238,59	6,720
238,80	3,315
239,02	11,618
239,23	1,824
239,45	6,593
239,66	13,875
239,88	13,144
240,09	20,775
240,31	-12,383
240,52	2,298
240,74	10,487
240,95	0,103
241,17	6,877
241,38	4,532
241,60	2,086
241,81	16,988
242,03	-0,835
242,24	6,280
242,46	8,476
242,67	5,808
242,89	2,220
243,10	17,272
243,32	10,435
243,53	1,302
243,75	2,351
243,96	0,668
244,18	0,873
244,39	0,293
244,60	0,489
244,82	2,390
245,03	11,343
245,25	3,532
245,46	8,077
245,68	-1,638
245,89	4,516
246,11	0,134
246,32	6,892
246,54	-0,637
246,75	8,978
246,97	1,461
247,18	13,309
247,39	-0,380
247,61	1,569
247,82	8,734
248,04	3,950
248,25	2,818
248,47	5,991
248,68	4,203
248,90	2,554
249,11	6,758
249,33	6,511
249,54	2,343
249,75	7,065
249,97	3,717
250,18	4,488
250,40	12,283
250,61	-0,400
250,83	1,564
251,04	-0,865
251,25	-0,273
251,47	-1,812
251,68	4,377
251,90	5,463
252,11	2,324
252,33	3,227
252,54	6,785
252,76	0,645
252,97	3,571
253,18	-0,584
253,40	5,756
253,61	0,237
253,83	5,893
254,04	6,188
254,25	5,246
254,47	1,731
254,68	5,163
254,90	2,130
255,11	1,581
255,33	8,630
255,54	2,815
255,75	2,684
255,97	1,195
256,18	-3,788
256,40	2,623
256,61	2,489
256,82	1,695
257,04	4,944
257,25	1,691
257,47	1,728
257,68	4,794
257,89	2,344
258,11	5,607
258,32	1,212
258,54	6,996
258,75	2,696
258,96	3,950
259,18	5,927
259,39	1,073
259,61	-1,211
259,82	2,669
260,03	9,275
260,25	0,364
260,46	-3,054
260,68	0,667
260,89	3,840
261,10	5,182
261,32	3,064
261,53	3,591
261,75	4,994
261,96	0,831
262,17	4,505
262,39	5,683
262,60	-0,692
262,81	-3,198
263,03	4,619
263,24	-0,077
263,46	3,362
263,67	3,022
263,88	-1,880
264,10	-0,380
264,31	-2,199
264,52	7,229
264,74	3,436
264,95	3,983
265,17	2,449
265,38	5,248
265,59	4,371
265,81	3,735
266,02	-0,518
266,23	0,076
266,45	4,508
266,66	4,393
266,87	6,430
267,09	4,614
267,30	9,881
267,52	3,625
267,73	-0,000
267,94	6,320
268,16	2,350
268,37	2,784
268,58	2,671
268,80	1,826
269,01	0,612
269,22	4,682
269,44	4,000
269,65	4,866
269,86	-0,114
270,08	5,142
270,29	2,271
270,50	4,715
270,72	3,054
270,93	0,075
271,14	-1,060
271,36	1,027
271,57	-0,453
271,78	3,696
272,00	5,071
272,21	4,035
272,42	4,757
272,64	3,978
272,85	2,126
273,06	0,680
273,28	6,070
273,49	4,377
273,70	4,153
273,92	5,343
274,13	4,213
274,34	7,203
274,56	4,278
274,77	1,317
274,98	-0,566
275,20	2,674
275,41	5,364
275,62	6,708
275,84	3,824
276,05	5,265
276,26	1,586
276,47	1,945
276,69	5,689
276,90	0,249
277,11	1,739
277,33	6,521
277,54	3,098
277,75	3,435
277,97	2,435
278,18	3,679
278,39	0,843
278,61	4,713
278,82	2,284
279,03	3,600
279,24	2,835
279,46	0,897
279,67	4,954
279,88	3,499
280,10	2,180
280,31	0,583
280,52	3,729
280,73	2,867
280,95	1,541
281,16	7,274
281,37	4,470
281,59	2,941
281,80	5,637
282,01	5,358
282,22	4,797
282,44	-1,456
282,65	4,906
282,86	5,608
283,08	0,639
283,29	6,512
283,50	4,432
283,71	3,087
283,93	3,604
284,14	7,773
284,35	0,157
284,56	4,759
284,78	2,660
284,99	3,108
285,20	4,112
285,42	2,188
285,63	2,575
285,84	0,707
286,05	1,217
286,27	3,405
286,48	0,148
286,69	-1,140
286,90	1,801
287,12	2,809
287,33	1,641
287,54	0,752
287,75	4,191
287,97	3,848
288,18	2,255
288,39	-0,029
288,60	1,259
288,82	1,184
289,03	0,860
289,24	3,109
289,45	6,535
289,67	2,357
289,88	2,669
290,09	1,502
290,30	2,600
290,52	2,708
290,73	2,395
290,94	-0,385
291,15	1,562
291,37	4,602
291,58	-0,166
291,79	2,775
292,00	2,531
292,21	3,326
292,43	-1,513
292,64	3,216
292,85	-1,152
293,06	6,083
293,28	2,418
293,49	0,052
293,70	4,278
293,91	2,714
294,12	3,280
294,34	2,821
294,55	2,282
294,76	2,106
294,97	2,289
295,19	3,704
295,40	1,683
295,61	3,332
295,82	2,474
296,03	2,576
296,25	1,940
296,46	1,636
296,67	2,293
296,88	0,557
297,09	4,840
297,31	3,632
297,52	3,231
297,73	3,093
297,94	3,582
298,15	2,957
298,37	3,205
298,58	4,206
298,79	6,709
299,00	2,142
299,21	0,857
299,43	1,215
299,64	3,937
299,85	4,408
300,06	3,396
300,27	2,809
300,49	4,782
300,70	0,776
300,91	1,838
301,12	1,988
301,33	3,248
301,54	1,812
301,76	2,001
301,97	2,212
302,18	1,890
302,39	5,219
302,60	4,093
302,82	2,873
303,03	3,951
303,24	2,194
303,45	2,307
303,66	2,694
303,87	3,554
304,09	4,114
304,30	3,669
304,51	1,416
304,72	3,136
304,93	1,975
305,14	5,076
305,36	-0,854
305,57	2,596
305,78	3,174
305,99	3,079
306,20	4,171
306,41	2,221
306,62	3,035
306,84	4,262
307,05	2,398
307,26	1,586
307,47	7,071
307,68	2,697
307,89	1,856
308,11	2,478
308,32	-0,050
308,53	1,855
308,74	3,520
308,95	3,167
309,16	2,638
309,37	4,095
309,59	1,017
309,80	4,750
310,01	2,267
310,22	2,490
310,43	1,084
310,64	2,650
310,85	2,701
311,06	1,681
311,28	3,847
311,49	4,309
311,70	4,715
311,91	-0,433
312,12	2,369
312,33	4,302
312,54	1,050
312,75	0,048
312,97	5,145
313,18	4,236
313,39	2,556
313,60	2,638
313,81	3,611
314,02	3,299
314,23	3,282
314,44	1,614
314,65	0,991
314,87	1,354
315,08	2,969
315,29	5,457
315,50	4,030
315,71	2,494
315,92	4,502
316,13	3,409
316,34	4,418
316,55	2,101
316,77	1,362
316,98	1,118
317,19	1,957
317,40	4,160
317,61	3,838
317,82	2,660
318,03	1,705
318,24	1,728
318,45	4,962
318,66	1,749
318,87	2,516
319,09	5,047
319,30	2,456
319,51	4,768
319,72	3,219
319,93	5,985
320,14	3,300
320,35	3,896
320,56	2,557
320,77	-0,460
320,98	7,454
321,19	5,455
321,40	3,312
321,62	3,240
321,83	1,745
322,04	4,816
322,25	1,154
322,46	7,711
322,67	4,596
322,88	5,340
323,09	2,538
323,30	3,332
323,51	4,636
323,72	4,815
323,93	-0,026
324,14	2,353
324,35	-0,077
324,56	1,264
324,77	3,034
324,99	1,714
325,20	1,822
325,41	3,868
325,62	2,565
325,83	3,626
326,04	2,640
326,25	3,254
326,46	2,655
326,67	4,055
326,88	1,848
327,09	3,161
327,30	4,786
327,51	3,002
327,72	3,977
327,93	5,842
328,14	0,128
328,35	1,562
328,56	3,301
328,77	2,860
328,98	4,460
329,19	1,199
329,40	4,873
329,61	1,739
329,82	1,187
330,04	1,739
330,25	0,920
330,46	2,197
330,67	3,130
330,88	0,626
331,09	3,839
331,30	-0,743
331,51	3,123
331,72	1,765
331,93	2,533
332,14	-0,155
332,35	7,248
332,56	1,410
332,77	5,969
332,98	1,234
333,19	1,156
333,40	1,692
333,61	2,052
333,82	3,968
334,03	2,589
334,24	4,345
334,45	0,804
334,66	6,004
334,87	2,943
335,08	0,636
335,29	1,166
335,50	0,749
335,71	1,756
335,92	4,497
336,13	4,530
336,34	0,402
336,55	2,916
336,76	4,165
336,97	2,995
337,18	0,369
337,39	3,631
337,60	2,350
337,81	3,583
338,02	2,574
338,23	1,299
338,44	6,381
338,65	4,609
338,86	5,307
339,07	-1,225
339,28	3,012
339,49	1,649
339,70	-2,435
339,91	2,084
340,11	2,417
340,32	1,926
340,53	2,117
340,74	1,684
340,95	2,076
341,16	2,129
341,37	0,027
341,58	1,910
341,79	-0,357
342,00	0,868
342,21	3,331
342,42	2,721
342,63	3,024
342,84	-1,642
343,05	3,552
343,26	4,909
343,47	1,044
343,68	0,705
343,89	3,481
344,10	5,041
344,31	4,897
344,52	1,170
344,73	2,688
344,94	4,494
345,14	2,922
345,35	4,652
345,56	1,961
345,77	3,255
345,98	2,935
346,19	5,297
346,40	2,034
346,61	2,312
346,82	1,577
347,03	0,788
347,24	3,449
347,45	0,728
347,66	4,797
347,87	2,789
348,08	4,246
348,28	3,279
348,49	5,937
348,70	3,261
348,91	2,375
349,12	2,595
349,33	12,718
349,54	1,314
349,75	1,317
349,96	2,048
350,17	3,402
350,38	1,754
350,59	3,650
350,80	1,819
351,00	3,427
351,21	7,796
351,42	1,647
351,63	3,380
351,84	2,815
352,05	4,856
352,26	2,746
352,47	3,182
352,68	2,506
352,89	5,324
353,09	6,550
353,30	2,738
353,51	3,385
353,72	3,975
353,93	4,120
354,14	0,524
354,35	2,133
354,56	4,990
354,77	3,168
354,98	-0,090
355,18	3,614
355,39	2,805
355,60	0,231
355,81	1,173
356,02	1,805
356,23	2,230
356,44	0,060
356,65	5,861
356,85	6,900
357,06	3,901
357,27	3,539
357,48	4,168
357,69	5,128
357,90	3,550
358,11	4,585
358,32	2,774
358,52	4,050
358,73	3,220
358,94	2,842
359,15	4,182
359,36	5,176
359,57	2,670
359,78	3,317
359,98	2,972
360,19	-1,175
360,40	0,969
360,61	3,909
360,82	1,989
361,03	4,995
361,24	1,479
361,44	3,388
361,65	2,028
361,86	1,719
362,07	2,551
362,28	2,471
362,49	0,669
362,70	3,791
362,90	3,775
363,11	3,026
363,32	2,311
363,53	6,422
363,74	4,941
363,95	6,059
364,15	4,036
364,36	5,552
364,57	4,097
364,78	3,358
364,99	5,039
365,20	3,703
365,40	3,557
365,61	1,070
365,82	5,994
366,03	1,082
366,24	5,581
366,45	0,812
366,65	0,794
366,86	2,772
367,07	4,455
367,28	3,120
367,49	4,899
367,69	3,649
367,90	4,736
368,11	1,948
368,32	0,881
368,53	2,751
368,73	5,629
368,94	3,660
369,15	0,091
369,36	4,670
369,57	3,387
369,78	0,468
369,98	4,882
370,19	3,633
370,40	1,226
370,61	1,367
370,82	1,489
371,02	2,206
371,23	6,516
371,44	5,145
371,65	1,998
371,85	7,881
372,06	0,656
372,27	0,954
372,48	2,039
372,69	1,970
372,89	2,900
373,10	2,612
373,31	1,780
373,52	4,801
373,73	7,711
373,93	3,421
374,14	0,971
374,35	5,830
374,56	3,133
374,76	3,782
374,97	0,594
375,18	3,205
375,39	4,301
375,60	4,474
375,80	4,229
376,01	1,078
376,22	3,683
376,43	0,566
376,63	1,581
376,84	0,719
377,05	5,948
377,26	1,471
377,46	0,409
377,67	1,924
377,88	5,671
378,09	4,478
378,29	-0,358
378,50	5,634
378,71	2,760
378,92	4,254
379,12	0,126
379,33	-0,095
379,54	4,514
379,75	2,290
379,95	1,429
380,16	2,633
380,37	4,315
380,58	3,403
380,78	1,713
380,99	-0,699
381,20	3,995
381,41	4,515
381,61	6,207
381,82	2,599
382,03	0,098
382,24	2,339
382,44	4,086
382,65	1,868
382,86	1,359
383,06	-0,232
383,27	4,660
383,48	4,793
383,69	5,134
383,89	5,213
384,10	3,578
384,31	3,421
384,51	4,644
384,72	5,164
384,93	2,466
385,14	1,981
385,34	6,095
385,55	0,916
385,76	0,834
385,96	3,711
386,17	3,333
386,38	4,336
386,59	2,768
386,79	0,787
387,00	4,636
387,21	3,438
387,41	5,307
387,62	0,990
387,83	3,456
388,03	2,647
388,24	1,699
388,45	4,455
388,66	3,463
388,86	3,221
389,07	1,421
389,28	3,302
389,48	5,012
389,69	1,699
389,90	2,818
390,10	7,702
390,31	5,849
390,52	-3,552
390,72	1,990
390,93	0,530
391,14	-0,487
391,34	3,715
391,55	3,563
391,76	4,850
391,96	5,274
392,17	5,339
392,38	6,407
392,58	3,060
392,79	2,640
393,00	2,670
393,20	2,714
393,41	1,480
393,62	-0,000
393,82	3,783
394,03	1,068
394,24	4,511
394,44	1,624
394,65	2,399
394,86	2,771
395,06	2,782
395,27	0,202
395,48	2,158
395,68	3,052
395,89	3,507
396,10	2,275
396,30	4,528
396,51	2,824
396,72	2,511
396,92	-0,709
397,13	4,286
397,34	-0,300
397,54	4,978
397,75	2,092
397,95	3,944
398,16	2,778
398,37	3,541
398,57	1,932
398,78	7,492
398,99	4,628
399,19	2,261
399,40	4,870
399,60	1,600
399,81	5,454
400,02	2,527
400,22	5,462
400,43	5,810
400,64	4,594
400,84	5,745
401,05	4,379
401,25	3,284
401,46	5,866
401,67	4,186
401,87	2,821
402,08	4,571
402,29	0,306
402,49	4,321
402,70	7,021
402,90	2,576
403,11	2,659
403,32	5,377
403,52	6,649
403,73	3,658
403,93	6,896
404,14	8,573
404,35	6,966
404,55	3,669
404,76	3,872
404,96	8,395
405,17	5,275
405,38	4,808
405,58	3,736
405,79	5,083
405,99	3,049
406,20	2,429
406,40	1,726
406,61	6,639
406,82	4,103
407,02	6,612
407,23	5,017
407,43	1,265
407,64	3,654
407,85	5,947
408,05	3,337
408,26	7,517
408,46	4,471
408,67	5,497
408,87	6,236
409,08	5,812
409,29	4,680
409,49	8,569
409,70	7,039
409,90	6,792
410,11	3,519
410,31	10,071
410,52	7,255
410,72	7,075
410,93	6,414
411,14	7,726
411,34	5,844
411,55	10,922
411,75	9,936
411,96	8,601
412,16	9,094
412,37	3,787
412,57	8,622
412,78	3,484
412,99	9,163
413,19	10,360
413,40	10,504
413,60	5,025
413,81	6,594
414,01	7,500
414,22	8,063
414,42	9,344
414,63	8,494
414,83	12,079
415,04	11,107
415,24	12,495
415,45	8,066
415,65	5,686
415,86	7,647
416,07	9,764
416,27	7,397
416,48	10,953
416,68	12,706
416,89	10,777
417,09	12,681
417,30	10,766
417,50	11,368
417,71	12,810
417,91	13,773
418,12	9,033
418,32	11,771
418,53	13,839
418,73	13,253
418,94	11,325
419,14	13,385
419,35	7,723
419,55	13,724
419,76	10,245
419,96	12,863
420,17	11,318
420,37	14,215
420,58	13,902
420,78	11,059
420,99	14,454
421,19	13,881
421,40	14,438
421,60	15,288
421,81	15,374
422,01	12,123
422,22	13,835
422,42	15,166
422,63	15,175
422,83	13,668
423,04	18,035
423,24	17,494
423,45	13,478
423,65	19,110
423,86	17,532
424,06	19,462
424,27	15,735
424,47	14,989
424,67	16,347
424,88	17,470
425,08	17,861
425,29	21,001
425,49	16,051
425,70	12,621
425,90	18,466
426,11	18,793
426,31	17,838
426,52	18,820
426,72	17,184
426,93	20,728
427,13	20,270
427,33	20,461
427,54	21,022
427,74	22,281
427,95	19,211
428,15	15,451
428,36	23,160
428,56	20,815
428,77	20,312
428,97	22,136
429,18	20,436
429,38	17,611
429,58	23,586
429,79	18,561
429,99	25,338
430,20	18,405
430,40	24,786
430,61	22,602
430,81	19,709
431,01	21,210
431,22	19,560
431,42	23,258
431,63	21,118
431,83	25,888
432,04	22,015
432,24	24,895
432,44	23,366
432,65	19,216
432,85	23,263
433,06	25,784
433,26	21,021
433,47	21,494
433,67	22,956
433,87	18,224
434,08	19,673
434,28	22,764
434,49	22,535
434,69	25,342
434,89	22,531
435,10	23,057
435,30	23,102
435,51	19,499
435,71	23,063
435,91	21,581
436,12	24,255
436,32	21,720
436,53	23,826
436,73	21,399
436,93	20,254
437,14	25,051
437,34	23,124
437,55	25,479
437,75	23,077
437,95	23,665
438,16	25,891
438,36	22,318
438,57	26,969
438,77	22,731
438,97	26,508
439,18	30,943
439,38	27,773
439,58	27,213
439,79	26,818
439,99	26,757
440,20	26,218
440,40	30,194
440,60	30,718
440,81	30,945
441,01	31,637
441,21	26,044
441,42	24,197
441,62	27,018
441,83	32,614
442,03	27,883
442,23	27,110
442,44	27,277
442,64	24,890
442,84	24,670
443,05	26,700
443,25	26,123
443,45	26,293
443,66	26,511
443,86	25,680
444,06	28,739
444,27	24,043
444,47	26,575
444,67	21,286
444,88	26,885
445,08	25,470
445,28	29,208
445,49	27,776
445,69	21,990
445,90	29,079
446,10	26,102
446,30	31,821
446,51	29,243
446,71	31,704
446,91	30,580
447,12	29,551
447,32	27,795
447,52	31,700
447,72	31,469
447,93	31,765
448,13	26,858
448,33	33,109
448,54	29,529
448,74	29,214
448,94	31,723
449,15	30,467
449,35	26,468
449,55	26,625
449,76	31,686
449,96	28,849
450,16	30,265
450,37	32,159
450,57	31,391
450,77	28,209
450,98	28,709
451,18	31,016
451,38	29,487
451,58	29,594
451,79	29,203
451,99	32,602
452,19	34,173
452,40	29,547
452,60	28,116
452,80	26,006
453,00	30,703
453,21	29,573
453,41	33,566
453,61	29,308
453,82	32,962
454,02	24,243
454,22	26,478
454,42	31,840
454,63	29,431
454,83	32,886
455,03	30,904
455,24	33,602
455,44	30,067
455,64	31,738
455,84	28,262
456,05	28,244
456,25	30,817
456,45	30,887
456,65	29,570
456,86	31,291
457,06	30,681
457,26	35,873
457,47	34,232
457,67	35,101
457,87	27,823
458,07	30,576
458,28	37,892
458,48	30,540
458,68	28,509
458,88	33,972
459,09	30,258
459,29	36,738
459,49	35,578
459,69	34,946
459,90	35,847
460,10	31,753
460,30	32,532
460,50	32,813
460,71	30,945
460,91	28,367
461,11	31,464
461,31	25,854
461,52	34,435
461,72	33,964
461,92	34,284
462,12	37,521
462,32	28,196
462,53	32,144
462,73	31,704
462,93	35,527
463,13	31,917
463,34	34,329
463,54	31,481
463,74	38,044
463,94	32,970
464,14	33,627
464,35	30,728
464,55	34,793
464,75	37,550
464,95	32,698
465,16	32,148
465,36	33,478
465,56	32,312
465,76	35,532
465,96	34,204
466,17	34,869
466,37	34,096
466,57	35,839
466,77	34,098
466,97	32,479
467,18	36,200
467,38	34,990
467,58	33,844
467,78	35,920
467,98	37,051
468,19	39,049
468,39	37,828
468,59	37,226
468,79	38,387
468,99	32,111
469,19	33,015
469,40	35,045
469,60	35,350
469,80	34,329
470,00	33,821
470,20	38,890
470,41	33,773
470,61	40,892
470,81	30,353
471,01	30,939
471,21	32,959
471,41	36,761
471,62	34,968
471,82	33,019
472,02	33,384
472,22	35,227
472,42	33,128
472,62	33,299
472,83	36,358
473,03	36,760
473,23	32,707
473,43	38,650
473,63	32,437
473,83	37,001
474,03	33,989
474,24	37,131
474,44	35,556
474,64	37,374
474,84	35,458
475,04	37,080
475,24	38,586
475,45	33,673
475,65	33,409
475,85	39,482
476,05	36,812
476,25	36,321
476,45	35,882
476,65	40,597
476,85	35,315
477,06	35,313
477,26	32,906
477,46	35,317
477,66	38,852
477,86	38,184
478,06	33,210
478,26	37,486
478,46	37,081
478,67	38,699
478,87	38,122
479,07	36,891
479,27	37,394
479,47	36,797
479,67	36,275
479,87	37,015
480,07	36,896
480,28	37,297
480,48	34,305
480,68	37,230
480,88	39,421
481,08	39,475
481,28	37,737
481,48	37,279
481,68	35,379
481,88	36,241
482,08	35,055
482,29	38,724
482,49	35,697
482,69	34,376
482,89	36,522
483,09	37,555
483,29	37,207
483,49	34,946
483,69	37,646
483,89	36,272
484,09	33,814
484,29	33,119
484,50	34,296
484,70	36,627
484,90	34,637
485,10	34,204
485,30	35,335
485,50	37,265
485,70	35,850
485,90	34,033
486,10	32,819
486,30	35,798
486,50	36,428
486,70	33,745
486,90	34,668
487,10	34,355
487,30	35,652
487,51	35,383
487,71	33,584
487,91	33,478
488,11	36,331
488,31	33,734
488,51	35,075
488,71	34,885
488,91	37,950
489,11	35,830
489,31	36,636
489,51	33,729
489,71	35,058
489,91	36,013
490,11	38,344
490,31	32,460
490,51	34,315
490,71	35,287
490,91	35,135
491,11	35,079
491,31	35,446
491,51	34,349
491,72	35,588
491,92	39,417
492,12	37,944
492,32	37,250
492,52	38,572
492,72	36,920
492,92	38,492
493,12	37,623
493,32	36,299
493,52	36,277
493,72	33,872
493,92	40,097
494,12	37,079
494,32	38,665
494,52	36,941
494,72	36,693
494,92	37,310
495,12	37,435
495,32	36,811
495,52	38,417
495,72	37,450
495,92	40,698
496,12	39,534
496,32	36,952
496,52	37,659
496,72	36,681
496,92	38,051
497,12	39,039
497,32	41,103
497,52	39,217
497,72	41,437
497,92	40,617
498,12	37,740
498,32	38,503
498,52	40,227
498,72	36,608
498,92	36,159
499,12	41,736
499,32	38,790
499,52	40,780
499,72	42,761
499,92	40,023
500,12	38,300
500,32	42,404
500,52	40,541
500,72	42,049
500,91	41,829
501,11	40,470
501,31	38,566
501,51	42,282
501,71	42,564
501,91	41,975
502,11	41,009
502,31	38,765
502,51	40,900
502,71	42,290
502,91	40,862
503,11	39,588
503,31	40,348
503,51	41,194
503,71	41,231
503,91	42,848
504,11	42,569
504,31	40,720
504,51	42,887
504,71	43,437
504,91	44,735
505,10	41,299
505,30	42,592
505,50	42,112
505,70	43,303
505,90	43,605
506,10	41,769
506,30	41,889
506,50	45,549
506,70	44,071
506,90	43,307
507,10	44,544
507,30	42,525
507,50	43,302
507,70	41,471
507,89	41,115
508,09	40,669
508,29	42,316
508,49	42,524
508,69	40,632
508,89	40,404
509,09	43,327
509,29	43,983
509,49	43,874
509,69	44,218
509,89	40,883
510,09	44,586
510,28	43,290
510,48	44,173
510,68	40,815
510,88	41,554
511,08	41,732
511,28	40,072
511,48	42,754
511,68	42,295
511,88	40,833
512,07	44,056
512,27	44,950
512,47	43,240
512,67	43,726
512,87	41,929
513,07	43,009
513,27	41,385
513,47	40,177
513,67	42,995
513,86	43,945
514,06	43,602
514,26	43,186
514,46	42,043
514,66	42,625
514,86	43,775
515,06	45,674
515,26	44,892
515,45	43,698
515,65	41,609
515,85	42,568
516,05	45,006
516,25	46,320
516,45	45,010
516,65	43,025
516,84	43,240
517,04	44,645
517,24	43,508
517,44	42,167
517,64	47,519
517,84	43,970
518,04	42,352
518,23	42,283
518,43	44,117
518,63	43,472
518,83	42,159
519,03	44,364
519,23	46,161
519,42	44,013
519,62	42,305
519,82	44,644
520,02	43,546
520,22	44,600
520,42	42,491
520,61	43,444
520,81	45,523
521,01	45,992
521,21	42,492
521,41	45,303
521,61	43,059
521,80	42,319
522,00	43,799
522,20	44,889
522,40	45,305
522,60	47,052
522,79	43,025
522,99	45,346
523,19	43,449
523,39	45,194
523,59	44,006
523,78	46,952
523,98	42,190
524,18	42,792
524,38	42,319
524,58	46,797
524,77	44,747
524,97	44,236
525,17	45,800
525,37	44,561
525,57	44,672
525,76	43,186
525,96	46,199
526,16	41,788
526,36	43,161
526,56	45,727
526,75	42,757
526,95	43,894
527,15	43,481
527,35	45,322
527,55	44,810
527,74	46,966
527,94	43,590
528,14	44,213
528,34	45,357
528,53	44,997
528,73	43,018
528,93	45,493
529,13	43,560
529,32	44,390
529,52	43,349
529,72	41,457
529,92	45,194
530,12	43,464
530,31	42,785
530,51	45,832
530,71	45,789
530,91	43,583
531,10	40,579
531,30	43,030
531,50	42,844
531,70	46,195
531,89	41,622
532,09	43,578
532,29	45,024
532,49	45,176
532,68	43,978
532,88	44,692
533,08	42,312
533,28	44,814
533,47	41,879
533,67	46,376
533,87	42,525
534,06	45,972
534,26	42,341
534,46	44,101
534,66	42,962
534,85	43,842
535,05	41,546
535,25	42,032
535,45	40,623
535,64	43,222
535,84	41,793
536,04	41,253
536,23	45,247
536,43	43,605
536,63	41,851
536,83	43,973
537,02	40,014
537,22	41,243
537,42	40,210
537,61	41,895
537,81	42,364
538,01	40,339
538,20	41,476
538,40	39,903
538,60	41,098
538,80	38,295
538,99	38,605
539,19	39,647
539,39	37,840
539,58	37,313
539,78	35,151
539,98	35,874
540,17	37,605
540,37	34,208
540,57	33,745
540,76	34,225
540,96	32,651
541,16	31,683
541,36	30,615
541,55	29,010
541,75	30,422
541,95	30,399
542,14	30,892
542,34	29,238
542,54	29,067
542,73	31,223
542,93	30,613
543,13	29,072
543,32	29,293
543,52	27,983
543,72	27,123
543,91	28,677
544,11	29,457
544,31	29,104
544,50	30,423
544,70	29,566
544,89	30,510
545,09	31,368
545,29	30,136
545,48	29,598
545,68	31,064
545,88	30,930
546,07	31,900
546,27	33,124
546,47	31,998
546,66	32,533
546,86	36,270
547,06	32,745
547,25	34,527
547,45	38,091
547,64	34,274
547,84	36,737
548,04	38,015
548,23	37,618
548,43	38,055
548,63	38,640
548,82	38,313
549,02	37,095
549,21	39,581
549,41	42,018
549,61	40,091
549,80	39,909
550,00	39,241
550,20	38,830
550,39	39,946
550,59	39,716
550,78	40,449
550,98	36,881
551,18	40,808
551,37	40,414
551,57	40,793
551,76	40,409
551,96	41,671
552,16	43,339
552,35	39,227
552,55	42,096
552,74	40,866
552,94	42,452
553,14	39,682
553,33	41,849
553,53	41,625
553,72	44,372
553,92	43,719
554,12	42,083
554,31	41,903
554,51	41,004
554,70	41,333
554,90	41,938
555,09	44,295
555,29	42,549
555,49	42,757
555,68	43,077
555,88	41,875
556,07	41,281
556,27	44,521
556,46	40,266
556,66	41,495
556,86	45,566
557,05	42,402
557,25	41,379
557,44	42,453
557,64	42,206
557,83	40,749
558,03	41,532
558,22	41,161
558,42	41,735
558,62	44,674
558,81	43,512
559,01	40,566
559,20	42,394
559,40	41,987
559,59	43,010
559,79	42,814
559,98	43,804
560,18	44,778
560,37	44,609
560,57	42,461
560,76	42,114
560,96	43,848
561,16	45,216
561,35	42,935
561,55	45,606
561,74	43,171
561,94	43,953
562,13	41,555
562,33	43,852
562,52	42,374
562,72	41,389
562,91	45,204
563,11	43,363
563,30	44,079
563,50	42,858
563,69	41,355
563,89	41,575
564,08	43,608
564,28	43,656
564,47	42,266
564,67	43,519
564,86	42,412
565,06	42,699
565,25	44,060
565,45	42,632
565,64	45,821
565,84	40,394
566,03	44,196
566,23	43,796
566,42	43,551
566,62	41,559
566,81	42,439
567,01	42,523
567,20	43,876
567,40	41,017
567,59	42,595
567,79	43,921
567,98	45,173
568,18	44,664
568,37	45,140
568,57	44,298
568,76	43,756
568,96	43,423
569,15	43,064
569,35	44,703
569,54	44,475
569,73	45,186
569,93	44,447
570,12	44,927
570,32	43,524
570,51	44,226
570,71	42,900
570,90	44,367
571,10	43,854
571,29	43,973
571,49	42,598
571,68	43,332
571,87	42,816
572,07	44,412
572,26	43,261
572,46	43,606
572,65	43,565
572,85	42,540
573,04	44,418
573,24	44,304
573,43	47,823
573,62	44,920
573,82	43,194
574,01	44,564
574,21	44,336
574,40	43,204
574,60	42,963
574,79	44,461
574,98	42,809
575,18	43,205
575,37	42,787
575,57	41,829
575,76	43,442
575,96	43,469
576,15	42,617
576,34	42,612
576,54	45,516
576,73	43,321
576,93	42,384
577,12	42,112
577,31	43,299
577,51	43,162
577,70	41,268
577,90	42,976
578,09	41,800
578,28	41,533
578,48	42,888
578,67	45,335
578,87	43,035
579,06	41,430
579,25	43,252
579,45	41,432
579,64	41,659
579,84	43,057
580,03	41,734
580,22	41,965
580,42	42,007
580,61	43,021
580,81	42,641
581,00	41,481
581,19	42,849
581,39	42,791
581,58	41,655
581,77	43,605
581,97	44,017
582,16	42,246
582,35	43,568
582,55	42,703
582,74	43,442
582,94	42,590
583,13	41,456
583,32	42,683
583,52	40,462
583,71	42,085
583,90	42,973
584,10	40,941
584,29	43,476
584,48	41,025
584,68	43,342
584,87	42,239
585,06	41,005
585,26	42,013
585,45	39,891
585,65	41,982
585,84	40,307
586,03	41,400
586,23	40,791
586,42	41,248
586,61	41,667
586,81	41,196
587,00	40,833
587,19	40,082
587,39	41,794
587,58	41,145
587,77	41,180
587,97	42,585
588,16	41,149
588,35	43,156
588,54	41,813
588,74	40,864
588,93	40,291
589,12	40,636
589,32	41,096
589,51	40,454
589,70	41,168
589,90	42,619
590,09	41,872
590,28	44,532
590,48	41,443
590,67	42,298
590,86	41,954
591,06	41,779
591,25	42,588
591,44	42,163
591,63	42,423
591,83	42,961
592,02	41,913
592,21	41,760
592,41	41,505
592,60	41,269
592,79	41,319
592,98	41,618
593,18	44,072
593,37	41,874
593,56	42,204
593,76	41,928
593,95	41,044
594,14	40,468
594,33	44,100
594,53	42,462
594,72	42,108
594,91	43,989
595,10	42,530
595,30	43,274
595,49	42,134
595,68	41,874
595,88	44,076
596,07	42,735
596,26	40,234
596,45	43,599
596,65	40,014
596,84	42,782
597,03	41,388
597,22	43,499
597,42	43,232
597,61	42,779
597,80	43,230
597,99	42,852
598,19	41,564
598,38	43,513
598,57	44,268
598,76	43,461
598,95	43,666
599,15	42,175
599,34	43,495
599,53	43,880
599,72	45,542
599,92	44,133
600,11	42,949
600,30	42,944
600,49	43,993
600,69	42,133
600,88	43,957
601,07	42,778
601,26	41,928
601,45	43,059
601,65	41,312
601,84	42,500
602,03	42,155
602,22	42,914
602,42	42,637
602,61	43,929
602,80	43,499
602,99	42,017
603,18	43,365
603,38	42,135
603,57	42,794
603,76	43,293
603,95	44,648
604,14	42,664
604,34	43,887
604,53	43,006
604,72	44,546
604,91	44,147
605,10	44,446
605,29	42,877
605,49	42,545
605,68	42,619
605,87	42,575
606,06	42,904
606,25	41,404
606,45	41,311
606,64	41,482
606,83	42,556
607,02	41,804
607,21	43,094
607,40	42,034
607,60	40,668
607,79	39,852
607,98	38,903
608,17	38,556
608,36	39,174
608,55	39,343
608,75	38,425
608,94	36,901
609,13	35,185
609,32	34,549
609,51	34,698
609,70	34,653
609,89	35,184
610,09	35,377
610,28	34,290
610,47	33,140
610,66	32,974
610,85	31,523
611,04	34,073
611,23	34,067
611,43	34,350
611,62	33,326
611,81	33,222
612,00	34,673
612,19	32,978
612,38	34,724
612,57	34,435
612,77	35,183
612,96	36,009
613,15	35,512
613,34	37,300
613,53	38,645
613,72	37,688
613,91	39,175
614,10	36,418
614,29	39,392
614,49	38,743
614,68	37,705
614,87	38,977
615,06	40,765
615,25	38,208
615,44	39,662
615,63	39,328
615,82	38,201
616,01	39,205
616,21	39,722
616,40	40,274
616,59	40,822
616,78	40,212
616,97	40,395
617,16	40,732
617,35	42,524
617,54	41,205
617,73	42,360
617,92	40,637
618,11	41,056
618,31	38,229
618,50	41,355
618,69	40,266
618,88	40,418
619,07	41,116
619,26	37,908
619,45	38,782
619,64	39,636
619,83	39,026
620,02	37,963
620,21	40,058
620,40	40,563
620,59	39,114
620,78	40,049
620,97	40,807
621,17	40,151
621,36	40,183
621,55	39,807
621,74	39,295
621,93	40,638
622,12	40,408
622,31	39,905
622,50	38,043
622,69	42,860
622,88	42,415
623,07	41,357
623,26	41,459
623,45	41,509
623,64	39,952
623,83	40,150
624,02	41,135
624,21	40,487
624,40	40,949
624,59	40,391
624,78	40,908
624,97	40,714
625,16	40,578
625,35	38,042
625,54	40,165
625,73	40,233
625,92	41,284
626,12	41,791
626,31	41,979
626,50	40,686
626,69	42,819
626,88	39,103
627,07	41,994
627,26	40,697
627,45	38,723
627,64	41,254
627,83	40,972
628,02	38,804
628,21	40,910
628,40	41,053
628,59	41,390
628,78	39,816
628,97	39,230
629,16	37,116
629,35	38,080
629,54	42,599
629,73	40,584
629,92	38,463
630,10	40,057
630,29	41,018
630,48	40,496
630,67	39,348
630,86	38,397
631,05	40,673
631,24	42,118
631,43	39,371
631,62	40,309
631,81	39,315
632,00	40,278
632,19	39,055
632,38	41,353
632,57	41,650
632,76	41,012
632,95	41,945
633,14	42,074
633,33	39,865
633,52	40,872
633,71	41,718
633,90	40,768
634,09	41,101
634,28	42,793
634,47	40,023
634,66	40,731
634,85	40,229
635,04	41,813
635,22	40,635
635,41	42,163
635,60	40,802
635,79	42,258
635,98	40,199
636,17	42,361
636,36	42,518
636,55	40,324
636,74	39,081
636,93	41,022
637,12	42,453
637,31	40,157
637,50	39,127
637,69	41,659
637,87	38,810
638,06	40,727
638,25	42,656
638,44	43,720
638,63	40,041
638,82	40,133
639,01	41,579
639,20	41,465
639,39	41,860
639,58	40,659
639,77	42,130
639,95	40,590
640,14	40,703
640,33	40,380
640,52	39,873
640,71	40,981
640,90	40,855
641,09	43,234
641,28	39,594
641,47	42,604
641,66	41,139
641,84	41,335
642,03	42,229
642,22	40,769
642,41	42,332
642,60	41,039
642,79	39,276
642,98	42,220
643,17	39,849
643,35	42,180
643,54	41,611
643,73	40,670
643,92	41,190
644,11	41,274
644,30	39,152
644,49	42,527
644,67	40,976
644,86	39,644
645,05	42,362
645,24	41,169
645,43	42,171
645,62	40,090
645,81	40,603
645,99	43,357
646,18	41,248
646,37	41,137
646,56	41,404
646,75	42,438
646,94	41,098
647,13	39,765
647,31	41,058
647,50	41,893
647,69	41,870
647,88	39,539
648,07	39,984
648,26	43,659
648,44	41,127
648,63	39,041
648,82	41,590
649,01	41,058
649,20	40,319
649,38	40,436
649,57	42,010
649,76	38,622
649,95	40,380
650,14	39,151
650,33	39,145
650,51	39,885
650,70	42,092
650,89	40,093
651,08	39,626
651,27	40,143
651,45	39,078
651,64	40,946
651,83	40,305
652,02	40,006
652,21	41,630
652,39	41,886
652,58	41,643
652,77	41,349
652,96	41,410
653,15	41,395
653,33	42,198
653,52	42,228
653,71	42,587
653,90	42,878
654,09	42,412
654,27	42,082
654,46	42,714
654,65	43,413
654,84	42,088
655,02	43,300
655,21	43,388
655,40	44,239
655,59	42,191
655,77	42,482
655,96	44,481
656,15	40,696
656,34	43,923
656,53	43,031
656,71	42,646
656,90	45,003
657,09	43,072
657,28	42,687
657,46	42,112
657,65	41,250
657,84	41,038
658,03	41,063
658,21	41,080
658,40	41,268
658,59	40,833
658,78	43,600
658,96	41,026
659,15	41,093
659,34	40,691
659,52	41,079
659,71	41,410
659,90	41,058
660,09	39,301
660,27	39,739
660,46	41,210
660,65	41,165
660,84	40,375
661,02	40,746
661,21	41,423
661,40	42,103
661,58	41,430
661,77	40,807
661,96	39,962
662,15	40,174
662,33	40,109
662,52	39,265
662,71	41,283
662,89	40,547
663,08	41,104
663,27	38,280
663,45	39,433
663,64	40,976
663,83	40,450
664,02	39,961
664,20	40,839
664,39	40,657
664,58	40,495
664,76	38,597
664,95	40,854
665,14	40,786
665,32	41,102
665,51	41,875
665,70	39,719
665,88	41,099
666,07	40,870
666,26	39,456
666,44	38,120
666,63	38,354
666,82	40,862
667,00	41,217
667,19	39,390
667,38	40,865
667,56	41,097
667,75	41,502
667,94	42,468
668,12	39,425
668,31	41,187
668,50	40,399
668,68	40,287
668,87	39,715
669,06	40,279
669,24	41,428
669,43	40,791
669,62	39,225
669,80	40,292
669,99	40,495
670,18	40,152
670,36	40,492
670,55	39,565
670,74	40,696
670,92	37,076
671,11	41,530
671,29	39,355
671,48	42,023
671,67	39,319
671,85	42,562
672,04	41,839
672,23	40,270
672,41	39,959
672,60	39,475
672,78	39,844
672,97	40,756
673,16	39,678
673,34	39,960
673,53	39,019
673,71	40,154
673,90	40,393
674,09	40,864
674,27	39,056
674,46	40,625
674,64	39,854
674,83	41,274
675,02	40,118
675,20	40,604
675,39	39,615
675,57	39,893
675,76	40,265
675,95	39,558
676,13	40,965
676,32	40,706
676,50	40,322
676,69	40,237
676,88	40,714
677,06	41,169
677,25	39,219
677,43	41,455
677,62	40,061
677,80	42,173
677,99	40,019
678,18	39,723
678,36	41,367
678,55	40,402
678,73	39,446
678,92	40,164
679,10	40,310
679,29	41,396
679,48	38,399
679,66	39,541
679,85	39,764
680,03	40,650
680,22	40,992
680,40	39,191
680,59	39,896
680,77	40,433
680,96	40,771
681,15	40,257
681,33	41,079
681,52	40,173
681,70	40,615
681,89	41,556
682,07	40,821
682,26	41,573
682,44	40,985
682,63	40,389
682,81	40,252
683,00	41,042
683,18	38,580
683,37	39,844
683,55	39,858
683,74	40,855
683,92	42,131
684,11	41,933
684,29	41,812
684,48	39,685
684,67	39,436
684,85	42,655
685,04	41,117
685,22	40,867
685,41	40,578
685,59	39,771
685,78	39,423
685,96	39,077
686,15	39,005
686,33	39,199
686,52	39,270
686,70	40,777
686,89	41,430
687,07	41,385
687,26	41,438
687,44	41,440
687,62	39,546
687,81	39,523
687,99	39,530
688,18	40,698
688,36	41,087
688,55	39,006
688,73	40,683
688,92	38,590
689,10	40,586
689,29	40,296
689,47	40,486
689,66	38,444
689,84	41,877
690,03	42,025
690,21	39,055
690,40	41,129
690,58	38,972
690,76	40,663
690,95	40,813
691,13	39,940
691,32	41,033
691,50	42,379
691,69	39,270
691,87	40,444
692,06	40,827
692,24	40,198
692,43	38,864
692,61	40,275
692,79	41,526
692,98	38,860
693,16	40,764
693,35	40,326
693,53	39,895
693,72	40,030
693,90	40,857
694,08	40,137
694,27	39,332
694,45	43,604
694,64	40,343
694,82	40,405
695,01	39,371
695,19	39,767
695,37	39,855
695,56	40,124
695,74	40,971
695,93	40,771
696,11	39,072
696,29	41,974
696,48	40,930
696,66	40,931
696,85	41,221
697,03	39,992
697,21	41,899
697,40	40,821
697,58	39,196
697,77	40,523
697,95	40,383
698,13	41,256
698,32	40,401
698,50	40,212
698,69	39,549
698,87	40,329
699,05	39,182
699,24	38,634
699,42	41,209
699,60	38,317
699,79	40,801
699,97	41,154
700,16	39,223
700,34	40,631
700,52	39,917
700,71	40,746
700,89	39,755
701,07	40,411
701,26	38,356
701,44	39,527
701,63	39,408
701,81	39,725
701,99	39,692
702,18	39,071
702,36	39,040
702,54	38,962
702,73	39,138
702,91	40,111
703,09	39,275
703,28	40,599
703,46	39,990
703,64	40,285
703,83	39,820
704,01	39,707
704,19	39,522
704,38	38,577
704,56	39,024
704,74	40,468
704,93	39,453
705,11	39,597
705,29	40,273
705,48	39,752
705,66	40,767
705,84	40,622
706,03	37,274
706,21	38,800
706,39	38,305
706,58	38,980
706,76	39,420
706,94	39,825
707,12	40,180
707,31	40,715
707,49	38,437
707,67	40,363
707,86	38,876
708,04	39,119
708,22	39,336
708,41	39,976
708,59	40,472
708,77	38,418
708,95	40,359
709,14	41,533
709,32	38,504
709,50	39,130
709,69	38,552
709,87	38,158
710,05	39,501
710,23	39,172
710,42	38,673
710,60	40,710
710,78	39,046
710,97	40,513
711,15	38,874
711,33	40,038
711,51	39,920
711,70	38,276
711,88	37,518
712,06	39,986
712,24	40,660
712,43	39,514
712,61	39,998
712,79	40,158
712,97	38,380
713,16	40,678
713,34	38,831
713,52	38,856
713,70	39,813
713,89	39,340
714,07	39,864
714,25	39,009
714,43	39,863
714,62	38,893
714,80	39,751
714,98	40,169
715,16	39,246
715,35	39,473
715,53	40,579
715,71	38,485
715,89	38,697
716,07	39,720
716,26	43,989
716,44	41,252
716,62	40,245
716,80	40,264
716,99	40,372
717,17	39,646
717,35	41,474
717,53	39,570
717,71	38,512
717,90	39,748
718,08	38,205
718,26	38,199
718,44	41,309
718,62	40,397
718,81	39,967
718,99	39,201
719,17	41,364
719,35	39,828
719,53	38,620
719,72	39,333
719,90	40,692
720,08	38,891
720,26	40,050
720,44	39,180
720,62	39,179
720,81	41,359
720,99	42,754
721,17	39,443
721,35	41,483
721,53	42,701
721,72	41,551
721,90	40,139
722,08	40,583
722,26	41,543
722,44	39,339
722,62	39,462
722,81	38,209
722,99	41,190
723,17	39,227
723,35	39,786
723,53	39,939
723,71	40,501
723,89	40,007
724,08	38,748
724,26	39,246
724,44	37,789
724,62	37,208
724,80	40,719
724,98	40,056
725,16	40,425
725,35	40,510
725,53	38,219
725,71	38,793
725,89	42,705
726,07	39,198
726,25	41,470
726,43	38,589
726,61	39,336
726,80	40,705
726,98	38,280
727,16	38,219
727,34	41,704
727,52	39,745
727,70	40,010
727,88	40,137
728,06	38,512
728,25	37,921
728,43	41,681
728,61	39,642
728,79	39,883
728,97	38,361
729,15	38,647
729,33	38,379
729,51	40,277
729,69	42,141
729,87	40,644
730,06	41,382
730,24	39,311
730,42	40,535
730,60	39,127
730,78	40,121
730,96	38,997
731,14	38,647
731,32	40,290
731,50	40,048
731,68	39,927
731,86	39,781
732,04	41,134
732,22	39,151
732,41	41,796
732,59	40,243
732,77	40,219
732,95	40,940
733,13	40,450
733,31	39,869
733,49	38,454
733,67	41,872
733,85	40,315
734,03	42,638
734,21	38,433
734,39	40,832
734,57	41,024
734,75	41,560
734,93	41,101
735,11	40,779
735,29	38,742
735,47	39,807
735,65	42,121
735,84	39,672
736,02	41,509
736,20	40,961
736,38	40,162
736,56	39,879
736,74	39,794
736,92	39,505
737,10	40,565
737,28	39,082
737,46	38,568
737,64	40,406
737,82	38,644
738,00	40,617
738,18	41,172
738,36	39,061
738,54	40,571
738,72	38,908
738,90	40,214
739,08	40,323
739,26	37,788
739,44	40,810
739,62	40,534
739,80	39,628
739,98	40,967
740,16	39,952
740,34	41,520
740,52	41,687
740,70	39,622
740,88	38,825
741,06	38,389
741,24	39,409
741,42	40,647
741,60	39,607
741,78	41,100
741,96	38,167
742,14	39,098
742,32	39,390
742,50	40,001
742,68	41,869
742,86	38,133
743,04	37,906
743,21	41,126
743,39	40,297
743,57	40,260
743,75	39,698
743,93	39,565
744,11	39,147
744,29	38,668
744,47	40,004
744,65	40,111
744,83	39,593
745,01	38,712
745,19	40,462
745,37	41,056
745,55	41,465
745,73	40,080
745,91	38,890
746,09	40,177
746,27	38,388
746,45	38,763
746,62	39,699
746,80	38,275
746,98	38,761
747,16	40,600
747,34	40,847
747,52	39,351
747,70	40,838
747,88	38,902
748,06	39,327
748,24	39,792
748,42	38,684
748,60	39,035
748,78	39,142
748,95	41,333
749,13	40,967
749,31	39,375
749,49	41,785
749,67	40,066
749,85	41,326
750,03	39,783
750,21	39,711
750,39	40,175
750,57	40,785
750,74	39,837
750,92	38,722
751,10	40,231
751,28	39,280
751,46	40,205
751,64	40,954
751,82	39,569
752,00	40,145
752,17	39,845
752,35	37,938
752,53	39,045
752,71	39,160
752,89	39,578
753,07	38,484
753,25	40,363
753,43	40,027
753,60	39,713
753,78	38,125
753,96	38,494
754,14	38,405
754,32	40,977
754,50	41,364
754,68	42,141
754,85	40,029
755,03	40,693
755,21	40,592
755,39	40,536
755,57	39,403
755,75	39,802
755,92	38,860
756,10	39,188
756,28	40,899
756,46	38,669
756,64	39,646
756,82	38,984
756,99	40,401
757,17	39,857
757,35	38,550
757,53	40,437
757,71	40,748
757,89	39,371
758,06	39,008
758,24	42,176
758,42	40,426
758,60	40,189
758,78	39,362
758,95	41,070
759,13	40,590
759,31	36,855
759,49	38,326
759,67	39,656
759,84	40,528
760,02	41,253
760,20	39,254
760,38	38,562
760,56	40,233
760,73	41,519
760,91	41,181
761,09	41,914
761,27	39,818
761,45	40,273
761,62	41,339
761,80	39,641
761,98	40,501
762,16	40,973
762,33	39,816
762,51	40,646
762,69	39,424
762,87	38,967
763,05	40,271
763,22	39,257
763,40	40,176
763,58	38,485
763,76	41,579
763,93	39,178
764,11	38,813
764,29	41,370
764,47	38,362
764,64	41,696
764,82	40,154
765,00	40,711
765,18	37,913
765,35	39,792
765,53	40,980
765,71	40,818
765,89	39,997
766,06	40,780
766,24	39,345
766,42	42,260
766,60	38,611
766,77	40,158
766,95	39,047
767,13	41,426
767,30	39,562
767,48	38,428
767,66	39,751
767,84	38,732
768,01	43,661
768,19	42,059
768,37	39,946
768,54	36,464
768,72	41,377
768,90	36,798
769,08	40,238
769,25	43,294
769,43	38,883
769,61	37,818
769,78	40,308
769,96	40,585
770,14	41,135
770,31	40,482
770,49	40,718
770,67	41,678
770,85	39,455
771,02	41,132
771,20	40,506
771,38	38,374
771,55	38,901
771,73	39,497
771,91	39,204
772,08	40,294
772,26	39,282
772,44	39,545
772,61	40,581
772,79	40,502
772,97	38,864
773,14	38,403
773,32	41,176
773,50	41,424
773,67	39,261
773,85	41,684
774,03	40,860
774,20	41,055
774,38	39,792
774,56	38,511
774,73	41,581
774,91	38,572
775,09	40,208
775,26	39,714
775,44	39,256
775,61	42,090
775,79	37,339
775,97	41,629
776,14	39,303
776,32	39,201
776,50	38,468
776,67	39,916
776,85	40,025
777,03	39,033
777,20	40,229
777,38	40,787
777,55	40,458
777,73	39,029
777,91	36,508
778,08	41,171
778,26	40,832
778,43	40,359
778,61	38,351
778,79	38,369
778,96	37,599
779,14	39,677
779,32	42,196
779,49	40,756
779,67	42,591
779,84	41,530
780,02	40,098
780,20	36,858
780,37	40,936
780,55	39,109
780,72	41,595
780,90	39,065
781,07	39,557
781,25	40,721
781,43	41,431
781,60	39,644
781,78	40,525
781,95	40,064
782,13	39,522
782,30	39,568
782,48	38,225
782,66	40,793
782,83	37,393
783,01	42,637
783,18	40,361
783,36	41,561
783,53	41,044
783,71	38,787
783,89	39,508
784,06	39,656
784,24	40,028
784,41	41,893
784,59	40,232
784,76	38,883
784,94	40,166
785,11	40,005
785,29	39,031
785,46	38,371
785,64	39,162
785,82	37,302
785,99	42,195
786,17	38,053
786,34	39,774
786,52	39,198
786,69	41,312
786,87	39,021
787,04	38,877
787,22	38,569
787,39	43,836
787,57	41,772
787,74	39,522
787,92	40,070
788,09	43,190
788,27	40,080
788,44	40,142
788,62	40,061
788,79	41,371
788,97	40,946
789,14	42,271
789,32	39,397
789,49	40,163
789,67	40,453
789,84	40,997
790,02	41,166
790,19	40,271
790,37	39,173
790,54	41,268
790,72	42,060
790,89	43,575
791,07	38,942
791,24	38,991
791,42	41,061
791,59	39,229
791,77	41,274
791,94	39,286
792,12	39,692
792,29	39,440
792,47	42,444
792,64	42,550
792,81	39,881
792,99	41,249
793,16	39,618
793,34	43,099
793,51	39,986
793,69	40,385
793,86	38,696
794,04	37,972
794,21	40,021
794,39	38,934
794,56	40,857
794,73	41,872
794,91	41,447
795,08	41,359
795,26	43,635
795,43	39,770
795,61	40,344
795,78	41,732
795,95	41,695
796,13	40,599
796,30	40,023
796,48	37,655
796,65	42,376
796,83	40,484
797,00	44,998
797,17	39,305
797,35	39,984
797,52	41,299
797,70	44,168
797,87	38,765
798,04	39,391
798,22	41,627
798,39	41,694
798,57	41,297
798,74	42,168
798,91	40,496
799,09	42,243
799,26	42,580
799,44	39,412
799,61	39,593
799,78	41,808
799,96	39,347
800,13	41,258
800,31	40,654
800,48	41,269
800,65	39,618
800,83	40,556
801,00	44,161
801,17	41,837
801,35	40,360
801,52	41,588
801,70	38,798
801,87	40,546
802,04	42,875
802,22	41,786
802,39	41,658
802,56	44,825
802,74	40,991
802,91	37,828
803,08	38,311
803,26	40,266
803,43	41,310
803,61	42,423
803,78	39,259
803,95	42,633
804,13	41,870
804,30	39,590
804,47	42,643
804,65	38,980
804,82	38,697
804,99	40,832
805,17	41,820
805,34	44,356
805,51	43,791
805,69	42,629
805,86	37,957
806,03	48,499
806,21	41,924
806,38	42,774
806,55	39,760
806,72	41,067
806,90	40,639
807,07	41,321
807,24	40,595
807,42	41,407
807,59	42,715
807,76	36,817
807,94	38,011
808,11	43,212
808,28	40,347
808,45	38,899
808,63	40,268
808,80	43,564
808,97	44,580
809,15	40,814
809,32	40,920
809,49	40,862
809,67	40,238
809,84	40,926
810,01	39,239
810,18	44,646
810,36	43,400
810,53	41,605
810,70	40,948
810,87	40,807
811,05	38,364
811,22	41,906
811,39	41,509
811,57	41,665
811,74	43,563
811,91	39,663
812,08	41,404
812,26	44,044
812,43	40,208
812,60	41,954
812,77	40,926
812,95	42,952
813,12	44,946
813,29	37,429
813,46	40,876
813,64	41,999
813,81	38,531
813,98	43,109
814,15	43,095
814,32	40,322
814,50	41,919
814,67	40,443
814,84	42,429
815,01	42,514
815,19	40,146
815,36	38,466
815,53	42,220
815,70	37,709
815,87	47,077
816,05	37,788
816,22	46,522
816,39	46,650
816,56	45,081
816,74	41,913
816,91	38,105
817,08	49,321
817,25	43,288
817,42	43,838
817,60	42,527
817,77	40,826
817,94	42,992
818,11	46,709
818,28	40,092
818,45	39,113
818,63	43,104
818,80	42,075
818,97	42,277
819,14	43,459
819,31	40,642
819,49	42,132
819,66	42,567
819,83	38,510
820,00	39,516
820,17	40,218
820,34	43,839
820,52	46,591
820,69	42,616
820,86	40,945
821,03	38,252
821,20	45,448
821,37	37,565
821,55	38,358
821,72	42,030
821,89	42,845
822,06	44,678
822,23	38,603
822,40	42,773
822,57	41,507
822,75	43,290
822,92	40,367
823,09	38,067
823,26	45,211
823,43	50,603
823,60	41,247
823,77	42,278
823,94	43,537
824,12	46,835
824,29	42,166
824,46	37,048
824,63	42,011
824,80	43,908
824,97	42,185
825,14	45,461
825,31	44,615
825,49	41,453
825,66	43,422
825,83	37,227
826,00	42,417
826,17	46,984
826,34	45,007
826,51	35,337
826,68	41,449
826,85	46,418
827,02	46,152
827,20	39,132
827,37	42,359
827,54	46,199
827,71	46,435
827,88	44,268
828,05	42,897
828,22	43,742
828,39	51,464
828,56	45,093
828,73	38,818
828,90	42,570
829,07	43,163
829,25	40,153
829,42	42,796
829,59	40,555
829,76	43,854
829,93	40,468
830,10	44,411
830,27	42,735
830,44	45,381
830,61	45,926
830,78	47,614
830,95	46,332
831,12	43,466
831,29	41,571
831,46	39,583
831,63	40,363
831,80	40,202
831,97	40,919
832,14	47,662
832,31	52,695
832,48	41,851
832,65	47,947
832,83	44,318
833,00	43,407
833,17	44,622
833,34	46,206
833,51	41,215
833,68	42,790
833,85	47,352
834,02	41,547
834,19	43,649
834,36	46,781
834,53	37,470
834,70	40,786
834,87	46,553
835,04	40,136
835,21	49,759
835,38	42,300
835,55	46,715
835,72	47,178
835,89	43,166
836,06	43,715
836,23	52,893
836,40	45,194
836,57	44,996
836,74	51,940
836,91	39,975
837,08	50,035
837,25	44,669
837,42	33,892
837,59	40,728
837,76	45,422
837,93	43,691
838,09	38,759
838,26	42,684
838,43	41,590
838,60	43,467
838,77	44,256
838,94	48,372
839,11	46,409
839,28	40,886
839,45	46,546
839,62	46,075
839,79	46,055
839,96	46,405
840,13	45,483
840,30	43,829
840,47	39,402
840,64	40,140
840,81	46,229
840,98	45,395
841,15	48,420
841,32	32,550
841,48	49,861
841,65	48,029
841,82	46,597
841,99	46,933
842,16	41,448
842,33	51,638
842,50	45,328
842,67	41,990
842,84	36,541
843,01	44,769
843,18	46,046
843,35	43,295
843,52	42,709
843,68	37,979
843,85	45,084
844,02	42,579
844,19	45,500
844,36	46,547
844,53	45,639
844,70	47,272
844,87	51,142
845,04	45,896
845,21	37,014
845,37	52,884
845,54	42,618
845,71	38,252
845,88	49,874
846,05	44,774
846,22	36,607
846,39	41,127
846,56	50,631
846,72	41,480
846,89	42,591
847,06	46,243
847,23	48,308
847,40	37,292
847,57	41,211
847,74	47,782
847,90	53,630
848,07	50,174
848,24	43,254
848,41	40,080
848,58	53,528
848,75	47,194
848,92	38,628
849,08	36,250
849,25	52,568
849,42	42,512
849,59	53,306
849,76	49,142
849,93	33,401
850,09	53,995
850,26	44,664
850,43	45,919
850,60	46,693
850,77	43,724
850,94	50,050
851,10	47,336
851,27	42,465
851,44	39,504
851,61	39,903
851,78	46,273
851,95	51,807
852,11	44,703
852,28	54,795
852,45	41,082
852,62	46,440
852,79	33,303
852,95	48,460
853,12	43,038
853,29	43,292
853,46	36,988
853,63	51,399
853,79	45,136
853,96	41,652
854,13	53,218
854,30	42,610
854,46	61,402
854,63	46,134
854,80	45,294
854,97	45,266
855,14	46,999
855,30	41,561
855,47	47,410
855,64	57,488
855,81	40,932
855,97	59,962
856,14	44,153
856,31	35,519
856,48	38,691
856,65	57,925
856,81	46,277
856,98	41,854
857,15	50,712
857,32	44,422
857,48	32,640
857,65	46,559
857,82	50,074
857,99	63,268
858,15	51,136
858,32	40,680
858,49	47,857
858,65	58,293
858,82	37,135
858,99	47,592
859,16	44,524
859,32	42,900
859,49	41,647
859,66	43,823
859,83	44,954
859,99	49,525
860,16	55,475
860,33	38,184
860,49	34,263
860,66	46,703
860,83	51,656
861,00	41,338
861,16	51,944
861,33	43,316
861,50	38,179
861,66	46,927
861,83	61,129
862,00	48,674
862,16	48,321
862,33	55,909
862,50	41,432
862,67	46,033
862,83	47,315
863,00	44,889
863,17	61,495
863,33	47,575
863,50	40,962
863,67	43,668
863,83	44,666
864,00	37,860
864,17	53,511
864,33	40,387
864,50	52,959
864,67	30,761
864,83	47,310
865,00	33,614
865,17	32,519
865,33	48,910
865,50	57,326
865,67	52,356
865,83	55,746
866,00	68,029
866,17	61,272
866,33	49,118
866,50	87,517
866,66	48,247
866,83	51,175
867,00	50,184
867,16	50,197
867,33	67,671
867,50	35,166
867,66	49,589
867,83	67,524
868,00	49,115
868,16	42,042
868,33	34,740
868,49	62,429
868,66	53,929
868,83	58,407
868,99	50,828
869,16	49,429
869,32	60,232
869,49	49,055
869,66	21,394
869,82	57,099
869,99	57,895
870,15	50,011
870,32	49,016
870,49	53,586
870,65	86,987
870,82	64,268
870,98	64,210
871,15	64,540
871,32	54,340
871,48	-8,461
871,65	33,619
871,81	29,983
871,98	31,463
872,15	49,093
872,31	49,529
872,48	61,179
872,64	38,854
872,81	27,044
872,97	46,627
873,14	40,498
873,31	70,466
873,47	30,797
873,64	54,581
873,80	54,616
873,97	52,253
874,13	13,434
874,30	41,655
874,46	36,037
874,63	39,962
874,80	69,079
874,96	52,381
875,13	94,998
875,29	27,129
875,46	49,087
875,62	33,230
875,79	55,570
875,95	44,981
876,12	48,258
876,28	41,564
876,45	68,174
876,61	34,173
876,78	54,267
876,94	10,345
877,11	44,252
877,27	61,361
877,44	100,058
877,60	39,581
877,77	78,288
877,94	77,707
878,10	52,125
878,27	31,687
878,43	63,713
878,60	27,498
878,76	25,941
878,93	64,561
879,09	103,146
879,26	60,391
879,42	80,984
879,58	56,491
879,75	84,822
879,91	51,755
880,08	28,888
880,24	20,962
880,41	81,133
880,57	46,231
880,74	51,162
880,90	23,936
881,07	14,460
881,23	48,925
881,40	63,933
881,56	78,050
881,73	55,847
881,89	95,180
882,06	51,664
882,22	165,888
882,38	140,155
882,55	110,851
882,71	44,830
882,88	24,890
883,04	45,494
883,21	77,591
883,37	54,455
883,54	56,303
883,70	110,830
883,86	71,274
884,03	29,609
884,19	44,254
884,36	25,912
884,52	64,966
884,69	84,722
884,85	15,772
885,01	152,859
885,18	94,154
885,34	120,436
885,51	-7,051
885,67	46,391
>>>>> Data<<<<< Espectral Procesado Extremo
