Fichero De Datos De SpectraSuite
++++++++++++++++++++++++++++++++++++
Fecha: Wed Apr 22 10:26:11 CEST 2009
Usuario: evoflor
Presente Oscuro Del Espectro: Sí
La Referencia de Presente Del Espectro De: Sí
Muestreados de los componentes de Número de espectros: 1
Espectrómetros: USB4F02353
Tiempo de integración (usec): 500000 (USB4F02353)
Promedio de Espectros Hechos un: 5 (USB4F02353)
El Alisar Del Furgón: 0 (USB4F02353)
Párrafo de de Corregir del la del del de Eléctrica del obscuridad: Sí (USB4F02353)
Estrobo/Lámpara Permitido: No (USB4F02353)
Correct for Detector Non-linearity: No (USB4F02353)
Párrafo de de Corregir del la del del de Externa del luz: No (USB4F02353)
Procesado del espectro de Número de pixeles en: 3648
>>>>> Comienza Data<<<<< Espectral Procesado Del EL
177,79	112,848
178,00	112,848
178,22	112,848
178,44	550,495
178,66	-154,363
178,88	139,723
179,09	-31,936
179,31	168,009
179,53	126,331
179,75	163,569
179,96	406,078
180,18	-504,938
180,40	-30,557
180,62	332,639
180,83	-214,442
181,05	-541,524
181,27	-34505,000
181,49	-63,272
181,70	-88,827
181,92	211,701
182,14	383,148
182,36	137,084
182,58	-192,050
182,79	238,415
183,01	-8,008
183,23	57,871
183,45	-211,400
183,66	46,438
183,88	367,088
184,10	-1789,182
184,32	152,240
184,53	21,250
184,75	10,725
184,97	62,074
185,18	-36,100
185,40	-282,716
185,62	3,985
185,84	189,312
186,05	-32,424
186,27	-5,925
186,49	-680,577
186,71	43,410
186,92	43,900
187,14	109,791
187,36	60,640
187,58	5,139
187,79	74,764
188,01	82,543
188,23	-41,776
188,45	34,236
188,66	45,558
188,88	-185,545
189,10	-1407,050
189,31	154,599
189,53	21,907
189,75	145,920
189,97	323,096
190,18	-130,021
190,40	255,912
190,62	-143,589
190,83	-75,885
191,05	176,479
191,27	121,729
191,49	9,666
191,70	-252,428
191,92	394,025
192,14	-124,960
192,35	79,589
192,57	137,286
192,79	17,998
193,01	187,274
193,22	204,926
193,44	131,561
193,66	50,918
193,87	0,653
194,09	4,565
194,31	113,260
194,53	662,972
194,74	41,137
194,96	80,953
195,18	108,740
195,39	6,319
195,61	4,674
195,83	-45,663
196,04	118,845
196,26	-200,528
196,48	24,308
196,70	158,062
196,91	-16,406
197,13	48,620
197,35	-29,840
197,56	131,904
197,78	700,784
198,00	801,434
198,21	316,044
198,43	-221,541
198,65	95,169
198,86	153,255
199,08	-137,689
199,30	51,630
199,51	127,997
199,73	236,669
199,95	201,250
200,16	343,865
200,38	260,308
200,60	109,565
200,81	166,392
201,03	-202,160
201,25	-597,050
201,46	156,590
201,68	141,098
201,90	1131,932
202,11	-104,218
202,33	115,269
202,55	-198,688
202,76	26,424
202,98	66,916
203,20	-27,428
203,41	-347,395
203,63	-16,193
203,85	-30905,000
204,06	123,910
204,28	-406,277
204,50	84,590
204,71	13,260
204,93	-407,960
205,15	120,196
205,36	28,671
205,58	73,138
205,80	-50,456
206,01	37,695
206,23	78,741
206,45	232,411
206,66	52,887
206,88	93,269
207,10	33,420
207,31	170,868
207,53	78,014
207,75	24,049
207,96	667,201
208,18	-155,640
208,39	80,854
208,61	4354,429
208,83	-104,739
209,04	-51,381
209,26	-204,631
209,48	161,640
209,69	36,782
209,91	341,571
210,13	28,247
210,34	42,143
210,56	54,153
210,77	-1029,961
210,99	3,878
211,21	4253,235
211,42	59,993
211,64	56,904
211,86	147,799
212,07	209,834
212,29	73,074
212,50	120,984
212,72	-313,827
212,94	24,698
213,15	14,057
213,37	18,539
213,58	17,284
213,80	-1521,607
214,02	9494,412
214,23	127,016
214,45	83,623
214,67	-420,793
214,88	-31,225
215,10	-184,340
215,31	161,801
215,53	102,966
215,75	19,313
215,96	717,422
216,18	-616,831
216,39	26,711
216,61	203,068
216,83	218,326
217,04	589,944
217,26	48,395
217,47	173,764
217,69	197,558
217,91	61,843
218,12	5095,000
218,34	36,474
218,55	201,340
218,77	49,901
218,99	139,183
219,20	-19,659
219,42	101,989
219,63	150,949
219,85	23,294
220,06	73,865
220,28	-24,312
220,50	15,177
220,71	82,366
220,93	1839,717
221,14	-498,050
221,36	-16,071
221,58	48,536
221,79	-77,712
222,01	910,388
222,22	144,112
222,44	-279,719
222,65	27,543
222,87	-381,783
223,09	49,313
223,30	26,069
223,52	159,224
223,73	128,636
223,95	5,500
224,16	-105,144
224,38	107,358
224,60	100,315
224,81	-30,615
225,03	128,199
225,24	29,436
225,46	-41,354
225,67	-17,259
225,89	-21,983
226,10	442,786
226,32	290,440
226,54	40,724
226,75	114,914
226,97	37,822
227,18	5,030
227,40	7,136
227,61	1,846
227,83	-7,323
228,04	135,440
228,26	5,877
228,47	11,331
228,69	-97,576
228,91	5,665
229,12	37,665
229,34	19,012
229,55	33,479
229,77	-15,526
229,98	18,621
230,20	8,246
230,41	23,432
230,63	12,817
230,84	-23,869
231,06	6,967
231,27	-17,162
231,49	15,140
231,71	3,980
231,92	18,439
232,14	1,577
232,35	69,829
232,57	48,579
232,78	0,698
233,00	38,044
233,21	10,521
233,43	-4,341
233,64	29,270
233,86	7,460
234,07	-0,450
234,29	11,096
234,50	9,194
234,72	21,090
234,93	-12,254
235,15	35,213
235,36	28,041
235,58	-1,500
235,79	26,821
236,01	18,484
236,22	4,368
236,44	22,774
236,65	9,402
236,87	14,487
237,08	12,765
237,30	-23,839
237,51	12,616
237,73	3,872
237,94	0,446
238,16	-4,995
238,37	0,958
238,59	12,816
238,80	2,212
239,02	2,421
239,23	7,098
239,45	-14,491
239,66	10,416
239,88	23,698
240,09	10,042
240,31	1,637
240,52	12,007
240,74	5,010
240,95	-4,881
241,17	4,404
241,38	8,134
241,60	8,667
241,81	14,655
242,03	4,480
242,24	9,126
242,46	11,996
242,67	1,989
242,89	12,125
243,10	14,540
243,32	3,825
243,53	5,850
243,75	4,140
243,96	4,929
244,18	5,411
244,39	10,737
244,60	12,700
244,82	7,264
245,03	7,261
245,25	9,037
245,46	16,999
245,68	4,526
245,89	5,035
246,11	2,508
246,32	7,445
246,54	2,886
246,75	7,823
246,97	3,002
247,18	10,427
247,39	-2,316
247,61	4,610
247,82	11,373
248,04	4,252
248,25	6,164
248,47	10,734
248,68	3,946
248,90	3,407
249,11	7,357
249,33	13,455
249,54	0,968
249,75	8,734
249,97	-1,894
250,18	4,189
250,40	12,151
250,61	-3,350
250,83	2,439
251,04	-0,269
251,25	3,454
251,47	0,671
251,68	8,563
251,90	5,675
252,11	6,013
252,33	6,905
252,54	5,491
252,76	4,025
252,97	-1,127
253,18	1,377
253,40	-0,471
253,61	0,491
253,83	6,513
254,04	4,442
254,25	3,181
254,47	3,250
254,68	2,575
254,90	7,650
255,11	8,818
255,33	5,495
255,54	-0,125
255,75	2,789
255,97	4,843
256,18	3,450
256,40	3,283
256,61	9,371
256,82	-0,305
257,04	2,035
257,25	1,519
257,47	0,714
257,68	-2,215
257,89	5,095
258,11	8,303
258,32	1,603
258,54	5,461
258,75	6,628
258,96	5,858
259,18	6,069
259,39	5,041
259,61	3,146
259,82	1,015
260,03	8,813
260,25	4,668
260,46	-0,383
260,68	0,098
260,89	4,214
261,10	3,820
261,32	1,627
261,53	2,863
261,75	3,689
261,96	-5,516
262,17	6,499
262,39	7,304
262,60	2,292
262,81	1,966
263,03	5,191
263,24	4,680
263,46	-1,544
263,67	2,041
263,88	2,221
264,10	5,891
264,31	-3,926
264,52	4,404
264,74	4,519
264,95	3,503
265,17	0,488
265,38	3,393
265,59	7,797
265,81	0,897
266,02	0,372
266,23	4,655
266,45	8,183
266,66	5,762
266,87	4,928
267,09	3,236
267,30	3,518
267,52	2,125
267,73	1,865
267,94	2,057
268,16	6,692
268,37	5,800
268,58	4,985
268,80	3,547
269,01	1,735
269,22	0,415
269,44	0,340
269,65	2,159
269,86	0,925
270,08	5,694
270,29	3,230
270,50	4,655
270,72	6,158
270,93	3,983
271,14	-1,850
271,36	3,021
271,57	3,746
271,78	3,370
272,00	3,736
272,21	1,285
272,42	4,878
272,64	5,980
272,85	1,185
273,06	5,155
273,28	8,267
273,49	3,206
273,70	5,634
273,92	3,351
274,13	6,558
274,34	3,742
274,56	5,342
274,77	3,608
274,98	0,013
275,20	1,759
275,41	3,347
275,62	5,087
275,84	2,538
276,05	6,894
276,26	4,349
276,47	5,917
276,69	7,467
276,90	3,148
277,11	4,742
277,33	2,579
277,54	4,050
277,75	3,035
277,97	2,276
278,18	4,147
278,39	2,858
278,61	5,599
278,82	2,228
279,03	3,069
279,24	3,629
279,46	1,674
279,67	3,522
279,88	3,309
280,10	3,282
280,31	0,691
280,52	4,309
280,73	-0,945
280,95	3,865
281,16	5,125
281,37	3,012
281,59	4,568
281,80	5,772
282,01	1,117
282,22	4,777
282,44	1,941
282,65	8,368
282,86	7,622
283,08	4,057
283,29	3,173
283,50	3,231
283,71	5,053
283,93	2,817
284,14	7,464
284,35	-0,241
284,56	3,899
284,78	3,160
284,99	7,222
285,20	3,854
285,42	3,596
285,63	3,754
285,84	2,503
286,05	1,501
286,27	4,073
286,48	-0,466
286,69	2,845
286,90	3,380
287,12	0,899
287,33	0,660
287,54	3,538
287,75	1,840
287,97	3,319
288,18	2,515
288,39	1,920
288,60	2,987
288,82	1,701
289,03	2,674
289,24	3,320
289,45	4,760
289,67	1,654
289,88	1,060
290,09	3,921
290,30	2,176
290,52	1,634
290,73	3,132
290,94	1,081
291,15	2,460
291,37	2,646
291,58	4,350
291,79	3,986
292,00	4,272
292,21	5,247
292,43	2,738
292,64	1,356
292,85	1,429
293,06	3,976
293,28	2,349
293,49	-0,070
293,70	6,246
293,91	2,542
294,12	3,780
294,34	0,505
294,55	4,202
294,76	2,246
294,97	4,972
295,19	2,022
295,40	2,608
295,61	3,596
295,82	1,555
296,03	3,121
296,25	1,157
296,46	2,514
296,67	2,956
296,88	-0,169
297,09	4,996
297,31	3,565
297,52	3,669
297,73	2,978
297,94	4,964
298,15	4,432
298,37	3,412
298,58	4,866
298,79	5,016
299,00	1,571
299,21	2,985
299,43	2,610
299,64	5,719
299,85	5,397
300,06	2,107
300,27	-0,528
300,49	4,180
300,70	1,458
300,91	2,778
301,12	2,444
301,33	3,012
301,54	3,359
301,76	3,914
301,97	2,712
302,18	3,416
302,39	4,806
302,60	3,886
302,82	2,906
303,03	6,031
303,24	2,573
303,45	2,701
303,66	3,151
303,87	2,244
304,09	4,050
304,30	3,508
304,51	2,721
304,72	2,455
304,93	5,836
305,14	4,131
305,36	0,643
305,57	2,192
305,78	2,426
305,99	2,922
306,20	2,886
306,41	1,131
306,62	2,322
306,84	3,779
307,05	0,718
307,26	3,678
307,47	5,754
307,68	3,142
307,89	1,229
308,11	3,958
308,32	2,695
308,53	3,219
308,74	1,855
308,95	4,661
309,16	2,798
309,37	4,837
309,59	0,182
309,80	3,497
310,01	3,892
310,22	4,082
310,43	1,233
310,64	1,942
310,85	3,196
311,06	2,704
311,28	5,310
311,49	1,412
311,70	5,327
311,91	1,619
312,12	2,330
312,33	6,151
312,54	5,377
312,75	0,346
312,97	1,097
313,18	3,179
313,39	1,055
313,60	4,398
313,81	5,025
314,02	3,934
314,23	2,246
314,44	2,056
314,65	1,120
314,87	2,290
315,08	1,896
315,29	4,479
315,50	4,780
315,71	5,549
315,92	4,730
316,13	3,060
316,34	4,137
316,55	4,847
316,77	-0,168
316,98	1,599
317,19	4,117
317,40	1,795
317,61	5,377
317,82	2,980
318,03	3,103
318,24	2,113
318,45	6,084
318,66	2,317
318,87	0,790
319,09	7,156
319,30	3,531
319,51	5,882
319,72	5,160
319,93	6,268
320,14	2,845
320,35	3,828
320,56	2,864
320,77	-0,072
320,98	6,394
321,19	5,233
321,40	2,544
321,62	4,286
321,83	4,479
322,04	2,697
322,25	3,553
322,46	5,176
322,67	7,298
322,88	3,265
323,09	2,185
323,30	3,551
323,51	1,405
323,72	6,286
323,93	1,233
324,14	1,198
324,35	0,647
324,56	-0,396
324,77	1,990
324,99	2,776
325,20	2,564
325,41	2,832
325,62	5,283
325,83	1,248
326,04	4,241
326,25	4,555
326,46	2,193
326,67	3,337
326,88	3,564
327,09	4,224
327,30	1,779
327,51	2,425
327,72	3,578
327,93	6,338
328,14	0,703
328,35	2,024
328,56	5,186
328,77	4,930
328,98	1,478
329,19	3,319
329,40	4,882
329,61	2,605
329,82	0,757
330,04	1,169
330,25	0,902
330,46	5,616
330,67	3,967
330,88	2,279
331,09	3,795
331,30	1,521
331,51	4,853
331,72	4,029
331,93	4,785
332,14	1,603
332,35	2,628
332,56	3,469
332,77	5,084
332,98	1,638
333,19	1,691
333,40	2,838
333,61	3,903
333,82	5,497
334,03	5,640
334,24	2,993
334,45	3,092
334,66	6,350
334,87	4,012
335,08	0,910
335,29	3,110
335,50	1,214
335,71	3,260
335,92	2,707
336,13	3,806
336,34	3,526
336,55	3,429
336,76	4,413
336,97	3,264
337,18	2,461
337,39	1,184
337,60	3,231
337,81	0,313
338,02	4,089
338,23	3,989
338,44	3,397
338,65	2,458
338,86	3,038
339,07	2,059
339,28	4,593
339,49	4,287
339,70	-0,354
339,91	3,702
340,11	3,985
340,32	2,072
340,53	1,188
340,74	1,613
340,95	0,774
341,16	3,486
341,37	4,139
341,58	0,618
341,79	0,504
342,00	-0,344
342,21	2,789
342,42	1,125
342,63	0,636
342,84	-1,462
343,05	4,538
343,26	2,517
343,47	0,828
343,68	1,335
343,89	2,997
344,10	3,844
344,31	3,511
344,52	1,430
344,73	3,391
344,94	6,223
345,14	1,388
345,35	7,000
345,56	4,043
345,77	0,795
345,98	4,317
346,19	6,133
346,40	2,674
346,61	5,053
346,82	2,319
347,03	3,050
347,24	6,235
347,45	1,522
347,66	8,213
347,87	2,508
348,08	3,774
348,28	4,030
348,49	2,837
348,70	6,505
348,91	5,074
349,12	3,889
349,33	14,184
349,54	0,518
349,75	5,564
349,96	3,177
350,17	2,411
350,38	-0,136
350,59	7,020
350,80	1,678
351,00	4,417
351,21	7,074
351,42	2,709
351,63	2,601
351,84	1,615
352,05	4,866
352,26	4,493
352,47	2,492
352,68	2,117
352,89	7,662
353,09	2,717
353,30	1,334
353,51	4,025
353,72	3,567
353,93	6,088
354,14	1,582
354,35	4,938
354,56	5,175
354,77	5,165
354,98	1,236
355,18	2,772
355,39	5,819
355,60	2,233
355,81	2,973
356,02	2,778
356,23	5,398
356,44	1,629
356,65	6,799
356,85	6,765
357,06	3,822
357,27	4,662
357,48	1,240
357,69	3,576
357,90	6,260
358,11	1,664
358,32	3,083
358,52	4,061
358,73	3,112
358,94	2,075
359,15	6,268
359,36	1,754
359,57	3,924
359,78	1,928
359,98	4,543
360,19	-1,104
360,40	4,710
360,61	3,862
360,82	1,938
361,03	4,060
361,24	4,269
361,44	1,946
361,65	3,976
361,86	2,835
362,07	6,251
362,28	2,064
362,49	-0,111
362,70	3,002
362,90	4,949
363,11	0,336
363,32	4,880
363,53	3,265
363,74	4,250
363,95	4,762
364,15	4,665
364,36	3,429
364,57	4,220
364,78	2,625
364,99	2,676
365,20	2,055
365,40	3,242
365,61	1,427
365,82	4,343
366,03	-0,050
366,24	6,314
366,45	4,362
366,65	3,069
366,86	2,234
367,07	4,225
367,28	4,338
367,49	4,434
367,69	3,453
367,90	3,616
368,11	3,333
368,32	1,175
368,53	3,856
368,73	6,372
368,94	2,711
369,15	0,529
369,36	3,753
369,57	1,150
369,78	3,788
369,98	4,983
370,19	6,837
370,40	1,604
370,61	1,254
370,82	3,202
371,02	5,262
371,23	6,874
371,44	2,220
371,65	4,975
371,85	4,835
372,06	2,917
372,27	3,243
372,48	4,790
372,69	-1,397
372,89	-0,967
373,10	4,623
373,31	2,697
373,52	4,690
373,73	8,125
373,93	1,874
374,14	2,923
374,35	4,833
374,56	5,821
374,76	3,973
374,97	0,167
375,18	1,676
375,39	2,084
375,60	4,642
375,80	5,110
376,01	5,094
376,22	3,508
376,43	3,376
376,63	7,766
376,84	0,855
377,05	7,071
377,26	3,529
377,46	1,712
377,67	1,165
377,88	2,655
378,09	2,127
378,29	0,531
378,50	6,119
378,71	5,409
378,92	3,088
379,12	3,131
379,33	3,614
379,54	0,166
379,75	2,834
379,95	0,818
380,16	3,807
380,37	4,133
380,58	6,473
380,78	6,052
380,99	1,661
381,20	6,100
381,41	6,720
381,61	5,971
381,82	3,252
382,03	2,299
382,24	5,298
382,44	3,527
382,65	4,942
382,86	4,519
383,06	1,503
383,27	1,291
383,48	4,253
383,69	3,434
383,89	5,225
384,10	5,731
384,31	1,886
384,51	4,260
384,72	4,123
384,93	2,839
385,14	3,389
385,34	4,182
385,55	4,627
385,76	4,953
385,96	5,098
386,17	5,160
386,38	3,769
386,59	5,417
386,79	4,734
387,00	6,933
387,21	6,554
387,41	3,082
387,62	3,124
387,83	8,401
388,03	4,652
388,24	3,609
388,45	5,369
388,66	6,030
388,86	5,481
389,07	2,347
389,28	9,001
389,48	6,032
389,69	5,894
389,90	2,797
390,10	8,636
390,31	7,149
390,52	2,434
390,72	5,917
390,93	5,016
391,14	5,495
391,34	4,015
391,55	7,665
391,76	6,329
391,96	6,174
392,17	6,597
392,38	8,679
392,58	8,001
392,79	5,806
393,00	4,384
393,20	6,085
393,41	8,433
393,62	3,090
393,82	7,911
394,03	5,118
394,24	5,699
394,44	6,545
394,65	9,446
394,86	8,487
395,06	6,616
395,27	6,510
395,48	3,081
395,68	11,644
395,89	7,951
396,10	6,609
396,30	5,806
396,51	6,266
396,72	7,703
396,92	6,692
397,13	8,063
397,34	3,909
397,54	8,723
397,75	7,929
397,95	3,955
398,16	6,570
398,37	6,184
398,57	8,590
398,78	9,630
398,99	7,490
399,19	9,090
399,40	10,055
399,60	2,612
399,81	6,324
400,02	11,568
400,22	12,132
400,43	8,743
400,64	8,500
400,84	7,119
401,05	9,633
401,25	10,754
401,46	11,643
401,67	8,749
401,87	9,437
402,08	7,796
402,29	9,412
402,49	10,376
402,70	12,215
402,90	9,383
403,11	11,787
403,32	13,639
403,52	13,665
403,73	11,811
403,93	10,968
404,14	10,073
404,35	12,524
404,55	8,285
404,76	10,841
404,96	11,745
405,17	15,903
405,38	14,403
405,58	11,989
405,79	14,131
405,99	12,378
406,20	9,967
406,40	12,908
406,61	15,330
406,82	11,741
407,02	16,459
407,23	14,609
407,43	11,471
407,64	13,725
407,85	13,170
408,05	9,777
408,26	20,599
408,46	16,493
408,67	12,457
408,87	12,201
409,08	15,793
409,29	13,906
409,49	13,234
409,70	16,966
409,90	18,647
410,11	10,997
410,31	15,611
410,52	17,383
410,72	15,144
410,93	15,943
411,14	15,538
411,34	14,462
411,55	19,134
411,75	18,072
411,96	16,073
412,16	18,654
412,37	14,423
412,57	17,575
412,78	21,062
412,99	15,238
413,19	18,023
413,40	20,409
413,60	17,752
413,81	17,842
414,01	21,949
414,22	15,956
414,42	15,771
414,63	15,642
414,83	19,746
415,04	24,037
415,24	20,198
415,45	15,305
415,65	16,484
415,86	19,522
416,07	23,010
416,27	21,260
416,48	24,657
416,68	24,816
416,89	16,399
417,09	20,777
417,30	22,720
417,50	22,786
417,71	22,495
417,91	19,757
418,12	15,887
418,32	20,477
418,53	20,618
418,73	23,489
418,94	19,027
419,14	22,669
419,35	19,629
419,55	20,849
419,76	24,082
419,96	22,615
420,17	24,547
420,37	23,161
420,58	25,667
420,78	21,839
420,99	22,701
421,19	23,102
421,40	22,282
421,60	26,056
421,81	23,477
422,01	25,313
422,22	23,167
422,42	25,049
422,63	24,504
422,83	22,328
423,04	27,289
423,24	26,347
423,45	24,905
423,65	27,126
423,86	25,165
424,06	28,699
424,27	25,554
424,47	23,504
424,67	24,119
424,88	24,261
425,08	28,534
425,29	30,724
425,49	29,092
425,70	22,399
425,90	28,658
426,11	24,944
426,31	25,166
426,52	29,172
426,72	27,065
426,93	25,613
427,13	28,273
427,33	25,676
427,54	29,569
427,74	27,855
427,95	32,446
428,15	24,789
428,36	30,534
428,56	26,998
428,77	27,017
428,97	31,442
429,18	30,470
429,38	26,082
429,58	31,552
429,79	28,604
429,99	31,019
430,20	20,489
430,40	30,009
430,61	27,012
430,81	23,567
431,01	27,617
431,22	30,951
431,42	30,045
431,63	26,920
431,83	28,962
432,04	27,257
432,24	28,314
432,44	27,585
432,65	27,103
432,85	27,226
433,06	30,345
433,26	27,887
433,47	26,770
433,67	28,698
433,87	27,608
434,08	26,395
434,28	28,327
434,49	28,498
434,69	27,110
434,89	24,900
435,10	28,262
435,30	30,058
435,51	25,550
435,71	27,127
435,91	28,565
436,12	28,790
436,32	28,244
436,53	25,260
436,73	28,331
436,93	32,625
437,14	30,039
437,34	31,504
437,55	30,895
437,75	28,518
437,95	33,747
438,16	33,489
438,36	30,640
438,57	26,580
438,77	29,168
438,97	33,456
439,18	33,490
439,38	29,662
439,58	29,807
439,79	33,810
439,99	33,157
440,20	29,344
440,40	32,171
440,60	31,831
440,81	35,516
441,01	33,239
441,21	30,160
441,42	33,166
441,62	33,397
441,83	32,987
442,03	30,769
442,23	32,061
442,44	28,905
442,64	29,896
442,84	27,957
443,05	28,413
443,25	30,009
443,45	29,851
443,66	34,103
443,86	28,988
444,06	31,677
444,27	29,268
444,47	30,976
444,67	31,999
444,88	31,577
445,08	29,060
445,28	32,447
445,49	29,846
445,69	29,961
445,90	29,996
446,10	33,141
446,30	32,636
446,51	31,390
446,71	34,220
446,91	30,920
447,12	35,349
447,32	32,638
447,52	31,604
447,72	33,001
447,93	32,892
448,13	30,531
448,33	35,865
448,54	30,935
448,74	29,589
448,94	31,234
449,15	35,323
449,35	30,816
449,55	32,015
449,76	37,025
449,96	32,811
450,16	32,150
450,37	33,005
450,57	34,988
450,77	30,567
450,98	35,487
451,18	34,300
451,38	31,062
451,58	33,824
451,79	32,702
451,99	34,130
452,19	33,043
452,40	31,408
452,60	31,324
452,80	29,289
453,00	32,296
453,21	32,910
453,41	35,013
453,61	37,896
453,82	31,780
454,02	27,207
454,22	32,606
454,42	32,166
454,63	31,732
454,83	32,784
455,03	31,072
455,24	33,003
455,44	30,198
455,64	33,348
455,84	27,552
456,05	31,597
456,25	30,015
456,45	32,726
456,65	29,214
456,86	37,961
457,06	32,041
457,26	41,587
457,47	36,565
457,67	31,927
457,87	32,200
458,07	28,453
458,28	38,427
458,48	34,161
458,68	29,249
458,88	31,504
459,09	35,756
459,29	32,803
459,49	34,457
459,69	34,016
459,90	35,059
460,10	31,143
460,30	31,551
460,50	31,223
460,71	31,142
460,91	29,933
461,11	34,883
461,31	29,853
461,52	34,141
461,72	35,316
461,92	29,126
462,12	38,043
462,32	32,938
462,53	33,259
462,73	30,454
462,93	34,997
463,13	31,930
463,34	33,134
463,54	34,182
463,74	34,157
463,94	32,206
464,14	35,469
464,35	29,732
464,55	32,997
464,75	37,205
464,95	34,690
465,16	30,962
465,36	31,886
465,56	30,594
465,76	30,270
465,96	31,080
466,17	32,918
466,37	33,644
466,57	34,016
466,77	32,328
466,97	31,282
467,18	34,689
467,38	34,517
467,58	33,671
467,78	34,374
467,98	32,888
468,19	35,862
468,39	39,431
468,59	37,353
468,79	36,420
468,99	30,498
469,19	33,323
469,40	34,435
469,60	33,452
469,80	29,826
470,00	36,266
470,20	38,450
470,41	34,298
470,61	36,340
470,81	30,626
471,01	32,492
471,21	32,335
471,41	34,129
471,62	35,312
471,82	30,671
472,02	33,434
472,22	33,837
472,42	31,803
472,62	34,262
472,83	33,680
473,03	35,950
473,23	34,259
473,43	35,722
473,63	34,630
473,83	30,894
474,03	33,668
474,24	37,110
474,44	32,711
474,64	33,750
474,84	32,534
475,04	38,171
475,24	35,715
475,45	33,303
475,65	30,974
475,85	36,051
476,05	29,566
476,25	30,794
476,45	33,038
476,65	37,789
476,85	35,110
477,06	33,619
477,26	31,310
477,46	35,297
477,66	32,679
477,86	35,822
478,06	33,935
478,26	33,840
478,46	30,952
478,67	33,256
478,87	34,802
479,07	31,639
479,27	32,858
479,47	33,619
479,67	28,702
479,87	33,134
480,07	33,672
480,28	31,501
480,48	29,014
480,68	33,326
480,88	33,599
481,08	33,431
481,28	34,574
481,48	30,997
481,68	32,269
481,88	29,351
482,08	30,808
482,29	36,739
482,49	29,180
482,69	31,713
482,89	31,873
483,09	35,094
483,29	30,362
483,49	31,388
483,69	34,140
483,89	30,936
484,09	33,218
484,29	30,039
484,50	32,442
484,70	31,236
484,90	30,826
485,10	31,535
485,30	32,915
485,50	32,298
485,70	31,187
485,90	32,434
486,10	26,417
486,30	31,811
486,50	32,133
486,70	31,947
486,90	32,324
487,10	30,607
487,30	30,814
487,51	30,310
487,71	28,507
487,91	31,010
488,11	29,658
488,31	29,775
488,51	30,771
488,71	31,891
488,91	31,022
489,11	28,554
489,31	32,875
489,51	30,109
489,71	31,944
489,91	32,728
490,11	30,741
490,31	31,272
490,51	31,082
490,71	30,677
490,91	31,700
491,11	31,988
491,31	35,622
491,51	29,600
491,72	30,172
491,92	31,278
492,12	34,384
492,32	31,430
492,52	33,604
492,72	32,799
492,92	32,177
493,12	33,266
493,32	31,690
493,52	28,790
493,72	29,361
493,92	32,890
494,12	32,196
494,32	32,706
494,52	31,850
494,72	32,693
494,92	31,621
495,12	31,785
495,32	35,585
495,52	30,755
495,72	31,804
495,92	35,333
496,12	33,334
496,32	31,917
496,52	33,096
496,72	33,207
496,92	32,443
497,12	33,594
497,32	33,474
497,52	34,656
497,72	33,779
497,92	31,668
498,12	33,823
498,32	33,880
498,52	34,097
498,72	32,220
498,92	32,920
499,12	34,036
499,32	32,321
499,52	35,728
499,72	35,142
499,92	36,090
500,12	33,567
500,32	36,334
500,52	33,811
500,72	38,643
500,91	34,285
501,11	34,642
501,31	33,831
501,51	35,304
501,71	35,100
501,91	36,879
502,11	32,676
502,31	34,149
502,51	35,125
502,71	37,104
502,91	33,705
503,11	35,580
503,31	34,748
503,51	34,108
503,71	32,173
503,91	35,939
504,11	34,444
504,31	33,877
504,51	32,511
504,71	36,903
504,91	34,071
505,10	35,235
505,30	35,215
505,50	35,316
505,70	34,308
505,90	35,674
506,10	33,161
506,30	33,566
506,50	38,008
506,70	37,295
506,90	35,156
507,10	36,360
507,30	36,036
507,50	38,430
507,70	35,674
507,89	33,589
508,09	35,437
508,29	34,269
508,49	36,199
508,69	31,558
508,89	36,236
509,09	35,531
509,29	36,479
509,49	36,679
509,69	37,011
509,89	34,190
510,09	34,929
510,28	34,374
510,48	34,714
510,68	31,477
510,88	31,849
511,08	30,675
511,28	33,342
511,48	34,530
511,68	32,756
511,88	33,954
512,07	34,543
512,27	36,253
512,47	32,816
512,67	32,509
512,87	33,734
513,07	34,247
513,27	33,867
513,47	31,768
513,67	32,475
513,86	36,001
514,06	35,157
514,26	34,639
514,46	36,083
514,66	35,895
514,86	33,784
515,06	36,164
515,26	36,366
515,45	37,454
515,65	32,745
515,85	36,218
516,05	32,991
516,25	34,787
516,45	34,260
516,65	33,595
516,84	36,102
517,04	37,071
517,24	34,275
517,44	33,350
517,64	35,466
517,84	35,205
518,04	33,269
518,23	35,610
518,43	35,041
518,63	31,372
518,83	35,924
519,03	35,666
519,23	36,087
519,42	32,602
519,62	35,717
519,82	33,485
520,02	33,065
520,22	35,906
520,42	34,743
520,61	35,722
520,81	34,448
521,01	37,165
521,21	32,937
521,41	35,074
521,61	36,452
521,80	34,781
522,00	35,472
522,20	35,177
522,40	33,301
522,60	33,628
522,79	33,061
522,99	34,584
523,19	34,671
523,39	34,361
523,59	32,970
523,78	36,404
523,98	33,443
524,18	36,484
524,38	32,213
524,58	34,411
524,77	35,596
524,97	34,472
525,17	35,402
525,37	34,609
525,57	34,890
525,76	37,153
525,96	36,192
526,16	33,891
526,36	32,133
526,56	33,472
526,75	33,188
526,95	35,279
527,15	35,172
527,35	35,055
527,55	34,185
527,74	35,980
527,94	32,573
528,14	33,728
528,34	36,462
528,53	33,529
528,73	32,870
528,93	34,784
529,13	33,254
529,32	36,461
529,52	35,413
529,72	31,855
529,92	34,050
530,12	35,160
530,31	32,273
530,51	33,905
530,71	36,117
530,91	35,232
531,10	30,134
531,30	34,545
531,50	34,513
531,70	35,879
531,89	33,351
532,09	32,873
532,29	33,084
532,49	33,111
532,68	31,303
532,88	33,241
533,08	33,319
533,28	34,921
533,47	32,971
533,67	34,500
533,87	34,143
534,06	35,950
534,26	31,880
534,46	32,662
534,66	32,253
534,85	32,866
535,05	32,227
535,25	32,810
535,45	31,514
535,64	33,476
535,84	32,357
536,04	31,300
536,23	34,253
536,43	34,973
536,63	31,702
536,83	31,790
537,02	32,876
537,22	32,317
537,42	30,667
537,61	33,218
537,81	34,353
538,01	32,429
538,20	33,700
538,40	30,758
538,60	32,056
538,80	30,331
538,99	33,315
539,19	29,143
539,39	28,362
539,58	29,244
539,78	26,601
539,98	29,500
540,17	27,390
540,37	26,237
540,57	27,736
540,76	28,013
540,96	24,870
541,16	26,638
541,36	23,551
541,55	22,342
541,75	23,832
541,95	23,371
542,14	22,877
542,34	22,110
542,54	22,565
542,73	22,851
542,93	23,752
543,13	23,727
543,32	22,336
543,52	23,738
543,72	23,189
543,91	22,327
544,11	22,280
544,31	22,531
544,50	23,745
544,70	24,832
544,89	22,937
545,09	25,073
545,29	24,172
545,48	23,263
545,68	23,463
545,88	23,584
546,07	24,583
546,27	25,026
546,47	26,248
546,66	26,572
546,86	28,465
547,06	26,027
547,25	25,254
547,45	29,549
547,64	28,747
547,84	30,456
548,04	29,261
548,23	32,612
548,43	29,252
548,63	30,329
548,82	31,683
549,02	28,653
549,21	27,786
549,41	29,293
549,61	28,202
549,80	33,070
550,00	29,040
550,20	28,400
550,39	31,243
550,59	29,439
550,78	30,064
550,98	30,414
551,18	30,701
551,37	30,416
551,57	29,836
551,76	31,641
551,96	31,363
552,16	29,862
552,35	30,900
552,55	32,446
552,74	30,748
552,94	32,461
553,14	32,292
553,33	31,883
553,53	31,200
553,72	30,879
553,92	32,868
554,12	30,147
554,31	31,787
554,51	32,802
554,70	31,501
554,90	33,790
555,09	33,207
555,29	32,248
555,49	31,773
555,68	34,043
555,88	34,685
556,07	33,468
556,27	33,249
556,46	33,025
556,66	30,900
556,86	35,061
557,05	34,217
557,25	33,320
557,44	29,833
557,64	31,793
557,83	33,147
558,03	31,593
558,22	32,392
558,42	33,051
558,62	34,006
558,81	34,222
559,01	32,533
559,20	33,744
559,40	30,178
559,59	32,269
559,79	32,707
559,98	33,660
560,18	33,943
560,37	34,366
560,57	34,888
560,76	30,880
560,96	31,017
561,16	34,596
561,35	32,754
561,55	35,936
561,74	31,675
561,94	33,920
562,13	33,634
562,33	33,863
562,52	31,604
562,72	33,373
562,91	32,192
563,11	33,124
563,30	33,590
563,50	29,995
563,69	32,301
563,89	31,963
564,08	34,022
564,28	33,388
564,47	33,941
564,67	32,055
564,86	32,478
565,06	31,842
565,25	33,600
565,45	31,586
565,64	32,631
565,84	31,348
566,03	32,081
566,23	33,308
566,42	32,555
566,62	33,449
566,81	33,985
567,01	33,463
567,20	33,629
567,40	31,273
567,59	33,079
567,79	33,581
567,98	35,001
568,18	34,374
568,37	36,047
568,57	34,102
568,76	36,986
568,96	32,620
569,15	33,108
569,35	34,214
569,54	34,140
569,73	35,984
569,93	32,246
570,12	34,574
570,32	34,278
570,51	33,223
570,71	33,984
570,90	34,648
571,10	33,779
571,29	34,055
571,49	35,532
571,68	33,339
571,87	33,411
572,07	33,314
572,26	33,567
572,46	32,284
572,65	33,935
572,85	32,622
573,04	33,300
573,24	33,065
573,43	34,242
573,62	35,232
573,82	35,194
574,01	32,064
574,21	33,546
574,40	33,790
574,60	31,055
574,79	36,318
574,98	33,574
575,18	33,555
575,37	32,747
575,57	33,710
575,76	33,229
575,96	33,948
576,15	33,098
576,34	35,457
576,54	33,977
576,73	34,143
576,93	33,298
577,12	33,771
577,31	33,356
577,51	32,056
577,70	32,310
577,90	32,966
578,09	32,662
578,28	33,479
578,48	34,163
578,67	33,577
578,87	34,267
579,06	32,577
579,25	33,852
579,45	31,921
579,64	30,840
579,84	33,054
580,03	31,997
580,22	34,952
580,42	32,401
580,61	34,042
580,81	32,358
581,00	31,864
581,19	33,075
581,39	32,569
581,58	32,258
581,77	32,851
581,97	32,989
582,16	32,179
582,35	33,665
582,55	32,104
582,74	33,271
582,94	31,905
583,13	31,045
583,32	31,720
583,52	31,296
583,71	32,767
583,90	32,072
584,10	32,625
584,29	33,616
584,48	33,103
584,68	32,074
584,87	32,988
585,06	32,796
585,26	31,244
585,45	31,164
585,65	34,083
585,84	32,030
586,03	31,740
586,23	31,067
586,42	31,601
586,61	32,349
586,81	32,594
587,00	31,750
587,19	29,655
587,39	34,073
587,58	32,656
587,77	31,807
587,97	30,819
588,16	30,581
588,35	32,024
588,54	33,193
588,74	29,132
588,93	33,571
589,12	32,410
589,32	31,968
589,51	31,189
589,70	30,780
589,90	31,863
590,09	30,696
590,28	34,153
590,48	31,842
590,67	33,182
590,86	32,092
591,06	33,265
591,25	31,983
591,44	31,758
591,63	31,980
591,83	32,993
592,02	31,822
592,21	31,513
592,41	33,769
592,60	32,107
592,79	32,134
592,98	31,714
593,18	33,878
593,37	32,784
593,56	32,325
593,76	31,331
593,95	33,287
594,14	30,892
594,33	33,596
594,53	32,468
594,72	32,703
594,91	33,682
595,10	33,708
595,30	33,377
595,49	31,818
595,68	34,992
595,88	33,144
596,07	31,953
596,26	32,536
596,45	34,012
596,65	28,632
596,84	33,757
597,03	32,901
597,22	33,243
597,42	34,706
597,61	31,678
597,80	32,953
597,99	32,239
598,19	32,475
598,38	32,403
598,57	32,636
598,76	32,358
598,95	34,836
599,15	32,963
599,34	32,532
599,53	33,256
599,72	34,437
599,92	33,978
600,11	31,801
600,30	34,113
600,49	33,626
600,69	32,883
600,88	33,908
601,07	34,211
601,26	33,793
601,45	32,500
601,65	32,940
601,84	32,017
602,03	33,970
602,22	33,847
602,42	34,980
602,61	31,556
602,80	34,474
602,99	33,139
603,18	31,788
603,38	32,162
603,57	32,936
603,76	33,810
603,95	33,108
604,14	32,949
604,34	32,900
604,53	32,495
604,72	34,242
604,91	32,365
605,10	32,549
605,29	31,995
605,49	32,454
605,68	33,159
605,87	33,818
606,06	32,385
606,25	31,771
606,45	32,411
606,64	31,594
606,83	32,420
607,02	31,284
607,21	32,739
607,40	32,107
607,60	30,586
607,79	31,754
607,98	29,633
608,17	29,001
608,36	30,605
608,55	30,683
608,75	29,022
608,94	28,638
609,13	27,140
609,32	26,031
609,51	26,678
609,70	28,545
609,89	26,968
610,09	26,465
610,28	28,531
610,47	26,592
610,66	23,724
610,85	25,680
611,04	26,042
611,23	26,226
611,43	26,262
611,62	25,576
611,81	25,015
612,00	27,040
612,19	25,212
612,38	25,887
612,57	26,918
612,77	26,951
612,96	27,442
613,15	26,183
613,34	28,529
613,53	29,326
613,72	30,440
613,91	28,928
614,10	29,088
614,29	29,505
614,49	29,208
614,68	30,219
614,87	30,162
615,06	30,891
615,25	29,962
615,44	31,283
615,63	30,044
615,82	27,816
616,01	29,032
616,21	30,051
616,40	30,038
616,59	32,156
616,78	30,552
616,97	31,042
617,16	30,519
617,35	32,890
617,54	31,345
617,73	32,187
617,92	30,269
618,11	31,118
618,31	29,622
618,50	30,662
618,69	29,972
618,88	29,210
619,07	31,494
619,26	30,855
619,45	29,917
619,64	31,717
619,83	29,430
620,02	29,119
620,21	32,250
620,40	31,913
620,59	28,947
620,78	29,693
620,97	30,833
621,17	31,389
621,36	31,233
621,55	31,489
621,74	31,289
621,93	30,653
622,12	31,083
622,31	30,508
622,50	29,178
622,69	31,343
622,88	32,191
623,07	30,843
623,26	31,730
623,45	33,678
623,64	30,143
623,83	31,742
624,02	32,642
624,21	32,224
624,40	31,721
624,59	31,106
624,78	32,545
624,97	32,533
625,16	30,125
625,35	29,483
625,54	30,976
625,73	31,743
625,92	30,676
626,12	31,305
626,31	30,424
626,50	30,726
626,69	31,669
626,88	28,806
627,07	32,779
627,26	30,609
627,45	29,485
627,64	30,206
627,83	31,286
628,02	29,696
628,21	29,614
628,40	29,825
628,59	29,615
628,78	28,890
628,97	32,360
629,16	28,866
629,35	30,234
629,54	30,958
629,73	29,748
629,92	29,486
630,10	30,463
630,29	30,319
630,48	30,948
630,67	29,709
630,86	29,499
631,05	30,480
631,24	30,313
631,43	28,560
631,62	29,472
631,81	29,498
632,00	30,798
632,19	28,384
632,38	30,782
632,57	30,760
632,76	30,898
632,95	30,245
633,14	31,961
633,33	29,524
633,52	31,064
633,71	30,578
633,90	31,719
634,09	28,926
634,28	31,619
634,47	30,245
634,66	31,833
634,85	32,287
635,04	31,869
635,22	31,594
635,41	30,772
635,60	31,914
635,79	31,973
635,98	30,154
636,17	32,263
636,36	30,083
636,55	30,500
636,74	29,809
636,93	30,829
637,12	30,329
637,31	31,274
637,50	30,521
637,69	31,268
637,87	30,058
638,06	31,540
638,25	30,679
638,44	30,816
638,63	29,299
638,82	30,976
639,01	30,336
639,20	31,472
639,39	31,734
639,58	30,631
639,77	32,625
639,95	30,077
640,14	31,134
640,33	32,132
640,52	28,923
640,71	31,577
640,90	32,348
641,09	33,641
641,28	29,792
641,47	32,088
641,66	31,305
641,84	29,508
642,03	30,860
642,22	30,498
642,41	33,512
642,60	30,802
642,79	28,717
642,98	31,530
643,17	29,924
643,35	29,863
643,54	31,239
643,73	32,209
643,92	32,088
644,11	29,731
644,30	30,946
644,49	32,933
644,67	30,155
644,86	29,879
645,05	31,235
645,24	31,235
645,43	30,536
645,62	30,062
645,81	31,845
645,99	32,088
646,18	31,863
646,37	29,906
646,56	30,647
646,75	31,487
646,94	32,727
647,13	31,862
647,31	29,421
647,50	31,000
647,69	31,115
647,88	31,286
648,07	31,253
648,26	32,183
648,44	29,849
648,63	30,722
648,82	31,581
649,01	32,854
649,20	30,738
649,38	31,410
649,57	30,900
649,76	29,967
649,95	29,932
650,14	28,826
650,33	30,714
650,51	31,077
650,70	31,413
650,89	29,720
651,08	31,162
651,27	29,969
651,45	31,146
651,64	29,436
651,83	32,296
652,02	29,156
652,21	31,869
652,39	32,113
652,58	33,799
652,77	30,299
652,96	31,872
653,15	31,079
653,33	30,469
653,52	31,340
653,71	32,629
653,90	31,589
654,09	32,573
654,27	32,089
654,46	32,230
654,65	32,977
654,84	32,443
655,02	33,524
655,21	33,466
655,40	33,618
655,59	31,995
655,77	34,207
655,96	32,292
656,15	32,357
656,34	32,644
656,53	32,528
656,71	32,239
656,90	31,309
657,09	33,033
657,28	31,162
657,46	31,299
657,65	30,540
657,84	33,422
658,03	32,020
658,21	32,934
658,40	30,857
658,59	31,045
658,78	31,921
658,96	33,054
659,15	31,412
659,34	31,268
659,52	31,480
659,71	31,235
659,90	30,029
660,09	31,787
660,27	29,667
660,46	31,048
660,65	30,375
660,84	30,363
661,02	30,748
661,21	31,438
661,40	29,604
661,58	32,134
661,77	29,747
661,96	29,212
662,15	30,317
662,33	30,139
662,52	30,236
662,71	31,548
662,89	29,683
663,08	28,666
663,27	30,391
663,45	30,808
663,64	31,552
663,83	30,229
664,02	30,944
664,20	31,533
664,39	29,908
664,58	30,974
664,76	28,743
664,95	30,080
665,14	30,396
665,32	29,592
665,51	31,091
665,70	31,265
665,88	30,591
666,07	30,319
666,26	31,542
666,44	31,100
666,63	30,214
666,82	30,062
667,00	31,264
667,19	29,104
667,38	29,900
667,56	32,267
667,75	31,567
667,94	30,805
668,12	29,822
668,31	30,051
668,50	30,517
668,68	30,814
668,87	30,203
669,06	30,037
669,24	32,533
669,43	31,713
669,62	29,068
669,80	29,458
669,99	29,758
670,18	30,214
670,36	30,336
670,55	30,305
670,74	29,488
670,92	28,080
671,11	29,993
671,29	30,786
671,48	30,822
671,67	29,877
671,85	29,866
672,04	28,968
672,23	28,430
672,41	30,505
672,60	29,356
672,78	30,023
672,97	30,397
673,16	29,726
673,34	28,883
673,53	30,810
673,71	30,795
673,90	30,472
674,09	29,311
674,27	30,005
674,46	30,176
674,64	30,759
674,83	31,070
675,02	29,196
675,20	28,730
675,39	30,191
675,57	30,545
675,76	29,592
675,95	30,905
676,13	31,090
676,32	30,527
676,50	30,126
676,69	28,617
676,88	30,796
677,06	30,757
677,25	30,093
677,43	33,069
677,62	30,297
677,80	31,581
677,99	30,911
678,18	29,975
678,36	31,475
678,55	28,964
678,73	30,729
678,92	32,216
679,10	30,847
679,29	30,248
679,48	29,519
679,66	29,562
679,85	29,969
680,03	30,458
680,22	30,578
680,40	30,085
680,59	29,190
680,77	30,410
680,96	30,698
681,15	30,133
681,33	31,042
681,52	29,213
681,70	30,210
681,89	33,605
682,07	31,740
682,26	30,906
682,44	31,973
682,63	29,650
682,81	31,050
683,00	32,008
683,18	29,512
683,37	32,528
683,55	30,465
683,74	31,389
683,92	32,244
684,11	30,734
684,29	30,819
684,48	29,420
684,67	29,442
684,85	29,830
685,04	30,532
685,22	29,565
685,41	29,848
685,59	30,399
685,78	30,546
685,96	29,911
686,15	31,727
686,33	30,023
686,52	28,028
686,70	30,161
686,89	32,027
687,07	31,567
687,26	30,736
687,44	31,402
687,62	30,026
687,81	31,029
687,99	29,111
688,18	29,314
688,36	29,801
688,55	29,314
688,73	31,298
688,92	28,849
689,10	30,795
689,29	31,308
689,47	31,674
689,66	29,561
689,84	29,958
690,03	27,967
690,21	31,003
690,40	30,234
690,58	30,649
690,76	28,745
690,95	31,501
691,13	30,174
691,32	31,383
691,50	32,406
691,69	30,847
691,87	28,358
692,06	29,043
692,24	29,788
692,43	29,388
692,61	28,710
692,79	30,268
692,98	28,683
693,16	30,942
693,35	29,584
693,53	29,303
693,72	30,280
693,90	30,217
694,08	30,029
694,27	29,820
694,45	32,211
694,64	30,643
694,82	29,592
695,01	29,935
695,19	30,197
695,37	28,665
695,56	30,017
695,74	30,806
695,93	31,409
696,11	29,693
696,29	31,147
696,48	31,091
696,66	31,214
696,85	30,587
697,03	27,223
697,21	32,396
697,40	29,264
697,58	29,382
697,77	29,219
697,95	31,859
698,13	31,952
698,32	29,210
698,50	30,632
698,69	29,346
698,87	30,106
699,05	28,476
699,24	30,013
699,42	30,623
699,60	27,887
699,79	30,100
699,97	30,217
700,16	28,611
700,34	29,832
700,52	29,198
700,71	29,695
700,89	29,507
701,07	29,273
701,26	30,403
701,44	30,447
701,63	29,051
701,81	31,228
701,99	29,505
702,18	29,175
702,36	29,694
702,54	28,825
702,73	30,122
702,91	28,569
703,09	28,166
703,28	28,655
703,46	29,161
703,64	30,477
703,83	28,936
704,01	30,715
704,19	28,346
704,38	27,917
704,56	30,108
704,74	30,913
704,93	30,272
705,11	29,963
705,29	30,353
705,48	31,665
705,66	28,474
705,84	29,165
706,03	27,721
706,21	30,345
706,39	28,716
706,58	29,153
706,76	27,013
706,94	29,365
707,12	30,056
707,31	29,180
707,49	29,250
707,67	29,639
707,86	29,725
708,04	29,306
708,22	30,570
708,41	28,122
708,59	30,201
708,77	28,412
708,95	29,212
709,14	30,728
709,32	28,609
709,50	29,212
709,69	29,021
709,87	28,450
710,05	29,258
710,23	30,742
710,42	28,046
710,60	29,041
710,78	30,162
710,97	28,951
711,15	29,821
711,33	29,482
711,51	28,604
711,70	27,566
711,88	28,178
712,06	29,572
712,24	27,872
712,43	27,825
712,61	28,434
712,79	29,253
712,97	27,400
713,16	29,801
713,34	30,057
713,52	30,177
713,70	29,933
713,89	29,557
714,07	29,377
714,25	30,047
714,43	30,607
714,62	28,402
714,80	29,362
714,98	28,262
715,16	29,933
715,35	29,334
715,53	28,645
715,71	29,275
715,89	29,945
716,07	30,350
716,26	32,834
716,44	29,798
716,62	29,566
716,80	29,260
716,99	29,409
717,17	28,313
717,35	29,795
717,53	28,380
717,71	28,998
717,90	30,042
718,08	29,525
718,26	29,108
718,44	29,634
718,62	29,213
718,81	31,133
718,99	26,905
719,17	29,130
719,35	28,672
719,53	28,262
719,72	28,771
719,90	29,007
720,08	29,256
720,26	30,004
720,44	27,950
720,62	28,752
720,81	28,847
720,99	29,826
721,17	29,353
721,35	31,137
721,53	29,858
721,72	30,117
721,90	30,275
722,08	30,326
722,26	31,790
722,44	31,346
722,62	29,618
722,81	29,873
722,99	29,734
723,17	29,700
723,35	30,421
723,53	29,964
723,71	30,036
723,89	28,528
724,08	29,247
724,26	28,268
724,44	28,960
724,62	28,255
724,80	29,524
724,98	30,322
725,16	31,164
725,35	30,630
725,53	27,692
725,71	30,128
725,89	28,896
726,07	31,775
726,25	32,380
726,43	29,787
726,61	30,014
726,80	29,260
726,98	30,530
727,16	29,834
727,34	29,415
727,52	29,763
727,70	28,210
727,88	28,466
728,06	27,637
728,25	27,367
728,43	30,648
728,61	29,569
728,79	29,078
728,97	28,237
729,15	29,445
729,33	29,131
729,51	27,692
729,69	29,832
729,87	28,967
730,06	30,193
730,24	28,869
730,42	31,870
730,60	28,672
730,78	30,796
730,96	29,027
731,14	29,817
731,32	29,623
731,50	30,437
731,68	29,603
731,86	28,667
732,04	30,296
732,22	30,294
732,41	30,575
732,59	30,106
732,77	31,528
732,95	30,342
733,13	29,627
733,31	29,671
733,49	29,510
733,67	30,668
733,85	29,791
734,03	30,236
734,21	31,276
734,39	31,417
734,57	30,228
734,75	29,326
734,93	29,866
735,11	29,232
735,29	28,546
735,47	31,197
735,65	29,895
735,84	27,146
736,02	30,283
736,20	31,077
736,38	28,419
736,56	29,568
736,74	29,847
736,92	28,818
737,10	28,964
737,28	30,134
737,46	29,068
737,64	30,724
737,82	30,832
738,00	30,702
738,18	31,985
738,36	28,893
738,54	30,288
738,72	28,843
738,90	29,501
739,08	30,472
739,26	27,337
739,44	30,345
739,62	29,934
739,80	29,348
739,98	30,939
740,16	29,228
740,34	29,589
740,52	31,911
740,70	29,860
740,88	29,790
741,06	28,946
741,24	29,843
741,42	30,345
741,60	27,475
741,78	31,008
741,96	27,410
742,14	30,252
742,32	27,983
742,50	30,494
742,68	30,163
742,86	29,067
743,04	30,595
743,21	30,093
743,39	30,122
743,57	28,007
743,75	28,910
743,93	28,767
744,11	26,877
744,29	29,455
744,47	29,457
744,65	29,489
744,83	28,968
745,01	30,437
745,19	29,801
745,37	30,107
745,55	30,694
745,73	28,287
745,91	26,637
746,09	28,868
746,27	28,797
746,45	29,115
746,62	29,247
746,80	27,813
746,98	30,366
747,16	29,069
747,34	29,408
747,52	29,016
747,70	29,806
747,88	28,502
748,06	29,852
748,24	28,456
748,42	30,163
748,60	28,641
748,78	30,611
748,95	30,114
749,13	30,428
749,31	27,839
749,49	28,789
749,67	29,305
749,85	30,043
750,03	27,924
750,21	30,143
750,39	29,789
750,57	31,510
750,74	29,927
750,92	29,344
751,10	30,538
751,28	29,700
751,46	29,427
751,64	30,820
751,82	29,821
752,00	28,977
752,17	30,963
752,35	28,351
752,53	27,815
752,71	29,931
752,89	30,306
753,07	28,183
753,25	31,331
753,43	27,409
753,60	29,889
753,78	29,976
753,96	30,679
754,14	29,840
754,32	29,846
754,50	31,528
754,68	29,207
754,85	30,284
755,03	30,281
755,21	30,542
755,39	32,094
755,57	28,972
755,75	29,756
755,92	29,218
756,10	29,963
756,28	31,225
756,46	27,502
756,64	29,640
756,82	30,655
756,99	29,861
757,17	30,719
757,35	28,361
757,53	30,019
757,71	31,257
757,89	29,420
758,06	30,643
758,24	29,361
758,42	30,368
758,60	28,746
758,78	28,162
758,95	28,641
759,13	30,274
759,31	29,564
759,49	29,198
759,67	28,455
759,84	29,982
760,02	30,388
760,20	30,202
760,38	27,825
760,56	28,500
760,73	30,138
760,91	29,943
761,09	30,789
761,27	29,322
761,45	28,524
761,62	29,683
761,80	28,769
761,98	29,928
762,16	29,909
762,33	30,520
762,51	30,093
762,69	31,035
762,87	29,474
763,05	29,051
763,22	27,345
763,40	28,544
763,58	29,085
763,76	30,715
763,93	30,670
764,11	29,132
764,29	28,354
764,47	29,971
764,64	28,969
764,82	31,262
765,00	29,532
765,18	26,655
765,35	28,983
765,53	28,761
765,71	28,776
765,89	28,338
766,06	29,083
766,24	30,575
766,42	31,056
766,60	28,819
766,77	28,339
766,95	28,143
767,13	31,284
767,30	28,697
767,48	28,429
767,66	29,623
767,84	27,083
768,01	28,651
768,19	30,974
768,37	30,126
768,54	29,071
768,72	29,372
768,90	29,839
769,08	29,583
769,25	30,584
769,43	28,520
769,61	27,986
769,78	30,076
769,96	29,589
770,14	29,357
770,31	29,119
770,49	31,306
770,67	31,382
770,85	26,758
771,02	28,340
771,20	29,150
771,38	30,782
771,55	29,631
771,73	28,700
771,91	29,735
772,08	29,822
772,26	30,339
772,44	28,985
772,61	30,152
772,79	28,681
772,97	29,212
773,14	26,990
773,32	28,501
773,50	27,551
773,67	31,532
773,85	30,015
774,03	29,226
774,20	30,021
774,38	29,944
774,56	27,865
774,73	28,707
774,91	30,484
775,09	29,728
775,26	26,881
775,44	30,302
775,61	30,550
775,79	27,828
775,97	31,333
776,14	29,164
776,32	29,249
776,50	28,023
776,67	28,628
776,85	29,577
777,03	27,920
777,20	29,751
777,38	29,754
777,55	29,299
777,73	26,994
777,91	30,707
778,08	29,656
778,26	31,148
778,43	30,467
778,61	27,747
778,79	28,457
778,96	27,182
779,14	29,465
779,32	28,541
779,49	27,804
779,67	30,906
779,84	30,046
780,02	30,881
780,20	27,244
780,37	29,060
780,55	29,572
780,72	31,162
780,90	31,946
781,07	28,824
781,25	29,690
781,43	29,401
781,60	31,560
781,78	30,570
781,95	29,871
782,13	29,644
782,30	31,718
782,48	28,820
782,66	30,623
782,83	26,880
783,01	31,565
783,18	28,564
783,36	30,606
783,53	31,964
783,71	29,210
783,89	28,474
784,06	30,092
784,24	29,759
784,41	31,106
784,59	29,748
784,76	31,232
784,94	30,406
785,11	30,872
785,29	29,092
785,46	29,253
785,64	29,546
785,82	30,699
785,99	29,632
786,17	27,897
786,34	29,143
786,52	29,823
786,69	30,360
786,87	28,160
787,04	26,889
787,22	27,852
787,39	30,579
787,57	29,956
787,74	31,085
787,92	33,651
788,09	29,885
788,27	30,908
788,44	27,459
788,62	30,152
788,79	30,350
788,97	31,670
789,14	29,966
789,32	28,835
789,49	29,242
789,67	31,212
789,84	33,772
790,02	29,022
790,19	26,430
790,37	28,909
790,54	29,945
790,72	31,421
790,89	30,453
791,07	33,075
791,24	28,197
791,42	28,934
791,59	30,213
791,77	29,547
791,94	29,084
792,12	28,232
792,29	28,802
792,47	30,554
792,64	31,499
792,81	28,812
792,99	30,666
793,16	30,201
793,34	30,592
793,51	30,625
793,69	32,452
793,86	27,939
794,04	28,705
794,21	32,529
794,39	28,826
794,56	29,919
794,73	30,028
794,91	29,745
795,08	30,222
795,26	31,785
795,43	28,758
795,61	27,460
795,78	30,097
795,95	29,109
796,13	30,904
796,30	31,000
796,48	28,121
796,65	30,432
796,83	31,661
797,00	33,268
797,17	27,604
797,35	29,193
797,52	31,547
797,70	32,714
797,87	28,516
798,04	28,255
798,22	31,166
798,39	30,273
798,57	32,673
798,74	34,071
798,91	27,862
799,09	28,750
799,26	31,902
799,44	29,610
799,61	32,225
799,78	30,313
799,96	30,100
800,13	30,382
800,31	27,703
800,48	33,284
800,65	28,926
800,83	31,865
801,00	30,144
801,17	31,453
801,35	27,292
801,52	32,619
801,70	30,808
801,87	30,817
802,04	30,101
802,22	29,707
802,39	32,107
802,56	34,699
802,74	30,525
802,91	31,399
803,08	29,683
803,26	28,210
803,43	30,175
803,61	32,288
803,78	30,689
803,95	30,270
804,13	34,483
804,30	29,050
804,47	33,376
804,65	29,544
804,82	30,270
804,99	27,680
805,17	31,761
805,34	32,399
805,51	31,737
805,69	27,276
805,86	26,607
806,03	30,635
806,21	32,452
806,38	29,018
806,55	35,484
806,72	32,322
806,90	30,499
807,07	32,223
807,24	29,055
807,42	31,066
807,59	28,769
807,76	30,605
807,94	31,061
808,11	32,901
808,28	36,151
808,45	30,495
808,63	29,571
808,80	34,969
808,97	28,828
809,15	30,815
809,32	30,911
809,49	26,230
809,67	28,032
809,84	34,319
810,01	34,012
810,18	31,897
810,36	33,606
810,53	32,398
810,70	32,493
810,87	31,378
811,05	28,804
811,22	31,625
811,39	29,596
811,57	33,588
811,74	30,844
811,91	30,899
812,08	34,510
812,26	31,775
812,43	31,906
812,60	28,543
812,77	30,889
812,95	31,024
813,12	36,451
813,29	28,133
813,46	30,421
813,64	29,903
813,81	30,006
813,98	31,126
814,15	31,862
814,32	35,257
814,50	33,464
814,67	31,702
814,84	33,040
815,01	27,747
815,19	30,784
815,36	27,908
815,53	35,570
815,70	32,465
815,87	31,866
816,05	30,954
816,22	31,719
816,39	35,945
816,56	34,211
816,74	29,970
816,91	24,663
817,08	35,003
817,25	34,604
817,42	32,546
817,60	32,811
817,77	26,845
817,94	36,280
818,11	30,427
818,28	33,019
818,45	34,646
818,63	30,313
818,80	30,190
818,97	33,627
819,14	39,055
819,31	32,647
819,49	35,147
819,66	27,364
819,83	30,192
820,00	35,242
820,17	30,319
820,34	34,493
820,52	32,878
820,69	31,340
820,86	32,059
821,03	31,465
821,20	38,380
821,37	31,166
821,55	28,342
821,72	37,085
821,89	27,800
822,06	31,417
822,23	28,173
822,40	35,280
822,57	32,361
822,75	38,290
822,92	30,772
823,09	30,576
823,26	34,855
823,43	37,622
823,60	30,261
823,77	32,878
823,94	27,392
824,12	37,878
824,29	31,584
824,46	33,033
824,63	29,826
824,80	32,471
824,97	34,602
825,14	32,024
825,31	36,258
825,49	34,306
825,66	30,707
825,83	32,554
826,00	36,009
826,17	37,687
826,34	28,406
826,51	29,148
826,68	33,137
826,85	29,727
827,02	30,222
827,20	27,571
827,37	32,760
827,54	30,545
827,71	39,534
827,88	34,928
828,05	33,389
828,22	28,328
828,39	36,450
828,56	33,578
828,73	29,132
828,90	39,326
829,07	27,541
829,25	35,302
829,42	33,225
829,59	34,821
829,76	31,250
829,93	29,732
830,10	29,908
830,27	26,041
830,44	35,043
830,61	36,977
830,78	19,292
830,95	33,023
831,12	29,309
831,29	27,136
831,46	27,458
831,63	36,598
831,80	32,225
831,97	28,344
832,14	34,897
832,31	39,655
832,48	35,059
832,65	32,671
832,83	34,613
833,00	32,619
833,17	27,588
833,34	32,394
833,51	31,293
833,68	37,942
833,85	36,477
834,02	34,246
834,19	34,375
834,36	37,818
834,53	24,456
834,70	31,034
834,87	39,551
835,04	32,338
835,21	35,911
835,38	28,496
835,55	30,602
835,72	43,103
835,89	37,669
836,06	36,365
836,23	41,827
836,40	22,883
836,57	25,938
836,74	34,899
836,91	37,517
837,08	39,741
837,25	33,612
837,42	26,629
837,59	32,552
837,76	34,884
837,93	22,326
838,09	32,888
838,26	33,131
838,43	43,242
838,60	33,894
838,77	33,975
838,94	36,055
839,11	38,198
839,28	33,968
839,45	32,283
839,62	32,781
839,79	33,709
839,96	34,903
840,13	32,371
840,30	33,850
840,47	35,425
840,64	32,785
840,81	31,232
840,98	31,211
841,15	37,327
841,32	34,711
841,48	40,510
841,65	38,147
841,82	34,631
841,99	39,680
842,16	31,283
842,33	37,063
842,50	30,695
842,67	39,090
842,84	32,001
843,01	31,060
843,18	33,895
843,35	38,961
843,52	31,983
843,68	39,471
843,85	37,752
844,02	32,787
844,19	34,979
844,36	42,153
844,53	41,301
844,70	41,423
844,87	40,139
845,04	24,586
845,21	35,661
845,37	36,505
845,54	39,029
845,71	24,642
845,88	37,913
846,05	33,119
846,22	25,231
846,39	32,721
846,56	44,107
846,72	22,731
846,89	31,559
847,06	42,751
847,23	34,682
847,40	35,640
847,57	27,919
847,74	36,517
847,90	43,793
848,07	37,660
848,24	34,194
848,41	26,306
848,58	38,703
848,75	32,504
848,92	35,274
849,08	24,532
849,25	35,749
849,42	30,607
849,59	33,146
849,76	32,986
849,93	39,705
850,09	46,837
850,26	28,806
850,43	40,036
850,60	35,399
850,77	35,541
850,94	42,404
851,10	37,291
851,27	25,608
851,44	36,138
851,61	41,144
851,78	53,273
851,95	42,498
852,11	23,219
852,28	31,574
852,45	27,217
852,62	32,314
852,79	39,619
852,95	45,404
853,12	38,739
853,29	35,315
853,46	37,618
853,63	32,109
853,79	36,854
853,96	24,226
854,13	41,870
854,30	29,856
854,46	44,696
854,63	41,504
854,80	35,117
854,97	31,034
855,14	40,588
855,30	39,077
855,47	30,377
855,64	36,581
855,81	35,354
855,97	36,015
856,14	37,819
856,31	24,529
856,48	45,406
856,65	43,166
856,81	39,099
856,98	16,342
857,15	44,851
857,32	43,251
857,48	20,021
857,65	37,652
857,82	35,194
857,99	48,345
858,15	40,767
858,32	43,853
858,49	36,083
858,65	44,242
858,82	54,645
858,99	26,809
859,16	36,414
859,32	44,009
859,49	25,129
859,66	25,259
859,83	32,749
859,99	35,128
860,16	41,811
860,33	34,834
860,49	35,089
860,66	46,626
860,83	37,663
861,00	29,136
861,16	48,500
861,33	44,820
861,50	41,181
861,66	41,992
861,83	48,584
862,00	48,021
862,16	34,892
862,33	41,985
862,50	55,756
862,67	38,888
862,83	38,561
863,00	45,671
863,17	48,427
863,33	42,156
863,50	33,511
863,67	31,514
863,83	42,295
864,00	36,811
864,17	35,251
864,33	44,257
864,50	40,719
864,67	32,206
864,83	27,405
865,00	32,970
865,17	35,181
865,33	47,083
865,50	29,856
865,67	28,934
865,83	30,553
866,00	35,704
866,17	39,709
866,33	45,782
866,50	53,923
866,66	52,359
866,83	51,007
867,00	50,774
867,16	64,417
867,33	48,689
867,50	11,496
867,66	44,199
867,83	35,734
868,00	46,141
868,16	38,792
868,33	44,312
868,49	39,683
868,66	37,549
868,83	30,796
868,99	44,515
869,16	52,973
869,32	47,339
869,49	33,075
869,66	20,150
869,82	52,686
869,99	57,577
870,15	31,340
870,32	43,794
870,49	39,159
870,65	69,767
870,82	62,370
870,98	41,275
871,15	55,373
871,32	39,044
871,48	4,473
871,65	9,737
871,81	46,172
871,98	24,034
872,15	31,967
872,31	41,149
872,48	59,451
872,64	51,022
872,81	12,437
872,97	34,932
873,14	38,419
873,31	66,336
873,47	2,922
873,64	0,848
873,80	78,045
873,97	57,434
874,13	21,483
874,30	41,255
874,46	70,848
874,63	39,128
874,80	31,319
874,96	36,953
875,13	75,273
875,29	44,490
875,46	79,144
875,62	24,620
875,79	56,223
875,95	38,170
876,12	31,396
876,28	27,713
876,45	102,516
876,61	22,549
876,78	45,275
876,94	51,171
877,11	48,101
877,27	33,999
877,44	14,572
877,60	28,948
877,77	69,354
877,94	45,837
878,10	72,191
878,27	52,727
878,43	51,400
878,60	3,729
878,76	64,013
878,93	15,374
879,09	81,665
879,26	48,294
879,42	60,479
879,58	76,637
879,75	76,207
879,91	46,869
880,08	9,813
880,24	23,163
880,41	80,090
880,57	69,090
880,74	23,422
880,90	60,372
881,07	3,752
881,23	58,464
881,40	57,004
881,56	100,898
881,73	79,274
881,89	52,387
882,06	66,283
882,22	90,228
882,38	40,263
882,55	106,318
882,71	16,042
882,88	34,919
883,04	111,579
883,21	77,119
883,37	27,165
883,54	25,752
883,70	29,982
883,86	84,306
884,03	30,149
884,19	44,360
884,36	65,044
884,52	88,102
884,69	11,568
884,85	70,545
885,01	52,039
885,18	63,690
885,34	51,887
885,51	-0,780
885,67	51,955
>>>>> Data<<<<< Espectral Procesado Extremo
