Fichero De Datos De SpectraSuite
++++++++++++++++++++++++++++++++++++
Fecha: Wed Apr 22 10:33:56 CEST 2009
Usuario: evoflor
Presente Oscuro Del Espectro: Sí
La Referencia de Presente Del Espectro De: Sí
Muestreados de los componentes de Número de espectros: 1
Espectrómetros: USB4F02353
Tiempo de integración (usec): 500000 (USB4F02353)
Promedio de Espectros Hechos un: 5 (USB4F02353)
El Alisar Del Furgón: 0 (USB4F02353)
Párrafo de de Corregir del la del del de Eléctrica del obscuridad: Sí (USB4F02353)
Estrobo/Lámpara Permitido: No (USB4F02353)
Correct for Detector Non-linearity: No (USB4F02353)
Párrafo de de Corregir del la del del de Externa del luz: No (USB4F02353)
Procesado del espectro de Número de pixeles en: 3648
>>>>> Comienza Data<<<<< Espectral Procesado Del EL
177,79	215,886
178,00	215,886
178,22	215,886
178,44	1209,231
178,66	4,138
178,88	302,736
179,09	-110,043
179,31	160,800
179,53	238,885
179,75	305,602
179,96	703,966
180,18	-143,262
180,40	231,401
180,62	436,233
180,83	-231,570
181,05	-1160,488
181,27	31740,000
181,49	53,348
181,70	57,923
181,92	688,629
182,14	300,181
182,36	-35,679
182,58	272,400
182,79	633,750
183,01	62,169
183,23	203,947
183,45	-38,031
183,66	108,584
183,88	-43,765
184,10	-2695,636
184,32	50,644
184,53	128,410
184,75	-73,631
184,97	76,146
185,18	12,293
185,40	-184,904
185,62	96,184
185,84	144,891
186,05	101,208
186,27	-39,655
186,49	786,923
186,71	-120,572
186,92	19,299
187,14	10,720
187,36	87,961
187,58	29,583
187,79	-70,760
188,01	49,706
188,23	-88,807
188,45	217,428
188,66	87,321
188,88	724,364
189,10	-276,600
189,31	-39,522
189,53	15,985
189,75	314,455
189,97	-66,692
190,18	300,258
190,40	321,529
190,62	-300,907
190,83	-102,840
191,05	136,979
191,27	135,600
191,49	146,436
191,70	-102,692
191,92	-447,966
192,14	-97,300
192,35	316,870
192,57	44,571
192,79	7,195
193,01	99,827
193,22	217,677
193,44	75,666
193,66	80,146
193,87	117,045
194,09	-43,808
194,31	51,905
194,53	684,336
194,74	40,258
194,96	98,670
195,18	143,437
195,39	-203,588
195,61	-80,697
195,83	-161,870
196,04	90,919
196,26	-455,578
196,48	120,374
196,70	80,040
196,91	-44,604
197,13	108,759
197,35	-89,949
197,56	213,808
197,78	878,060
198,00	388,531
198,21	125,534
198,43	-940,465
198,65	102,476
198,86	274,317
199,08	208,721
199,30	114,291
199,51	3,713
199,73	246,163
199,95	306,832
200,16	438,692
200,38	198,586
200,60	110,071
200,81	259,657
201,03	119,185
201,25	-1563,600
201,46	138,498
201,68	76,117
201,90	178,636
202,11	11,221
202,33	136,912
202,55	-171,750
202,76	-24,439
202,98	33,659
203,20	-323,365
203,41	-444,000
203,63	100,821
203,85	-51960,000
204,06	-15,174
204,28	-172,916
204,50	128,839
204,71	79,081
204,93	-621,120
205,15	259,518
205,36	-164,742
205,58	137,735
205,80	-54,311
206,01	77,725
206,23	104,680
206,45	167,172
206,66	90,988
206,88	38,218
207,10	142,636
207,31	267,894
207,53	117,600
207,75	37,392
207,96	58,657
208,18	-76,382
208,39	11,078
208,61	1176,000
208,83	-197,814
209,04	167,152
209,26	-127,465
209,48	149,821
209,69	99,774
209,91	297,162
210,13	9,162
210,34	88,765
210,56	89,872
210,77	-671,339
210,99	29,255
211,21	6656,471
211,42	-39,066
211,64	25,142
211,86	98,298
212,07	102,399
212,29	121,379
212,50	70,481
212,72	127,154
212,94	147,163
213,15	56,628
213,37	95,110
213,58	-5,455
213,80	330,000
214,02	-2555,294
214,23	191,715
214,45	503,803
214,67	-95,854
214,88	-461,275
215,10	-178,627
215,31	107,555
215,53	-47,591
215,75	229,670
215,96	1032,671
216,18	465,634
216,39	152,378
216,61	339,432
216,83	244,018
217,04	907,416
217,26	-42,484
217,47	130,848
217,69	199,956
217,91	51,649
218,12	-660,000
218,34	47,202
218,55	144,987
218,77	59,626
218,99	77,315
219,20	-130,829
219,42	177,988
219,63	-87,761
219,85	-33,370
220,06	40,615
220,28	121,074
220,50	69,102
220,71	46,748
220,93	1014,340
221,14	-402,600
221,36	19,388
221,58	108,436
221,79	271,816
222,01	285,000
222,22	217,500
222,44	-2,697
222,65	-7,063
222,87	-14,266
223,09	126,630
223,30	60,782
223,52	98,985
223,73	135,224
223,95	-43,437
224,16	66,309
224,38	323,602
224,60	29,207
224,81	141,439
225,03	69,119
225,24	89,253
225,46	81,827
225,67	-16,283
225,89	38,560
226,10	221,566
226,32	-23,520
226,54	6,427
226,75	5,917
226,97	82,691
227,18	136,908
227,40	32,255
227,61	5,934
227,83	-14,036
228,04	64,780
228,26	-27,674
228,47	31,977
228,69	25,828
228,91	65,899
229,12	50,832
229,34	41,396
229,55	30,530
229,77	6,008
229,98	0,356
230,20	79,208
230,41	5,797
230,63	26,717
230,84	8,399
231,06	4,313
231,27	7,626
231,49	20,170
231,71	12,192
231,92	33,791
232,14	0,431
232,35	31,146
232,57	45,946
232,78	11,566
233,00	21,212
233,21	30,639
233,43	20,087
233,64	8,415
233,86	31,518
234,07	-8,205
234,29	26,650
234,50	8,117
234,72	31,402
234,93	21,305
235,15	21,333
235,36	7,904
235,58	25,198
235,79	22,465
236,01	10,131
236,22	7,147
236,44	34,538
236,65	23,895
236,87	24,816
237,08	11,392
237,30	-10,846
237,51	4,728
237,73	-5,365
237,94	-4,175
238,16	11,923
238,37	10,933
238,59	8,433
238,80	0,094
239,02	-0,754
239,23	9,215
239,45	-1,864
239,66	21,249
239,88	18,703
240,09	18,390
240,31	-2,590
240,52	10,416
240,74	11,000
240,95	0,704
241,17	9,470
241,38	11,451
241,60	12,974
241,81	22,396
242,03	-0,859
242,24	11,654
242,46	11,282
242,67	1,078
242,89	3,426
243,10	3,972
243,32	7,515
243,53	5,114
243,75	8,504
243,96	5,478
244,18	6,750
244,39	14,949
244,60	8,385
244,82	1,963
245,03	17,450
245,25	5,821
245,46	6,553
245,68	6,599
245,89	9,509
246,11	11,064
246,32	11,116
246,54	8,959
246,75	9,520
246,97	6,944
247,18	7,909
247,39	4,721
247,61	0,225
247,82	9,648
248,04	-1,144
248,25	8,610
248,47	9,087
248,68	9,665
248,90	1,886
249,11	12,869
249,33	11,408
249,54	1,101
249,75	8,445
249,97	1,685
250,18	9,490
250,40	15,552
250,61	-4,470
250,83	-0,165
251,04	-6,702
251,25	11,437
251,47	0,037
251,68	8,478
251,90	6,524
252,11	6,171
252,33	6,153
252,54	10,283
252,76	2,062
252,97	2,416
253,18	-1,568
253,40	4,329
253,61	-0,393
253,83	8,248
254,04	11,145
254,25	3,561
254,47	0,079
254,68	5,593
254,90	7,623
255,11	9,391
255,33	2,454
255,54	2,522
255,75	-2,249
255,97	4,284
256,18	-0,364
256,40	2,013
256,61	8,873
256,82	-0,608
257,04	9,576
257,25	1,585
257,47	5,915
257,68	-0,726
257,89	5,807
258,11	5,312
258,32	3,626
258,54	4,095
258,75	5,128
258,96	10,730
259,18	4,265
259,39	1,535
259,61	6,085
259,82	4,118
260,03	6,292
260,25	4,886
260,46	3,598
260,68	4,409
260,89	5,590
261,10	1,892
261,32	4,304
261,53	4,947
261,75	6,582
261,96	0,280
262,17	8,417
262,39	3,778
262,60	2,756
262,81	0,114
263,03	3,295
263,24	2,170
263,46	-1,651
263,67	3,586
263,88	3,463
264,10	6,778
264,31	0,528
264,52	8,128
264,74	4,037
264,95	0,862
265,17	4,257
265,38	2,693
265,59	5,742
265,81	5,130
266,02	0,666
266,23	-1,084
266,45	7,081
266,66	5,098
266,87	6,199
267,09	0,387
267,30	4,875
267,52	2,818
267,73	2,032
267,94	2,741
268,16	7,528
268,37	3,727
268,58	3,849
268,80	4,436
269,01	0,793
269,22	7,525
269,44	4,463
269,65	4,243
269,86	-0,428
270,08	5,708
270,29	2,299
270,50	3,763
270,72	7,067
270,93	6,191
271,14	1,013
271,36	1,568
271,57	3,912
271,78	5,233
272,00	8,643
272,21	4,716
272,42	8,560
272,64	3,282
272,85	2,813
273,06	1,502
273,28	5,506
273,49	5,373
273,70	5,755
273,92	7,935
274,13	4,552
274,34	4,122
274,56	4,341
274,77	2,803
274,98	5,764
275,20	4,697
275,41	6,250
275,62	4,996
275,84	5,605
276,05	6,288
276,26	4,434
276,47	3,244
276,69	6,905
276,90	2,093
277,11	2,530
277,33	2,176
277,54	8,554
277,75	1,812
277,97	3,422
278,18	4,908
278,39	5,015
278,61	4,914
278,82	5,208
279,03	4,237
279,24	5,109
279,46	2,219
279,67	9,178
279,88	2,952
280,10	6,070
280,31	0,250
280,52	5,143
280,73	2,167
280,95	8,235
281,16	7,933
281,37	3,344
281,59	7,264
281,80	9,553
282,01	2,235
282,22	0,615
282,44	1,416
282,65	7,431
282,86	3,936
283,08	3,004
283,29	4,147
283,50	3,804
283,71	3,048
283,93	3,980
284,14	6,982
284,35	3,553
284,56	3,040
284,78	2,408
284,99	3,221
285,20	6,250
285,42	5,492
285,63	6,521
285,84	3,284
286,05	1,817
286,27	5,457
286,48	3,324
286,69	1,688
286,90	4,583
287,12	4,694
287,33	3,643
287,54	3,752
287,75	2,796
287,97	4,083
288,18	2,470
288,39	4,884
288,60	2,741
288,82	2,135
289,03	5,905
289,24	5,750
289,45	4,853
289,67	4,871
289,88	4,025
290,09	3,961
290,30	3,893
290,52	3,189
290,73	3,304
290,94	1,339
291,15	4,464
291,37	4,675
291,58	2,785
291,79	0,767
292,00	7,187
292,21	5,703
292,43	1,992
292,64	0,652
292,85	3,796
293,06	6,737
293,28	2,333
293,49	1,735
293,70	7,029
293,91	3,974
294,12	2,834
294,34	3,494
294,55	2,010
294,76	1,994
294,97	3,343
295,19	1,013
295,40	2,593
295,61	5,361
295,82	2,880
296,03	4,509
296,25	3,464
296,46	-0,365
296,67	3,420
296,88	0,474
297,09	6,554
297,31	3,524
297,52	5,068
297,73	3,062
297,94	3,944
298,15	5,833
298,37	6,180
298,58	4,826
298,79	4,310
299,00	1,834
299,21	0,245
299,43	5,051
299,64	6,725
299,85	6,704
300,06	2,942
300,27	2,164
300,49	7,435
300,70	3,591
300,91	4,258
301,12	3,523
301,33	5,684
301,54	3,791
301,76	4,485
301,97	3,902
302,18	4,720
302,39	6,430
302,60	7,725
302,82	5,617
303,03	6,161
303,24	2,681
303,45	5,138
303,66	3,785
303,87	3,596
304,09	5,423
304,30	4,222
304,51	2,539
304,72	1,989
304,93	4,092
305,14	3,116
305,36	0,847
305,57	3,197
305,78	3,437
305,99	3,449
306,20	5,213
306,41	2,361
306,62	2,406
306,84	3,085
307,05	1,291
307,26	4,018
307,47	4,757
307,68	3,128
307,89	1,605
308,11	6,048
308,32	3,789
308,53	5,131
308,74	1,594
308,95	4,598
309,16	5,747
309,37	6,100
309,59	1,630
309,80	4,595
310,01	3,539
310,22	5,743
310,43	4,047
310,64	4,625
310,85	4,154
311,06	4,890
311,28	4,357
311,49	3,262
311,70	7,827
311,91	3,168
312,12	5,301
312,33	5,682
312,54	5,959
312,75	3,204
312,97	2,566
313,18	5,392
313,39	2,282
313,60	3,376
313,81	6,707
314,02	2,402
314,23	5,190
314,44	2,331
314,65	2,967
314,87	3,053
315,08	3,718
315,29	6,100
315,50	4,122
315,71	5,439
315,92	7,319
316,13	5,382
316,34	4,677
316,55	6,030
316,77	1,734
316,98	3,597
317,19	3,522
317,40	4,668
317,61	5,212
317,82	2,486
318,03	2,893
318,24	2,699
318,45	6,457
318,66	3,906
318,87	1,240
319,09	5,331
319,30	1,879
319,51	3,238
319,72	5,070
319,93	6,253
320,14	3,241
320,35	5,710
320,56	2,774
320,77	3,021
320,98	8,592
321,19	5,758
321,40	4,857
321,62	6,292
321,83	5,600
322,04	5,288
322,25	2,704
322,46	8,711
322,67	4,181
322,88	3,067
323,09	1,722
323,30	4,349
323,51	7,264
323,72	5,816
323,93	3,436
324,14	1,881
324,35	1,475
324,56	0,878
324,77	3,223
324,99	2,051
325,20	2,018
325,41	4,645
325,62	4,567
325,83	3,479
326,04	2,586
326,25	4,684
326,46	1,145
326,67	5,292
326,88	3,550
327,09	2,149
327,30	2,698
327,51	2,849
327,72	3,396
327,93	6,201
328,14	2,051
328,35	5,536
328,56	3,745
328,77	3,240
328,98	5,189
329,19	3,564
329,40	4,251
329,61	5,237
329,82	1,000
330,04	1,838
330,25	3,199
330,46	1,231
330,67	1,546
330,88	3,959
331,09	2,455
331,30	3,441
331,51	5,022
331,72	3,741
331,93	2,526
332,14	1,947
332,35	4,037
332,56	2,735
332,77	6,278
332,98	4,485
333,19	3,567
333,40	3,801
333,61	2,808
333,82	6,718
334,03	8,080
334,24	3,867
334,45	4,577
334,66	4,419
334,87	4,606
335,08	4,365
335,29	0,019
335,50	2,644
335,71	2,903
335,92	2,586
336,13	4,052
336,34	2,355
336,55	5,640
336,76	4,504
336,97	3,978
337,18	3,763
337,39	2,632
337,60	1,921
337,81	4,872
338,02	4,128
338,23	2,917
338,44	3,538
338,65	5,550
338,86	4,871
339,07	2,122
339,28	4,341
339,49	3,096
339,70	1,392
339,91	4,688
340,11	6,627
340,32	1,431
340,53	1,333
340,74	2,800
340,95	3,190
341,16	5,653
341,37	4,068
341,58	-0,810
341,79	3,371
342,00	4,472
342,21	6,419
342,42	1,843
342,63	4,898
342,84	-2,102
343,05	5,552
343,26	5,596
343,47	5,159
343,68	-0,374
343,89	2,542
344,10	4,740
344,31	5,903
344,52	4,561
344,73	3,457
344,94	4,792
345,14	6,555
345,35	7,140
345,56	5,269
345,77	3,528
345,98	3,148
346,19	1,644
346,40	2,742
346,61	3,058
346,82	4,667
347,03	0,837
347,24	6,695
347,45	2,429
347,66	6,807
347,87	2,723
348,08	6,163
348,28	2,131
348,49	6,722
348,70	4,609
348,91	4,141
349,12	0,420
349,33	17,688
349,54	3,099
349,75	4,630
349,96	4,280
350,17	-0,579
350,38	1,951
350,59	3,324
350,80	3,267
351,00	4,687
351,21	8,211
351,42	4,907
351,63	3,570
351,84	3,413
352,05	6,334
352,26	3,551
352,47	4,168
352,68	5,945
352,89	3,949
353,09	5,407
353,30	2,550
353,51	3,587
353,72	5,103
353,93	4,902
354,14	0,454
354,35	2,546
354,56	2,998
354,77	3,909
354,98	2,175
355,18	3,607
355,39	7,417
355,60	2,966
355,81	5,859
356,02	4,896
356,23	4,598
356,44	3,980
356,65	6,541
356,85	8,384
357,06	3,864
357,27	5,929
357,48	2,451
357,69	6,830
357,90	2,207
358,11	3,620
358,32	4,855
358,52	2,047
358,73	6,255
358,94	2,146
359,15	4,776
359,36	6,856
359,57	2,783
359,78	4,831
359,98	3,865
360,19	2,763
360,40	6,073
360,61	2,091
360,82	3,603
361,03	8,240
361,24	5,612
361,44	1,232
361,65	4,655
361,86	1,588
362,07	5,126
362,28	3,356
362,49	1,148
362,70	3,813
362,90	4,335
363,11	2,632
363,32	0,824
363,53	5,564
363,74	4,261
363,95	7,061
364,15	2,615
364,36	8,935
364,57	4,848
364,78	4,064
364,99	3,567
365,20	5,118
365,40	3,965
365,61	0,831
365,82	4,058
366,03	1,435
366,24	3,925
366,45	2,893
366,65	4,169
366,86	3,190
367,07	6,615
367,28	4,180
367,49	5,248
367,69	8,439
367,90	3,689
368,11	2,370
368,32	2,540
368,53	2,832
368,73	5,416
368,94	4,613
369,15	1,882
369,36	6,699
369,57	3,284
369,78	1,740
369,98	7,316
370,19	8,548
370,40	4,589
370,61	1,670
370,82	5,767
371,02	4,405
371,23	5,582
371,44	5,169
371,65	3,894
371,85	5,446
372,06	4,836
372,27	3,625
372,48	3,280
372,69	-0,321
372,89	0,969
373,10	6,312
373,31	3,940
373,52	3,615
373,73	6,434
373,93	4,971
374,14	2,591
374,35	5,548
374,56	4,738
374,76	5,006
374,97	3,247
375,18	3,857
375,39	5,840
375,60	5,937
375,80	6,118
376,01	5,352
376,22	5,161
376,43	7,380
376,63	3,368
376,84	4,431
377,05	4,475
377,26	2,838
377,46	4,779
377,67	2,718
377,88	6,516
378,09	4,133
378,29	3,439
378,50	8,088
378,71	6,119
378,92	3,372
379,12	3,143
379,33	2,078
379,54	5,969
379,75	4,571
379,95	2,663
380,16	5,320
380,37	4,243
380,58	5,955
380,78	6,158
380,99	3,927
381,20	3,858
381,41	5,493
381,61	7,003
381,82	6,121
382,03	6,039
382,24	2,651
382,44	8,132
382,65	2,963
382,86	4,532
383,06	1,814
383,27	3,405
383,48	2,712
383,69	7,609
383,89	6,180
384,10	10,259
384,31	6,274
384,51	6,645
384,72	5,921
384,93	3,970
385,14	5,838
385,34	5,029
385,55	6,604
385,76	4,232
385,96	6,039
386,17	5,503
386,38	7,669
386,59	7,774
386,79	4,419
387,00	8,317
387,21	10,906
387,41	8,102
387,62	2,431
387,83	8,817
388,03	7,083
388,24	4,988
388,45	5,973
388,66	7,658
388,86	4,689
389,07	4,932
389,28	11,602
389,48	5,541
389,69	7,508
389,90	5,334
390,10	10,972
390,31	10,747
390,52	2,547
390,72	6,680
390,93	7,383
391,14	8,655
391,34	8,544
391,55	8,204
391,76	8,033
391,96	8,456
392,17	11,597
392,38	11,581
392,58	8,787
392,79	7,461
393,00	5,766
393,20	5,484
393,41	9,992
393,62	8,672
393,82	11,508
394,03	9,137
394,24	10,878
394,44	12,712
394,65	11,464
394,86	8,757
395,06	13,501
395,27	9,520
395,48	10,076
395,68	11,881
395,89	14,341
396,10	11,464
396,30	11,202
396,51	12,937
396,72	12,166
396,92	11,834
397,13	13,141
397,34	9,685
397,54	16,036
397,75	12,769
397,95	10,780
398,16	10,977
398,37	12,089
398,57	13,417
398,78	16,786
398,99	16,323
399,19	13,791
399,40	15,645
399,60	15,430
399,81	13,816
400,02	15,692
400,22	19,179
400,43	18,086
400,64	18,767
400,84	18,817
401,05	18,371
401,25	17,576
401,46	19,252
401,67	17,766
401,87	17,217
402,08	14,699
402,29	17,567
402,49	21,025
402,70	21,289
402,90	17,866
403,11	19,329
403,32	20,166
403,52	20,166
403,73	23,229
403,93	23,260
404,14	24,418
404,35	18,909
404,55	21,452
404,76	20,314
404,96	21,401
405,17	26,860
405,38	23,264
405,58	25,620
405,79	25,573
405,99	24,590
406,20	21,990
406,40	26,957
406,61	23,021
406,82	24,356
407,02	27,426
407,23	26,097
407,43	28,252
407,64	28,790
407,85	27,367
408,05	23,314
408,26	34,027
408,46	31,257
408,67	27,075
408,87	27,219
409,08	27,360
409,29	35,244
409,49	32,206
409,70	29,231
409,90	31,688
410,11	28,218
410,31	32,206
410,52	32,151
410,72	31,124
410,93	31,889
411,14	32,681
411,34	31,150
411,55	34,766
411,75	35,038
411,96	31,898
412,16	35,149
412,37	34,389
412,57	36,812
412,78	34,522
412,99	30,650
413,19	38,016
413,40	33,661
413,60	32,235
413,81	33,977
414,01	38,337
414,22	34,687
414,42	38,034
414,63	37,742
414,83	40,723
415,04	38,991
415,24	37,884
415,45	41,342
415,65	40,821
415,86	41,661
416,07	38,154
416,27	39,368
416,48	40,604
416,68	40,901
416,89	38,152
417,09	42,780
417,30	42,600
417,50	40,256
417,71	41,269
417,91	42,226
418,12	39,211
418,32	43,998
418,53	42,223
418,73	42,015
418,94	41,621
419,14	41,968
419,35	42,559
419,55	45,882
419,76	45,898
419,96	42,725
420,17	45,645
420,37	47,245
420,58	48,482
420,78	46,555
420,99	45,841
421,19	45,115
421,40	42,243
421,60	45,856
421,81	43,799
422,01	44,675
422,22	47,268
422,42	51,109
422,63	47,954
422,83	44,972
423,04	47,993
423,24	50,011
423,45	47,094
423,65	50,113
423,86	45,753
424,06	47,966
424,27	45,108
424,47	47,867
424,67	47,337
424,88	49,539
425,08	45,774
425,29	53,946
425,49	46,278
425,70	45,148
425,90	49,611
426,11	47,661
426,31	47,812
426,52	51,907
426,72	47,553
426,93	50,611
427,13	50,806
427,33	51,634
427,54	54,033
427,74	51,101
427,95	53,056
428,15	47,377
428,36	51,220
428,56	49,008
428,77	53,439
428,97	49,097
429,18	48,388
429,38	48,446
429,58	53,678
429,79	52,808
429,99	54,089
430,20	50,165
430,40	54,261
430,61	50,319
430,81	52,400
431,01	52,244
431,22	54,960
431,42	53,251
431,63	50,163
431,83	53,646
432,04	52,855
432,24	56,594
432,44	52,414
432,65	48,068
432,85	50,095
433,06	54,098
433,26	52,332
433,47	51,776
433,67	49,993
433,87	47,642
434,08	50,173
434,28	49,315
434,49	49,709
434,69	54,092
434,89	49,292
435,10	47,297
435,30	54,146
435,51	48,114
435,71	51,778
435,91	50,723
436,12	50,811
436,32	47,250
436,53	54,295
436,73	52,122
436,93	52,207
437,14	55,437
437,34	56,079
437,55	55,260
437,75	53,371
437,95	55,463
438,16	53,233
438,36	53,644
438,57	49,847
438,77	50,307
438,97	56,746
439,18	58,487
439,38	56,316
439,58	53,458
439,79	52,678
439,99	53,115
440,20	54,405
440,40	55,504
440,60	58,160
440,81	60,375
441,01	57,197
441,21	58,787
441,42	55,175
441,62	58,135
441,83	59,344
442,03	56,637
442,23	57,851
442,44	50,983
442,64	56,747
442,84	56,648
443,05	54,915
443,25	54,261
443,45	56,787
443,66	54,551
443,86	49,829
444,06	53,301
444,27	55,276
444,47	54,911
444,67	55,266
444,88	57,661
445,08	55,267
445,28	59,004
445,49	54,497
445,69	51,441
445,90	60,097
446,10	54,743
446,30	57,799
446,51	55,738
446,71	60,971
446,91	58,347
447,12	58,615
447,32	58,284
447,52	54,931
447,72	58,814
447,93	59,713
448,13	55,556
448,33	62,288
448,54	58,932
448,74	56,426
448,94	55,417
449,15	56,624
449,35	57,108
449,55	56,714
449,76	57,010
449,96	56,007
450,16	56,393
450,37	54,923
450,57	54,699
450,77	56,806
450,98	62,252
451,18	59,917
451,38	56,297
451,58	56,995
451,79	60,643
451,99	61,106
452,19	57,849
452,40	57,198
452,60	56,814
452,80	53,656
453,00	60,845
453,21	54,680
453,41	56,193
453,61	60,887
453,82	59,437
454,02	53,244
454,22	61,166
454,42	57,085
454,63	52,532
454,83	55,851
455,03	56,358
455,24	57,436
455,44	54,697
455,64	60,506
455,84	55,618
456,05	59,191
456,25	56,114
456,45	56,668
456,65	59,992
456,86	61,031
457,06	57,816
457,26	65,302
457,47	58,990
457,67	56,713
457,87	56,326
458,07	58,772
458,28	60,164
458,48	57,500
458,68	56,242
458,88	61,139
459,09	55,212
459,29	58,827
459,49	59,841
459,69	60,684
459,90	61,179
460,10	60,125
460,30	57,370
460,50	56,269
460,71	59,383
460,91	59,208
461,11	52,817
461,31	56,333
461,52	61,374
461,72	59,850
461,92	60,877
462,12	63,568
462,32	59,836
462,53	57,021
462,73	58,887
462,93	60,564
463,13	59,181
463,34	58,074
463,54	58,461
463,74	56,541
463,94	55,705
464,14	59,415
464,35	56,585
464,55	60,644
464,75	59,764
464,95	57,822
465,16	59,565
465,36	59,115
465,56	56,430
465,76	56,925
465,96	61,595
466,17	50,421
466,37	53,295
466,57	58,996
466,77	56,579
466,97	57,031
467,18	56,286
467,38	61,232
467,58	57,269
467,78	57,187
467,98	59,034
468,19	58,011
468,39	57,736
468,59	59,318
468,79	61,226
468,99	53,661
469,19	55,740
469,40	63,006
469,60	56,683
469,80	55,491
470,00	59,439
470,20	59,819
470,41	57,695
470,61	59,663
470,81	55,948
471,01	55,821
471,21	59,948
471,41	57,460
471,62	57,804
471,82	56,222
472,02	58,895
472,22	55,969
472,42	55,651
472,62	57,965
472,83	57,806
473,03	57,958
473,23	54,902
473,43	58,473
473,63	59,993
473,83	60,000
474,03	58,116
474,24	62,393
474,44	57,446
474,64	61,179
474,84	55,330
475,04	58,565
475,24	60,352
475,45	59,149
475,65	57,927
475,85	62,623
476,05	51,909
476,25	58,255
476,45	55,027
476,65	61,096
476,85	57,044
477,06	53,814
477,26	58,927
477,46	58,453
477,66	59,144
477,86	56,112
478,06	53,749
478,26	60,755
478,46	58,088
478,67	58,569
478,87	58,335
479,07	52,318
479,27	59,085
479,47	59,044
479,67	55,127
479,87	55,972
480,07	55,703
480,28	55,703
480,48	55,726
480,68	57,292
480,88	59,863
481,08	55,626
481,28	57,801
481,48	60,416
481,68	56,558
481,88	55,163
482,08	53,835
482,29	61,595
482,49	56,904
482,69	56,094
482,89	56,511
483,09	54,450
483,29	57,026
483,49	54,830
483,69	54,684
483,89	57,479
484,09	53,790
484,29	54,455
484,50	56,410
484,70	57,209
484,90	53,769
485,10	53,067
485,30	55,943
485,50	57,319
485,70	53,677
485,90	53,488
486,10	51,723
486,30	56,054
486,50	53,521
486,70	54,057
486,90	54,609
487,10	56,366
487,30	55,212
487,51	55,819
487,71	51,598
487,91	52,437
488,11	54,354
488,31	52,636
488,51	55,141
488,71	53,870
488,91	58,984
489,11	52,192
489,31	53,822
489,51	53,784
489,71	55,548
489,91	54,174
490,11	54,833
490,31	54,907
490,51	53,293
490,71	53,453
490,91	54,373
491,11	53,529
491,31	56,943
491,51	54,229
491,72	54,576
491,92	56,317
492,12	55,196
492,32	54,361
492,52	58,686
492,72	56,000
492,92	56,077
493,12	53,871
493,32	53,767
493,52	54,984
493,72	56,417
493,92	57,348
494,12	55,558
494,32	57,227
494,52	53,480
494,72	56,248
494,92	53,770
495,12	55,368
495,32	57,714
495,52	53,029
495,72	57,413
495,92	60,453
496,12	57,783
496,32	57,002
496,52	55,848
496,72	56,105
496,92	56,667
497,12	55,276
497,32	58,192
497,52	56,466
497,72	58,237
497,92	58,550
498,12	58,922
498,32	57,852
498,52	57,121
498,72	55,146
498,92	54,003
499,12	59,489
499,32	56,109
499,52	57,305
499,72	57,889
499,92	58,976
500,12	58,861
500,32	58,961
500,52	57,240
500,72	60,995
500,91	59,383
501,11	57,063
501,31	54,326
501,51	58,607
501,71	61,949
501,91	58,021
502,11	56,454
502,31	56,319
502,51	60,519
502,71	57,499
502,91	58,431
503,11	55,780
503,31	57,562
503,51	55,085
503,71	56,100
503,91	60,696
504,11	58,188
504,31	59,050
504,51	58,893
504,71	58,438
504,91	56,859
505,10	59,115
505,30	59,002
505,50	57,907
505,70	58,769
505,90	58,558
506,10	54,631
506,30	56,672
506,50	57,392
506,70	62,363
506,90	56,949
507,10	58,438
507,30	58,216
507,50	61,191
507,70	61,023
507,89	56,894
508,09	56,823
508,29	57,007
508,49	58,639
508,69	58,671
508,89	58,020
509,09	59,405
509,29	58,079
509,49	59,490
509,69	63,109
509,89	57,478
510,09	56,744
510,28	59,158
510,48	56,655
510,68	60,538
510,88	57,322
511,08	56,148
511,28	58,151
511,48	58,532
511,68	56,585
511,88	55,149
512,07	56,689
512,27	59,110
512,47	59,285
512,67	57,372
512,87	56,915
513,07	57,371
513,27	56,142
513,47	59,109
513,67	57,173
513,86	57,218
514,06	55,965
514,26	56,496
514,46	55,939
514,66	57,773
514,86	57,372
515,06	59,771
515,26	58,566
515,45	59,127
515,65	57,149
515,85	56,885
516,05	58,398
516,25	59,109
516,45	58,664
516,65	57,995
516,84	57,141
517,04	60,303
517,24	57,437
517,44	57,708
517,64	59,950
517,84	61,661
518,04	58,426
518,23	60,736
518,43	56,125
518,63	55,337
518,83	57,320
519,03	58,200
519,23	58,139
519,42	60,682
519,62	56,192
519,82	58,295
520,02	58,139
520,22	58,760
520,42	52,391
520,61	58,207
520,81	58,506
521,01	60,669
521,21	58,163
521,41	56,276
521,61	57,882
521,80	55,852
522,00	58,368
522,20	56,067
522,40	57,434
522,60	57,455
522,79	57,841
522,99	57,242
523,19	58,114
523,39	57,281
523,59	57,930
523,78	58,824
523,98	57,328
524,18	58,796
524,38	56,346
524,58	57,248
524,77	60,049
524,97	54,374
525,17	54,880
525,37	56,552
525,57	59,454
525,76	56,012
525,96	57,376
526,16	54,991
526,36	56,884
526,56	56,260
526,75	56,360
526,95	57,871
527,15	58,408
527,35	57,429
527,55	58,368
527,74	59,398
527,94	56,576
528,14	55,316
528,34	57,519
528,53	56,924
528,73	57,276
528,93	56,884
529,13	56,242
529,32	58,094
529,52	56,884
529,72	52,949
529,92	56,218
530,12	56,778
530,31	54,684
530,51	54,437
530,71	59,764
530,91	56,913
531,10	50,789
531,30	56,895
531,50	54,908
531,70	59,515
531,89	55,096
532,09	52,152
532,29	55,206
532,49	56,413
532,68	54,742
532,88	55,655
533,08	54,543
533,28	54,140
533,47	53,801
533,67	59,249
533,87	53,691
534,06	59,004
534,26	58,584
534,46	53,408
534,66	55,459
534,85	58,319
535,05	52,821
535,25	57,270
535,45	57,189
535,64	55,633
535,84	55,756
536,04	51,731
536,23	54,585
536,43	54,641
536,63	52,342
536,83	56,203
537,02	52,303
537,22	54,210
537,42	55,621
537,61	54,152
537,81	54,620
538,01	53,181
538,20	51,726
538,40	51,705
538,60	52,991
538,80	49,836
538,99	50,856
539,19	50,035
539,39	49,278
539,58	48,557
539,78	47,714
539,98	45,785
540,17	47,151
540,37	43,798
540,57	44,469
540,76	42,751
540,96	41,697
541,16	45,020
541,36	42,578
541,55	40,394
541,75	40,606
541,95	39,933
542,14	41,452
542,34	40,187
542,54	40,067
542,73	40,183
542,93	40,232
543,13	40,183
543,32	38,151
543,52	38,116
543,72	37,595
543,91	39,502
544,11	40,325
544,31	39,571
544,50	40,596
544,70	40,061
544,89	40,354
545,09	40,949
545,29	41,431
545,48	42,689
545,68	42,227
545,88	40,862
546,07	44,390
546,27	43,935
546,47	45,006
546,66	44,809
546,86	46,486
547,06	44,748
547,25	44,340
547,45	48,894
547,64	46,501
547,84	50,610
548,04	50,081
548,23	49,374
548,43	49,977
548,63	52,865
548,82	49,396
549,02	49,649
549,21	50,496
549,41	49,663
549,61	50,016
549,80	52,209
550,00	51,097
550,20	49,418
550,39	50,990
550,59	49,502
550,78	51,618
550,98	48,853
551,18	54,406
551,37	54,323
551,57	52,278
551,76	50,294
551,96	53,866
552,16	51,348
552,35	52,476
552,55	54,614
552,74	54,321
552,94	53,292
553,14	53,209
553,33	53,617
553,53	53,238
553,72	52,309
553,92	55,250
554,12	51,882
554,31	57,051
554,51	53,453
554,70	53,326
554,90	55,286
555,09	55,871
555,29	57,934
555,49	56,365
555,68	58,208
555,88	53,584
556,07	55,389
556,27	55,048
556,46	53,493
556,66	53,519
556,86	55,795
557,05	54,571
557,25	53,976
557,44	53,104
557,64	54,631
557,83	56,113
558,03	55,094
558,22	55,526
558,42	55,220
558,62	56,723
558,81	53,596
559,01	55,652
559,20	54,657
559,40	54,301
559,59	53,270
559,79	55,342
559,98	56,131
560,18	54,907
560,37	54,916
560,57	56,325
560,76	54,459
560,96	53,205
561,16	56,820
561,35	55,881
561,55	57,783
561,74	54,826
561,94	58,778
562,13	55,428
562,33	56,744
562,52	55,939
562,72	54,076
562,91	54,712
563,11	55,841
563,30	58,153
563,50	52,991
563,69	55,385
563,89	54,865
564,08	55,201
564,28	55,174
564,47	54,920
564,67	54,362
564,86	55,747
565,06	52,224
565,25	56,135
565,45	53,544
565,64	58,258
565,84	54,217
566,03	54,778
566,23	55,882
566,42	56,005
566,62	55,668
566,81	54,935
567,01	54,626
567,20	57,459
567,40	55,301
567,59	53,772
567,79	58,723
567,98	57,333
568,18	58,579
568,37	55,819
568,57	56,714
568,76	56,798
568,96	54,913
569,15	53,651
569,35	56,357
569,54	57,925
569,73	57,180
569,93	55,879
570,12	55,135
570,32	57,930
570,51	55,231
570,71	58,008
570,90	57,017
571,10	54,731
571,29	55,868
571,49	55,443
571,68	54,729
571,87	56,506
572,07	54,593
572,26	55,613
572,46	55,451
572,65	56,618
572,85	54,476
573,04	54,426
573,24	56,470
573,43	57,426
573,62	56,878
573,82	54,900
574,01	56,651
574,21	56,197
574,40	54,756
574,60	54,843
574,79	57,879
574,98	55,013
575,18	56,005
575,37	54,371
575,57	55,635
575,76	55,347
575,96	55,114
576,15	56,240
576,34	55,790
576,54	57,912
576,73	56,243
576,93	54,922
577,12	55,806
577,31	55,754
577,51	54,467
577,70	52,614
577,90	54,078
578,09	54,272
578,28	55,349
578,48	55,631
578,67	56,263
578,87	54,214
579,06	54,975
579,25	55,254
579,45	55,507
579,64	53,925
579,84	54,423
580,03	53,002
580,22	56,573
580,42	53,702
580,61	53,961
580,81	53,974
581,00	54,393
581,19	54,187
581,39	54,204
581,58	54,397
581,77	55,313
581,97	55,840
582,16	54,263
582,35	53,575
582,55	54,747
582,74	55,508
582,94	54,064
583,13	51,855
583,32	53,927
583,52	54,707
583,71	54,396
583,90	54,740
584,10	52,719
584,29	54,467
584,48	53,711
584,68	53,594
584,87	53,362
585,06	53,931
585,26	53,724
585,45	51,349
585,65	54,032
585,84	52,828
586,03	53,919
586,23	52,577
586,42	54,438
586,61	54,164
586,81	53,977
587,00	54,494
587,19	52,711
587,39	54,269
587,58	51,522
587,77	53,860
587,97	52,062
588,16	52,640
588,35	53,315
588,54	52,914
588,74	50,958
588,93	52,983
589,12	54,042
589,32	53,084
589,51	52,556
589,70	53,090
589,90	53,575
590,09	52,749
590,28	56,176
590,48	53,017
590,67	52,703
590,86	53,992
591,06	53,491
591,25	54,316
591,44	55,112
591,63	52,840
591,83	53,285
592,02	52,374
592,21	53,572
592,41	54,934
592,60	54,099
592,79	52,914
592,98	53,184
593,18	53,451
593,37	55,369
593,56	52,914
593,76	54,521
593,95	54,571
594,14	53,604
594,33	56,713
594,53	55,298
594,72	54,016
594,91	56,125
595,10	55,191
595,30	54,067
595,49	54,399
595,68	54,238
595,88	54,910
596,07	54,919
596,26	55,384
596,45	54,378
596,65	51,231
596,84	53,856
597,03	54,730
597,22	56,078
597,42	55,484
597,61	54,807
597,80	52,704
597,99	53,493
598,19	55,148
598,38	55,345
598,57	54,932
598,76	56,380
598,95	55,360
599,15	55,916
599,34	56,373
599,53	55,207
599,72	55,641
599,92	55,905
600,11	54,510
600,30	54,966
600,49	56,005
600,69	56,100
600,88	55,621
601,07	56,457
601,26	54,810
601,45	54,725
601,65	56,041
601,84	55,529
602,03	54,644
602,22	55,755
602,42	54,850
602,61	53,623
602,80	56,428
602,99	56,754
603,18	52,941
603,38	55,068
603,57	56,330
603,76	53,715
603,95	54,644
604,14	54,386
604,34	54,756
604,53	52,253
604,72	55,465
604,91	53,754
605,10	54,877
605,29	54,826
605,49	54,985
605,68	55,525
605,87	55,576
606,06	55,057
606,25	53,736
606,45	54,743
606,64	53,522
606,83	53,670
607,02	53,386
607,21	53,836
607,40	52,565
607,60	51,472
607,79	51,653
607,98	48,844
608,17	50,054
608,36	50,266
608,55	50,286
608,75	48,564
608,94	49,576
609,13	46,585
609,32	45,966
609,51	46,054
609,70	43,532
609,89	45,739
610,09	45,040
610,28	46,116
610,47	43,016
610,66	43,180
610,85	43,223
611,04	44,468
611,23	43,919
611,43	44,697
611,62	42,310
611,81	44,293
612,00	44,885
612,19	43,669
612,38	44,368
612,57	43,977
612,77	45,497
612,96	46,868
613,15	47,200
613,34	47,289
613,53	48,600
613,72	50,328
613,91	48,399
614,10	48,640
614,29	50,215
614,49	48,391
614,68	48,950
614,87	50,606
615,06	49,430
615,25	49,719
615,44	52,453
615,63	50,868
615,82	49,295
616,01	49,871
616,21	50,534
616,40	51,634
616,59	53,052
616,78	52,870
616,97	52,078
617,16	52,440
617,35	52,683
617,54	51,051
617,73	53,122
617,92	50,361
618,11	51,167
618,31	51,800
618,50	53,448
618,69	50,775
618,88	51,885
619,07	51,095
619,26	49,083
619,45	48,915
619,64	49,933
619,83	50,238
620,02	50,180
620,21	52,601
620,40	52,115
620,59	50,250
620,78	49,846
620,97	52,906
621,17	50,730
621,36	52,200
621,55	50,298
621,74	51,334
621,93	50,734
622,12	51,406
622,31	50,691
622,50	50,464
622,69	52,765
622,88	51,572
623,07	52,451
623,26	52,437
623,45	52,925
623,64	50,743
623,83	51,115
624,02	52,750
624,21	52,487
624,40	51,894
624,59	50,330
624,78	53,314
624,97	52,832
625,16	51,865
625,35	49,215
625,54	50,346
625,73	52,220
625,92	52,730
626,12	51,256
626,31	52,484
626,50	53,502
626,69	52,919
626,88	49,073
627,07	51,369
627,26	51,773
627,45	49,573
627,64	52,403
627,83	51,359
628,02	49,699
628,21	52,572
628,40	50,322
628,59	51,797
628,78	49,641
628,97	49,621
629,16	48,598
629,35	49,680
629,54	53,310
629,73	50,458
629,92	48,371
630,10	50,074
630,29	50,670
630,48	49,962
630,67	49,306
630,86	51,312
631,05	51,257
631,24	52,155
631,43	49,078
631,62	49,418
631,81	51,159
632,00	51,136
632,19	50,630
632,38	51,824
632,57	50,246
632,76	51,306
632,95	51,385
633,14	53,032
633,33	51,088
633,52	52,762
633,71	51,575
633,90	53,657
634,09	51,916
634,28	52,191
634,47	50,477
634,66	53,374
634,85	50,547
635,04	53,232
635,22	51,621
635,41	53,046
635,60	51,947
635,79	52,109
635,98	49,880
636,17	52,039
636,36	51,012
636,55	50,682
636,74	48,917
636,93	50,901
637,12	52,808
637,31	52,791
637,50	51,418
637,69	51,680
637,87	51,742
638,06	51,559
638,25	51,091
638,44	53,036
638,63	50,495
638,82	52,453
639,01	52,910
639,20	51,487
639,39	52,117
639,58	51,201
639,77	52,729
639,95	51,633
640,14	50,447
640,33	51,206
640,52	50,899
640,71	51,634
640,90	51,815
641,09	52,491
641,28	50,290
641,47	53,315
641,66	49,807
641,84	50,732
642,03	50,985
642,22	52,665
642,41	52,106
642,60	51,801
642,79	53,226
642,98	51,318
643,17	51,192
643,35	51,517
643,54	50,277
643,73	50,920
643,92	52,342
644,11	52,964
644,30	50,658
644,49	53,734
644,67	51,564
644,86	50,409
645,05	53,820
645,24	50,498
645,43	51,549
645,62	49,787
645,81	53,759
645,99	53,468
646,18	51,285
646,37	51,100
646,56	52,520
646,75	52,995
646,94	53,701
647,13	50,934
647,31	50,150
647,50	51,807
647,69	51,104
647,88	52,006
648,07	51,859
648,26	56,806
648,44	50,059
648,63	49,801
648,82	51,392
649,01	54,143
649,20	50,357
649,38	51,752
649,57	51,612
649,76	49,970
649,95	53,232
650,14	51,267
650,33	51,472
650,51	51,423
650,70	52,661
650,89	50,229
651,08	49,353
651,27	50,529
651,45	50,814
651,64	50,246
651,83	52,758
652,02	51,740
652,21	54,132
652,39	52,787
652,58	52,122
652,77	50,966
652,96	51,849
653,15	51,098
653,33	52,256
653,52	51,766
653,71	54,076
653,90	54,143
654,09	53,382
654,27	53,244
654,46	54,303
654,65	53,645
654,84	52,554
655,02	55,793
655,21	55,082
655,40	55,194
655,59	53,243
655,77	54,830
655,96	53,312
656,15	53,070
656,34	54,465
656,53	54,098
656,71	53,828
656,90	53,086
657,09	55,706
657,28	54,619
657,46	53,482
657,65	54,508
657,84	51,742
658,03	53,944
658,21	53,803
658,40	52,485
658,59	52,847
658,78	52,103
658,96	51,682
659,15	50,970
659,34	52,597
659,52	51,032
659,71	51,952
659,90	51,607
660,09	52,064
660,27	51,218
660,46	52,932
660,65	50,707
660,84	50,961
661,02	50,773
661,21	52,155
661,40	52,473
661,58	51,297
661,77	51,259
661,96	49,990
662,15	51,655
662,33	50,011
662,52	49,311
662,71	51,256
662,89	48,639
663,08	49,823
663,27	50,269
663,45	51,465
663,64	50,691
663,83	49,390
664,02	49,780
664,20	49,386
664,39	49,337
664,58	49,976
664,76	50,443
664,95	50,053
665,14	50,682
665,32	50,410
665,51	51,645
665,70	50,103
665,88	50,997
666,07	51,309
666,26	53,632
666,44	50,588
666,63	50,533
666,82	52,081
667,00	51,969
667,19	50,917
667,38	50,456
667,56	51,611
667,75	51,663
667,94	50,504
668,12	49,574
668,31	50,324
668,50	52,123
668,68	49,625
668,87	50,025
669,06	51,111
669,24	51,444
669,43	50,081
669,62	49,622
669,80	49,241
669,99	50,725
670,18	52,422
670,36	49,929
670,55	49,405
670,74	53,131
670,92	49,070
671,11	51,288
671,29	49,279
671,48	51,419
671,67	51,287
671,85	49,845
672,04	51,665
672,23	48,947
672,41	51,202
672,60	51,056
672,78	51,575
672,97	51,838
673,16	50,647
673,34	51,794
673,53	50,564
673,71	50,333
673,90	51,615
674,09	50,804
674,27	50,782
674,46	50,493
674,64	52,112
674,83	49,990
675,02	48,698
675,20	50,666
675,39	50,915
675,57	49,780
675,76	49,443
675,95	52,582
676,13	51,701
676,32	50,126
676,50	52,578
676,69	48,485
676,88	51,695
677,06	50,490
677,25	49,492
677,43	54,496
677,62	50,882
677,80	49,632
677,99	49,245
678,18	52,938
678,36	52,718
678,55	50,148
678,73	49,870
678,92	51,305
679,10	51,001
679,29	50,715
679,48	51,304
679,66	48,639
679,85	50,702
680,03	52,154
680,22	50,930
680,40	50,422
680,59	50,017
680,77	49,737
680,96	51,776
681,15	50,314
681,33	51,512
681,52	50,895
681,70	48,974
681,89	51,718
682,07	49,904
682,26	49,728
682,44	52,309
682,63	51,786
682,81	52,319
683,00	51,741
683,18	50,438
683,37	52,184
683,55	50,373
683,74	50,513
683,92	53,688
684,11	50,017
684,29	52,209
684,48	48,169
684,67	50,869
684,85	49,687
685,04	50,971
685,22	50,852
685,41	50,729
685,59	52,448
685,78	50,017
685,96	50,612
686,15	49,971
686,33	50,347
686,52	49,749
686,70	50,607
686,89	52,389
687,07	50,861
687,26	52,168
687,44	50,222
687,62	48,561
687,81	52,702
687,99	51,085
688,18	49,655
688,36	50,576
688,55	50,968
688,73	50,164
688,92	48,985
689,10	51,599
689,29	50,419
689,47	50,774
689,66	50,183
689,84	50,110
690,03	51,552
690,21	49,829
690,40	50,696
690,58	49,939
690,76	48,734
690,95	52,035
691,13	49,944
691,32	50,594
691,50	50,910
691,69	51,265
691,87	49,100
692,06	50,214
692,24	48,200
692,43	51,505
692,61	49,698
692,79	49,013
692,98	49,364
693,16	51,282
693,35	49,507
693,53	49,963
693,72	50,699
693,90	50,137
694,08	49,063
694,27	50,110
694,45	51,195
694,64	51,426
694,82	49,005
695,01	49,619
695,19	50,588
695,37	49,432
695,56	51,339
695,74	49,520
695,93	51,911
696,11	50,405
696,29	51,312
696,48	50,783
696,66	51,638
696,85	50,859
697,03	48,688
697,21	50,257
697,40	49,111
697,58	48,849
697,77	48,245
697,95	49,723
698,13	50,479
698,32	51,363
698,50	50,282
698,69	51,072
698,87	49,019
699,05	47,669
699,24	49,198
699,42	50,244
699,60	50,168
699,79	49,891
699,97	49,506
700,16	49,392
700,34	50,227
700,52	49,844
700,71	49,601
700,89	49,438
701,07	50,330
701,26	50,150
701,44	49,949
701,63	49,501
701,81	49,573
701,99	50,569
702,18	48,996
702,36	49,185
702,54	49,046
702,73	49,550
702,91	50,246
703,09	48,844
703,28	49,798
703,46	49,311
703,64	49,155
703,83	49,705
704,01	50,952
704,19	48,042
704,38	48,033
704,56	46,766
704,74	49,562
704,93	49,220
705,11	50,791
705,29	47,997
705,48	51,206
705,66	50,045
705,84	48,756
706,03	48,409
706,21	50,633
706,39	48,167
706,58	49,490
706,76	48,885
706,94	49,694
707,12	49,339
707,31	47,961
707,49	47,626
707,67	49,181
707,86	49,013
708,04	50,128
708,22	48,472
708,41	48,691
708,59	48,702
708,77	49,052
708,95	50,477
709,14	51,380
709,32	51,396
709,50	48,586
709,69	48,268
709,87	48,061
710,05	49,133
710,23	50,944
710,42	49,765
710,60	49,619
710,78	48,599
710,97	48,302
711,15	48,250
711,33	50,120
711,51	48,633
711,70	46,653
711,88	48,218
712,06	51,130
712,24	48,767
712,43	49,590
712,61	48,446
712,79	49,818
712,97	47,812
713,16	49,487
713,34	48,887
713,52	50,584
713,70	49,997
713,89	49,500
714,07	48,675
714,25	49,005
714,43	49,237
714,62	49,778
714,80	49,895
714,98	47,730
715,16	49,754
715,35	48,716
715,53	49,580
715,71	48,456
715,89	50,182
716,07	48,507
716,26	53,764
716,44	50,136
716,62	50,513
716,80	51,150
716,99	49,780
717,17	50,875
717,35	49,425
717,53	47,243
717,71	47,922
717,90	48,796
718,08	51,008
718,26	48,017
718,44	50,820
718,62	50,614
718,81	51,008
718,99	47,056
719,17	48,471
719,35	48,826
719,53	48,841
719,72	48,005
719,90	50,488
720,08	47,075
720,26	50,220
720,44	49,933
720,62	48,599
720,81	48,736
720,99	51,089
721,17	49,238
721,35	50,818
721,53	51,756
721,72	49,886
721,90	49,439
722,08	48,557
722,26	52,512
722,44	50,211
722,62	49,859
722,81	47,243
722,99	48,477
723,17	49,694
723,35	50,273
723,53	48,447
723,71	50,069
723,89	50,581
724,08	47,808
724,26	49,801
724,44	49,396
724,62	50,473
724,80	48,835
724,98	49,776
725,16	52,397
725,35	49,698
725,53	47,368
725,71	47,524
725,89	49,932
726,07	49,026
726,25	50,904
726,43	50,865
726,61	51,001
726,80	48,983
726,98	48,363
727,16	49,883
727,34	52,366
727,52	49,083
727,70	47,898
727,88	48,882
728,06	48,691
728,25	50,369
728,43	49,636
728,61	48,533
728,79	49,416
728,97	48,807
729,15	49,089
729,33	49,526
729,51	50,656
729,69	49,076
729,87	49,732
730,06	48,155
730,24	48,911
730,42	51,520
730,60	47,660
730,78	50,688
730,96	47,432
731,14	50,386
731,32	49,131
731,50	48,986
731,68	49,309
731,86	48,611
732,04	49,385
732,22	49,651
732,41	50,355
732,59	48,628
732,77	49,417
732,95	49,409
733,13	50,786
733,31	47,309
733,49	49,971
733,67	50,554
733,85	50,300
734,03	50,305
734,21	48,523
734,39	49,923
734,57	49,721
734,75	50,277
734,93	49,277
735,11	50,250
735,29	49,929
735,47	50,692
735,65	48,840
735,84	48,061
736,02	49,133
736,20	52,448
736,38	51,512
736,56	48,650
736,74	49,137
736,92	48,198
737,10	48,911
737,28	49,076
737,46	47,951
737,64	49,397
737,82	50,282
738,00	51,672
738,18	49,819
738,36	48,203
738,54	50,122
738,72	47,751
738,90	49,878
739,08	49,335
739,26	48,003
739,44	48,579
739,62	48,992
739,80	49,359
739,98	50,641
740,16	46,873
740,34	49,696
740,52	51,857
740,70	48,354
740,88	48,264
741,06	46,527
741,24	48,619
741,42	51,345
741,60	48,943
741,78	51,280
741,96	47,623
742,14	49,096
742,32	47,949
742,50	49,954
742,68	48,769
742,86	48,174
743,04	48,817
743,21	49,692
743,39	51,071
743,57	48,554
743,75	48,028
743,93	47,836
744,11	47,372
744,29	47,611
744,47	48,568
744,65	49,728
744,83	48,564
745,01	47,688
745,19	48,129
745,37	49,645
745,55	51,296
745,73	50,393
745,91	48,932
746,09	48,138
746,27	48,930
746,45	46,190
746,62	48,317
746,80	48,181
746,98	48,391
747,16	47,613
747,34	48,422
747,52	49,737
747,70	47,895
747,88	48,611
748,06	49,555
748,24	48,831
748,42	46,995
748,60	48,296
748,78	48,315
748,95	49,508
749,13	50,943
749,31	48,189
749,49	49,988
749,67	49,442
749,85	49,265
750,03	47,422
750,21	49,963
750,39	49,058
750,57	50,239
750,74	49,571
750,92	48,151
751,10	49,669
751,28	49,668
751,46	47,642
751,64	48,772
751,82	50,135
752,00	48,919
752,17	49,094
752,35	46,871
752,53	48,886
752,71	49,899
752,89	48,917
753,07	48,787
753,25	49,284
753,43	47,742
753,60	50,764
753,78	48,921
753,96	50,622
754,14	49,511
754,32	50,013
754,50	51,626
754,68	49,549
754,85	47,800
755,03	48,557
755,21	50,948
755,39	51,129
755,57	50,430
755,75	48,764
755,92	49,168
756,10	49,863
756,28	50,337
756,46	48,111
756,64	49,238
756,82	49,488
756,99	50,735
757,17	50,137
757,35	50,076
757,53	51,846
757,71	50,821
757,89	48,713
758,06	49,723
758,24	48,432
758,42	48,453
758,60	48,328
758,78	50,851
758,95	50,659
759,13	50,258
759,31	50,555
759,49	48,972
759,67	49,941
759,84	49,333
760,02	50,447
760,20	49,562
760,38	49,316
760,56	49,073
760,73	50,221
760,91	50,870
761,09	49,658
761,27	48,453
761,45	50,760
761,62	48,980
761,80	48,119
761,98	48,427
762,16	50,191
762,33	49,373
762,51	49,874
762,69	47,684
762,87	49,914
763,05	49,565
763,22	48,410
763,40	47,472
763,58	48,179
763,76	49,870
763,93	50,315
764,11	48,197
764,29	47,978
764,47	48,414
764,64	50,375
764,82	50,586
765,00	49,359
765,18	46,336
765,35	46,844
765,53	48,720
765,71	48,603
765,89	48,900
766,06	46,533
766,24	48,923
766,42	47,538
766,60	47,560
766,77	50,817
766,95	49,151
767,13	49,934
767,30	50,341
767,48	48,518
767,66	49,149
767,84	48,204
768,01	49,002
768,19	49,366
768,37	48,337
768,54	48,627
768,72	49,960
768,90	51,019
769,08	48,130
769,25	50,897
769,43	48,965
769,61	47,414
769,78	50,112
769,96	48,213
770,14	49,157
770,31	49,727
770,49	49,951
770,67	49,373
770,85	49,205
771,02	50,455
771,20	48,722
771,38	50,452
771,55	48,802
771,73	51,400
771,91	48,222
772,08	51,091
772,26	49,412
772,44	49,274
772,61	50,025
772,79	47,817
772,97	48,500
773,14	47,458
773,32	49,716
773,50	49,158
773,67	48,869
773,85	50,336
774,03	49,215
774,20	49,204
774,38	49,917
774,56	49,506
774,73	48,696
774,91	47,849
775,09	47,584
775,26	48,221
775,44	49,744
775,61	48,829
775,79	47,111
775,97	48,064
776,14	47,711
776,32	47,432
776,50	49,609
776,67	51,206
776,85	47,766
777,03	47,221
777,20	47,553
777,38	49,886
777,55	49,149
777,73	47,011
777,91	48,512
778,08	51,449
778,26	50,242
778,43	49,780
778,61	49,059
778,79	48,857
778,96	46,978
779,14	49,428
779,32	48,508
779,49	50,207
779,67	52,829
779,84	49,701
780,02	51,770
780,20	45,375
780,37	49,808
780,55	44,892
780,72	49,584
780,90	50,537
781,07	48,050
781,25	48,131
781,43	49,199
781,60	51,015
781,78	50,947
781,95	49,859
782,13	48,653
782,30	50,840
782,48	50,656
782,66	48,920
782,83	46,747
783,01	52,185
783,18	51,131
783,36	49,654
783,53	52,094
783,71	49,159
783,89	48,595
784,06	50,681
784,24	49,199
784,41	52,350
784,59	48,714
784,76	50,705
784,94	47,648
785,11	49,119
785,29	51,936
785,46	49,449
785,64	48,735
785,82	48,269
785,99	51,110
786,17	48,324
786,34	50,903
786,52	49,995
786,69	51,752
786,87	49,594
787,04	50,614
787,22	47,250
787,39	50,509
787,57	53,864
787,74	51,454
787,92	50,297
788,09	51,110
788,27	47,607
788,44	50,453
788,62	50,134
788,79	48,980
788,97	51,912
789,14	48,797
789,32	49,549
789,49	48,390
789,67	48,911
789,84	51,048
790,02	49,745
790,19	49,296
790,37	51,080
790,54	53,063
790,72	53,380
790,89	51,406
791,07	51,852
791,24	48,715
791,42	51,951
791,59	48,806
791,77	52,009
791,94	49,834
792,12	49,184
792,29	47,745
792,47	49,823
792,64	55,190
792,81	48,962
792,99	49,299
793,16	53,922
793,34	50,800
793,51	49,425
793,69	48,996
793,86	51,228
794,04	50,148
794,21	51,991
794,39	49,044
794,56	50,630
794,73	50,368
794,91	51,013
795,08	51,634
795,26	51,130
795,43	51,268
795,61	56,481
795,78	51,463
795,95	51,154
796,13	48,925
796,30	52,888
796,48	47,055
796,65	50,443
796,83	52,134
797,00	56,504
797,17	52,845
797,35	50,834
797,52	51,905
797,70	52,016
797,87	50,482
798,04	51,010
798,22	52,861
798,39	50,267
798,57	51,014
798,74	49,285
798,91	51,865
799,09	49,169
799,26	49,450
799,44	50,078
799,61	49,514
799,78	52,231
799,96	51,952
800,13	49,537
800,31	50,222
800,48	51,954
800,65	52,981
800,83	48,964
801,00	50,054
801,17	53,642
801,35	49,811
801,52	50,948
801,70	48,445
801,87	51,717
802,04	51,730
802,22	47,205
802,39	50,766
802,56	56,348
802,74	46,603
802,91	49,196
803,08	47,286
803,26	51,884
803,43	54,856
803,61	53,449
803,78	52,859
803,95	49,364
804,13	53,342
804,30	51,534
804,47	52,682
804,65	53,341
804,82	52,418
804,99	51,942
805,17	51,567
805,34	54,477
805,51	55,238
805,69	50,631
805,86	51,653
806,03	53,110
806,21	53,950
806,38	49,535
806,55	52,091
806,72	55,470
806,90	52,620
807,07	52,503
807,24	48,310
807,42	50,832
807,59	52,931
807,76	46,308
807,94	51,118
808,11	52,191
808,28	54,693
808,45	53,363
808,63	50,557
808,80	53,538
808,97	54,645
809,15	50,110
809,32	56,186
809,49	50,204
809,67	46,212
809,84	51,879
810,01	51,240
810,18	55,595
810,36	47,072
810,53	52,940
810,70	47,805
810,87	49,674
811,05	53,774
811,22	52,263
811,39	53,319
811,57	56,430
811,74	55,125
811,91	51,406
812,08	54,409
812,26	55,877
812,43	50,066
812,60	51,711
812,77	52,495
812,95	54,345
813,12	55,811
813,29	50,011
813,46	57,853
813,64	49,548
813,81	52,294
813,98	52,048
814,15	52,636
814,32	51,271
814,50	50,881
814,67	50,473
814,84	48,816
815,01	54,290
815,19	49,270
815,36	47,291
815,53	53,814
815,70	49,873
815,87	54,239
816,05	47,290
816,22	54,058
816,39	58,482
816,56	60,751
816,74	51,088
816,91	53,942
817,08	56,277
817,25	52,537
817,42	55,379
817,60	53,987
817,77	50,185
817,94	55,462
818,11	52,749
818,28	54,544
818,45	51,746
818,63	53,708
818,80	52,010
818,97	54,696
819,14	56,014
819,31	54,840
819,49	55,904
819,66	51,991
819,83	48,543
820,00	51,854
820,17	52,632
820,34	51,029
820,52	53,144
820,69	55,849
820,86	52,238
821,03	52,420
821,20	59,282
821,37	52,875
821,55	49,306
821,72	50,389
821,89	53,171
822,06	54,182
822,23	47,265
822,40	50,699
822,57	53,779
822,75	54,565
822,92	48,560
823,09	54,177
823,26	54,083
823,43	55,078
823,60	51,863
823,77	50,813
823,94	59,131
824,12	62,515
824,29	53,523
824,46	47,273
824,63	56,737
824,80	55,839
824,97	49,966
825,14	53,123
825,31	56,307
825,49	52,378
825,66	49,634
825,83	52,799
826,00	55,497
826,17	63,631
826,34	52,067
826,51	52,492
826,68	45,800
826,85	54,760
827,02	56,771
827,20	51,529
827,37	57,288
827,54	54,150
827,71	59,286
827,88	58,441
828,05	55,763
828,22	45,876
828,39	57,348
828,56	54,587
828,73	53,959
828,90	57,473
829,07	56,065
829,25	55,887
829,42	62,129
829,59	54,303
829,76	53,253
829,93	52,206
830,10	57,276
830,27	49,689
830,44	50,935
830,61	56,348
830,78	59,761
830,95	59,471
831,12	52,222
831,29	56,403
831,46	53,131
831,63	56,307
831,80	56,013
831,97	51,932
832,14	60,492
832,31	63,047
832,48	53,272
832,65	56,759
832,83	54,699
833,00	55,944
833,17	54,676
833,34	56,727
833,51	61,338
833,68	62,252
833,85	59,117
834,02	59,241
834,19	53,694
834,36	60,582
834,53	46,964
834,70	58,970
834,87	65,992
835,04	53,683
835,21	55,340
835,38	49,924
835,55	51,443
835,72	62,620
835,89	54,678
836,06	58,183
836,23	60,269
836,40	54,861
836,57	57,902
836,74	62,300
836,91	56,123
837,08	62,850
837,25	58,486
837,42	50,387
837,59	53,750
837,76	50,432
837,93	54,614
838,09	47,520
838,26	59,767
838,43	64,369
838,60	52,144
838,77	53,025
838,94	57,503
839,11	60,000
839,28	62,399
839,45	53,245
839,62	56,112
839,79	60,783
839,96	59,457
840,13	58,884
840,30	50,913
840,47	54,186
840,64	53,710
840,81	58,549
840,98	58,510
841,15	65,699
841,32	58,012
841,48	59,574
841,65	58,349
841,82	55,095
841,99	63,442
842,16	56,258
842,33	57,855
842,50	57,512
842,67	58,767
842,84	57,756
843,01	52,694
843,18	65,206
843,35	57,596
843,52	49,157
843,68	60,616
843,85	55,058
844,02	57,407
844,19	59,492
844,36	68,634
844,53	55,191
844,70	62,815
844,87	63,468
845,04	56,946
845,21	55,770
845,37	70,615
845,54	53,523
845,71	57,032
845,88	72,616
846,05	56,683
846,22	55,154
846,39	54,281
846,56	56,489
846,72	57,229
846,89	57,631
847,06	74,225
847,23	59,560
847,40	61,896
847,57	54,156
847,74	61,185
847,90	70,726
848,07	56,382
848,24	54,159
848,41	55,110
848,58	66,458
848,75	54,219
848,92	59,225
849,08	49,525
849,25	61,978
849,42	57,648
849,59	64,862
849,76	58,793
849,93	56,885
850,09	61,261
850,26	51,526
850,43	62,235
850,60	55,906
850,77	52,955
850,94	59,278
851,10	59,763
851,27	59,714
851,44	51,282
851,61	49,124
851,78	66,150
851,95	65,969
852,11	57,255
852,28	54,870
852,45	71,972
852,62	61,466
852,79	52,222
852,95	64,074
853,12	61,073
853,29	53,881
853,46	70,649
853,63	60,438
853,79	65,295
853,96	60,391
854,13	70,328
854,30	61,362
854,46	78,933
854,63	66,151
854,80	60,136
854,97	61,293
855,14	62,601
855,30	69,168
855,47	63,530
855,64	62,694
855,81	68,878
855,97	64,445
856,14	74,023
856,31	60,339
856,48	62,421
856,65	75,701
856,81	52,993
856,98	46,680
857,15	54,274
857,32	65,510
857,48	53,628
857,65	71,440
857,82	62,388
857,99	80,270
858,15	61,969
858,32	56,545
858,49	72,173
858,65	83,550
858,82	63,728
858,99	67,146
859,16	65,883
859,32	65,180
859,49	54,298
859,66	59,217
859,83	59,444
859,99	61,871
860,16	70,366
860,33	54,999
860,49	57,530
860,66	62,948
860,83	55,754
861,00	63,491
861,16	67,029
861,33	68,319
861,50	52,030
861,66	74,167
861,83	62,955
862,00	57,756
862,16	58,073
862,33	68,293
862,50	91,653
862,67	64,289
862,83	52,658
863,00	80,237
863,17	77,516
863,33	66,384
863,50	46,892
863,67	50,515
863,83	79,259
864,00	78,205
864,17	67,963
864,33	65,023
864,50	65,378
864,67	55,455
864,83	59,676
865,00	63,597
865,17	54,723
865,33	84,299
865,50	47,524
865,67	69,358
865,83	69,641
866,00	94,299
866,17	65,551
866,33	68,467
866,50	89,006
866,66	77,433
866,83	70,235
867,00	42,567
867,16	81,854
867,33	86,474
867,50	39,218
867,66	65,716
867,83	74,012
868,00	72,110
868,16	60,373
868,33	55,721
868,49	72,665
868,66	63,442
868,83	59,504
868,99	81,206
869,16	84,330
869,32	65,892
869,49	59,333
869,66	66,793
869,82	90,454
869,99	86,698
870,15	69,666
870,32	80,535
870,49	58,080
870,65	92,852
870,82	67,721
870,98	63,889
871,15	79,903
871,32	80,048
871,48	39,585
871,65	64,665
871,81	91,014
871,98	59,333
872,15	54,999
872,31	41,224
872,48	103,623
872,64	61,890
872,81	47,969
872,97	70,630
873,14	71,960
873,31	63,273
873,47	47,962
873,64	77,111
873,80	95,043
873,97	124,738
874,13	52,187
874,30	65,328
874,46	62,223
874,63	48,125
874,80	47,731
874,96	62,095
875,13	111,792
875,29	87,351
875,46	98,717
875,62	33,480
875,79	64,946
875,95	67,550
876,12	67,780
876,28	70,191
876,45	68,991
876,61	67,191
876,78	41,284
876,94	55,102
877,11	59,777
877,27	64,371
877,44	67,131
877,60	71,108
877,77	101,393
877,94	105,193
878,10	121,789
878,27	69,645
878,43	97,720
878,60	65,500
878,76	77,759
878,93	50,280
879,09	144,275
879,26	121,062
879,42	86,043
879,58	87,777
879,75	102,604
879,91	68,652
880,08	38,383
880,24	73,897
880,41	77,094
880,57	113,888
880,74	52,974
880,90	63,683
881,07	71,009
881,23	51,533
881,40	58,654
881,56	87,484
881,73	106,831
881,89	87,786
882,06	75,044
882,22	102,582
882,38	110,746
882,55	115,428
882,71	49,611
882,88	104,624
883,04	73,551
883,21	173,135
883,37	52,335
883,54	65,026
883,70	135,369
883,86	101,651
884,03	64,322
884,19	16,895
884,36	27,168
884,52	96,351
884,69	60,534
884,85	53,382
885,01	128,900
885,18	80,323
885,34	139,038
885,51	42,150
885,67	76,383
>>>>> Data<<<<< Espectral Procesado Extremo
