Fichero De Datos De SpectraSuite
++++++++++++++++++++++++++++++++++++
Fecha: Wed Apr 22 12:58:35 CEST 2009
Usuario: evoflor
Presente Oscuro Del Espectro: Sí
La Referencia de Presente Del Espectro De: Sí
Muestreados de los componentes de Número de espectros: 1
Espectrómetros: USB4F02353
Tiempo de integración (usec): 500000 (USB4F02353)
Promedio de Espectros Hechos un: 5 (USB4F02353)
El Alisar Del Furgón: 0 (USB4F02353)
Párrafo de de Corregir del la del del de Eléctrica del obscuridad: Sí (USB4F02353)
Estrobo/Lámpara Permitido: No (USB4F02353)
Correct for Detector Non-linearity: No (USB4F02353)
Párrafo de de Corregir del la del del de Externa del luz: No (USB4F02353)
Procesado del espectro de Número de pixeles en: 3648
>>>>> Comienza Data<<<<< Espectral Procesado Del EL
177,79	295,325
178,00	295,325
178,22	295,325
178,44	2151,044
178,66	-409,403
178,88	320,993
179,09	204,872
179,31	273,139
179,53	962,709
179,75	218,238
179,96	515,991
180,18	-463,862
180,40	689,347
180,62	648,156
180,83	-291,921
181,05	-2288,476
181,27	-181355,000
181,49	8,793
181,70	514,058
181,92	737,843
182,14	611,310
182,36	67,964
182,58	13,450
182,79	1014,531
183,01	-15,108
183,23	247,708
183,45	-289,400
183,66	41,792
183,88	881,500
184,10	-3853,727
184,32	493,453
184,53	366,120
184,75	-221,386
184,97	4,392
185,18	-132,810
185,40	-711,803
185,62	208,934
185,84	81,561
186,05	112,329
186,27	-206,973
186,49	3513,654
186,71	102,313
186,92	163,791
187,14	-432,500
187,36	206,933
187,58	162,198
187,79	-44,460
188,01	458,354
188,23	-300,440
188,45	58,593
188,66	379,710
188,88	-3297,364
189,10	-2641,550
189,31	-86,783
189,53	92,801
189,75	361,034
189,97	406,750
190,18	-5,773
190,40	1040,324
190,62	-264,118
190,83	-289,796
191,05	258,275
191,27	191,586
191,49	466,720
191,70	-633,918
191,92	-491,992
192,14	-164,258
192,35	679,191
192,57	5361,571
192,79	-99,240
193,01	302,046
193,22	125,349
193,44	-220,401
193,66	84,605
193,87	128,169
194,09	-44,565
194,31	275,331
194,53	997,587
194,74	19,605
194,96	124,879
195,18	227,765
195,39	-504,631
195,61	-229,133
195,83	-478,380
196,04	173,472
196,26	-495,251
196,48	5,044
196,70	324,761
196,91	133,311
197,13	345,203
197,35	-46,282
197,56	851,254
197,78	2938,470
198,00	374,510
198,21	696,869
198,43	-1462,529
198,65	222,394
198,86	66,385
199,08	270,016
199,30	243,229
199,51	-737,313
199,73	266,412
199,95	362,017
200,16	752,904
200,38	444,594
200,60	175,257
200,81	419,176
201,03	394,986
201,25	-2533,550
201,46	242,785
201,68	69,138
201,90	2587,614
202,11	-348,683
202,33	112,307
202,55	680,687
202,76	-243,541
202,98	459,425
203,20	105,986
203,41	-452,395
203,63	153,083
203,85	-183155,000
204,06	136,787
204,28	-152,904
204,50	198,005
204,71	372,889
204,93	147,640
205,15	77,274
205,36	-116,166
205,58	332,543
205,80	-197,236
206,01	93,595
206,23	221,401
206,45	205,805
206,66	224,263
206,88	120,244
207,10	414,216
207,31	341,530
207,53	-3,843
207,75	36,071
207,96	1648,918
208,18	-249,582
208,39	57,288
208,61	4718,714
208,83	-391,281
209,04	403,758
209,26	-176,290
209,48	324,761
209,69	346,218
209,91	1038,361
210,13	121,093
210,34	184,153
210,56	281,399
210,77	-1931,142
210,99	164,901
211,21	1720,882
211,42	-220,080
211,64	-83,579
211,86	398,453
212,07	334,906
212,29	321,374
212,50	170,431
212,72	126,365
212,94	113,884
213,15	289,292
213,37	164,832
213,58	-82,827
213,80	-5223,393
214,02	13420,882
214,23	419,626
214,45	441,164
214,67	-1048,232
214,88	-671,997
215,10	-484,076
215,31	-85,469
215,53	-144,193
215,75	340,443
215,96	2076,739
216,18	399,366
216,39	307,309
216,61	694,662
216,83	685,067
217,04	1805,112
217,26	83,476
217,47	191,164
217,69	433,988
217,91	24,343
218,12	-89555,000
218,34	193,526
218,55	657,706
218,77	41,637
218,99	107,771
219,20	-191,918
219,42	487,736
219,63	-160,245
219,85	-177,885
220,06	160,981
220,28	280,353
220,50	48,363
220,71	80,410
220,93	5985,943
221,14	-2614,550
221,36	2,572
221,58	-151,373
221,79	201,586
222,01	1260,819
222,22	778,651
222,44	-996,011
222,65	150,167
222,87	739,545
223,09	131,461
223,30	80,934
223,52	260,346
223,73	186,235
223,95	90,641
224,16	266,299
224,38	429,751
224,60	197,010
224,81	-61,589
225,03	78,805
225,24	289,246
225,46	79,992
225,67	36,046
225,89	104,260
226,10	592,334
226,32	788,440
226,54	17,298
226,75	12,907
226,97	206,200
227,18	166,912
227,40	98,355
227,61	45,058
227,83	47,143
228,04	216,228
228,26	39,824
228,47	21,323
228,69	322,678
228,91	179,201
229,12	110,728
229,34	68,775
229,55	96,361
229,77	42,196
229,98	9,960
230,20	105,530
230,41	11,023
230,63	126,656
230,84	-17,685
231,06	54,444
231,27	65,286
231,49	62,139
231,71	25,801
231,92	40,711
232,14	36,205
232,35	74,370
232,57	42,752
232,78	4,630
233,00	65,552
233,21	73,123
233,43	31,828
233,64	33,801
233,86	48,568
234,07	30,227
234,29	19,692
234,50	15,309
234,72	62,994
234,93	28,652
235,15	24,009
235,36	28,069
235,58	52,752
235,79	56,562
236,01	2,896
236,22	9,667
236,44	52,468
236,65	29,105
236,87	22,103
237,08	7,073
237,30	-14,604
237,51	23,932
237,73	-10,452
237,94	23,435
238,16	16,214
238,37	19,912
238,59	10,419
238,80	18,307
239,02	4,721
239,23	30,236
239,45	4,336
239,66	24,515
239,88	41,134
240,09	33,385
240,31	-7,418
240,52	8,383
240,74	12,056
240,95	16,791
241,17	4,641
241,38	4,967
241,60	14,661
241,81	21,675
242,03	3,013
242,24	7,207
242,46	21,006
242,67	3,651
242,89	8,922
243,10	18,180
243,32	21,737
243,53	15,902
243,75	7,753
243,96	4,198
244,18	13,721
244,39	13,978
244,60	11,801
244,82	6,183
245,03	27,595
245,25	12,871
245,46	30,769
245,68	1,876
245,89	23,608
246,11	15,415
246,32	8,649
246,54	7,862
246,75	9,568
246,97	17,048
247,18	21,327
247,39	3,317
247,61	13,256
247,82	20,498
248,04	10,469
248,25	6,060
248,47	20,249
248,68	16,622
248,90	5,616
249,11	7,841
249,33	17,857
249,54	18,389
249,75	13,436
249,97	2,629
250,18	22,626
250,40	19,420
250,61	-4,426
250,83	7,544
251,04	9,079
251,25	13,769
251,47	-0,830
251,68	9,521
251,90	13,147
252,11	10,345
252,33	9,851
252,54	11,770
252,76	8,365
252,97	5,024
253,18	0,608
253,40	6,074
253,61	3,635
253,83	7,495
254,04	10,412
254,25	4,591
254,47	5,399
254,68	9,025
254,90	6,148
255,11	7,586
255,33	6,279
255,54	7,157
255,75	8,166
255,97	4,141
256,18	3,105
256,40	10,148
256,61	11,782
256,82	-2,452
257,04	15,371
257,25	6,741
257,47	7,017
257,68	4,016
257,89	9,271
258,11	9,082
258,32	4,160
258,54	7,479
258,75	14,765
258,96	15,001
259,18	4,763
259,39	5,606
259,61	9,583
259,82	5,151
260,03	7,908
260,25	7,427
260,46	5,334
260,68	4,942
260,89	2,220
261,10	5,689
261,32	4,819
261,53	6,929
261,75	10,408
261,96	-0,686
262,17	11,942
262,39	12,583
262,60	1,526
262,81	-0,436
263,03	10,972
263,24	6,294
263,46	0,841
263,67	3,042
263,88	8,766
264,10	7,452
264,31	2,053
264,52	3,464
264,74	12,887
264,95	6,393
265,17	5,077
265,38	5,706
265,59	10,718
265,81	11,145
266,02	0,817
266,23	2,091
266,45	15,743
266,66	11,376
266,87	8,038
267,09	7,459
267,30	11,093
267,52	12,092
267,73	5,766
267,94	3,402
268,16	11,176
268,37	7,235
268,58	8,813
268,80	6,332
269,01	7,097
269,22	9,748
269,44	5,619
269,65	4,311
269,86	2,947
270,08	8,505
270,29	2,934
270,50	5,895
270,72	12,049
270,93	6,522
271,14	1,552
271,36	7,319
271,57	10,766
271,78	7,111
272,00	6,259
272,21	7,580
272,42	5,574
272,64	12,569
272,85	1,778
273,06	1,607
273,28	13,199
273,49	7,266
273,70	9,900
273,92	4,517
274,13	8,096
274,34	3,675
274,56	12,310
274,77	5,073
274,98	9,001
275,20	6,828
275,41	9,474
275,62	5,058
275,84	6,299
276,05	16,123
276,26	2,204
276,47	0,124
276,69	13,595
276,90	7,894
277,11	1,235
277,33	3,243
277,54	10,739
277,75	7,747
277,97	0,257
278,18	3,403
278,39	8,627
278,61	1,764
278,82	8,712
279,03	5,079
279,24	2,787
279,46	7,464
279,67	8,121
279,88	5,704
280,10	10,456
280,31	2,931
280,52	4,062
280,73	-1,533
280,95	5,111
281,16	9,070
281,37	3,337
281,59	11,975
281,80	14,124
282,01	5,375
282,22	5,218
282,44	2,421
282,65	13,977
282,86	9,785
283,08	6,557
283,29	5,163
283,50	4,270
283,71	7,137
283,93	5,244
284,14	7,788
284,35	2,222
284,56	6,983
284,78	3,532
284,99	4,270
285,20	9,282
285,42	4,300
285,63	4,627
285,84	1,216
286,05	6,313
286,27	5,279
286,48	3,674
286,69	3,815
286,90	4,286
287,12	0,072
287,33	3,297
287,54	2,502
287,75	8,693
287,97	6,419
288,18	4,747
288,39	2,591
288,60	4,996
288,82	2,298
289,03	3,206
289,24	5,945
289,45	8,718
289,67	3,741
289,88	3,451
290,09	6,902
290,30	6,894
290,52	4,456
290,73	3,594
290,94	-0,756
291,15	4,781
291,37	5,342
291,58	3,691
291,79	6,312
292,00	4,970
292,21	9,573
292,43	5,364
292,64	3,725
292,85	2,960
293,06	9,879
293,28	3,694
293,49	2,310
293,70	9,395
293,91	3,709
294,12	4,145
294,34	3,697
294,55	6,542
294,76	5,831
294,97	7,868
295,19	-0,443
295,40	7,267
295,61	5,711
295,82	0,580
296,03	3,176
296,25	4,709
296,46	2,084
296,67	1,474
296,88	0,063
297,09	9,742
297,31	5,804
297,52	4,683
297,73	3,842
297,94	7,324
298,15	5,902
298,37	2,820
298,58	6,898
298,79	7,659
299,00	2,861
299,21	3,090
299,43	1,836
299,64	8,421
299,85	5,229
300,06	3,172
300,27	1,290
300,49	6,160
300,70	5,993
300,91	5,111
301,12	2,324
301,33	8,193
301,54	4,828
301,76	5,529
301,97	1,389
302,18	5,635
302,39	8,343
302,60	13,895
302,82	3,205
303,03	10,323
303,24	5,634
303,45	4,556
303,66	5,675
303,87	4,744
304,09	7,738
304,30	2,710
304,51	1,621
304,72	3,315
304,93	6,013
305,14	6,280
305,36	0,598
305,57	1,129
305,78	7,851
305,99	4,078
306,20	3,549
306,41	3,771
306,62	0,809
306,84	2,963
307,05	0,159
307,26	5,883
307,47	6,568
307,68	5,892
307,89	3,871
308,11	5,786
308,32	3,932
308,53	3,389
308,74	2,745
308,95	4,129
309,16	6,294
309,37	6,947
309,59	0,707
309,80	5,802
310,01	7,200
310,22	4,132
310,43	2,038
310,64	7,126
310,85	7,166
311,06	2,386
311,28	3,554
311,49	6,621
311,70	9,321
311,91	1,695
312,12	1,291
312,33	5,940
312,54	7,982
312,75	3,657
312,97	3,475
313,18	5,556
313,39	4,394
313,60	2,147
313,81	5,635
314,02	6,539
314,23	6,875
314,44	2,036
314,65	4,919
314,87	1,768
315,08	3,712
315,29	6,671
315,50	7,454
315,71	5,769
315,92	10,185
316,13	3,613
316,34	5,131
316,55	7,417
316,77	1,098
316,98	2,299
317,19	2,695
317,40	5,666
317,61	10,675
317,82	3,463
318,03	-0,475
318,24	2,292
318,45	7,759
318,66	5,650
318,87	0,892
319,09	5,977
319,30	6,388
319,51	7,680
319,72	6,031
319,93	5,923
320,14	4,396
320,35	8,216
320,56	1,651
320,77	4,204
320,98	7,441
321,19	6,189
321,40	2,807
321,62	7,349
321,83	4,139
322,04	2,329
322,25	5,356
322,46	10,507
322,67	10,294
322,88	5,067
323,09	1,995
323,30	8,751
323,51	11,447
323,72	6,466
323,93	1,977
324,14	5,185
324,35	1,494
324,56	0,114
324,77	2,435
324,99	5,082
325,20	0,544
325,41	5,138
325,62	6,110
325,83	2,070
326,04	3,627
326,25	6,665
326,46	1,469
326,67	5,263
326,88	6,657
327,09	5,857
327,30	2,644
327,51	9,092
327,72	5,906
327,93	6,220
328,14	2,045
328,35	5,405
328,56	5,941
328,77	3,285
328,98	8,275
329,19	6,399
329,40	9,605
329,61	3,971
329,82	-0,452
330,04	5,654
330,25	3,404
330,46	7,389
330,67	0,091
330,88	5,049
331,09	2,846
331,30	4,231
331,51	5,969
331,72	6,722
331,93	6,293
332,14	3,099
332,35	5,684
332,56	4,352
332,77	7,981
332,98	0,723
333,19	2,641
333,40	5,672
333,61	5,038
333,82	4,574
334,03	8,634
334,24	8,129
334,45	4,545
334,66	6,250
334,87	3,884
335,08	2,451
335,29	5,102
335,50	1,218
335,71	2,793
335,92	7,342
336,13	7,738
336,34	1,410
336,55	7,172
336,76	7,708
336,97	5,352
337,18	4,074
337,39	5,264
337,60	6,932
337,81	8,669
338,02	4,368
338,23	3,073
338,44	5,055
338,65	6,334
338,86	6,875
339,07	2,010
339,28	6,299
339,49	6,305
339,70	3,092
339,91	4,867
340,11	9,093
340,32	2,212
340,53	-0,603
340,74	-0,040
340,95	2,910
341,16	7,345
341,37	5,284
341,58	0,872
341,79	3,310
342,00	2,728
342,21	4,262
342,42	2,408
342,63	8,134
342,84	2,420
343,05	3,539
343,26	8,338
343,47	6,960
343,68	2,919
343,89	6,127
344,10	5,726
344,31	5,322
344,52	6,282
344,73	2,675
344,94	4,674
345,14	3,681
345,35	8,277
345,56	3,578
345,77	3,999
345,98	6,544
346,19	7,249
346,40	3,309
346,61	2,996
346,82	5,365
347,03	5,363
347,24	4,641
347,45	0,798
347,66	10,971
347,87	1,555
348,08	6,015
348,28	-0,927
348,49	6,263
348,70	6,399
348,91	7,082
349,12	1,041
349,33	18,874
349,54	4,407
349,75	8,890
349,96	3,537
350,17	4,789
350,38	2,909
350,59	6,880
350,80	1,926
351,00	6,150
351,21	8,177
351,42	1,946
351,63	2,296
351,84	5,071
352,05	7,184
352,26	6,038
352,47	3,548
352,68	6,395
352,89	7,551
353,09	7,031
353,30	-1,429
353,51	3,430
353,72	8,264
353,93	9,600
354,14	0,848
354,35	2,870
354,56	4,946
354,77	3,586
354,98	0,763
355,18	6,098
355,39	13,050
355,60	5,327
355,81	5,002
356,02	6,814
356,23	4,766
356,44	3,733
356,65	6,235
356,85	12,559
357,06	8,056
357,27	8,833
357,48	0,675
357,69	7,177
357,90	7,267
358,11	2,220
358,32	6,042
358,52	7,206
358,73	5,864
358,94	3,307
359,15	7,296
359,36	8,397
359,57	5,204
359,78	4,702
359,98	4,639
360,19	1,612
360,40	4,774
360,61	5,993
360,82	2,402
361,03	10,627
361,24	9,184
361,44	5,490
361,65	6,706
361,86	3,854
362,07	3,028
362,28	4,034
362,49	-1,110
362,70	9,820
362,90	7,224
363,11	2,388
363,32	1,063
363,53	4,560
363,74	8,875
363,95	8,539
364,15	7,882
364,36	11,821
364,57	3,916
364,78	4,324
364,99	5,025
365,20	7,630
365,40	8,880
365,61	3,167
365,82	6,573
366,03	8,882
366,24	5,741
366,45	3,438
366,65	3,721
366,86	5,712
367,07	6,096
367,28	4,062
367,49	3,014
367,69	9,756
367,90	5,607
368,11	6,259
368,32	4,138
368,53	8,092
368,73	7,374
368,94	5,206
369,15	6,753
369,36	7,979
369,57	7,012
369,78	5,167
369,98	5,410
370,19	11,471
370,40	4,980
370,61	4,646
370,82	1,140
371,02	10,675
371,23	10,499
371,44	5,256
371,65	4,137
371,85	8,856
372,06	5,922
372,27	4,172
372,48	6,408
372,69	5,865
372,89	5,426
373,10	2,854
373,31	5,389
373,52	6,839
373,73	10,948
373,93	4,139
374,14	2,584
374,35	9,082
374,56	9,295
374,76	6,590
374,97	5,337
375,18	8,344
375,39	7,070
375,60	7,807
375,80	6,919
376,01	2,942
376,22	8,280
376,43	4,454
376,63	3,817
376,84	5,862
377,05	7,281
377,26	2,383
377,46	2,315
377,67	5,789
377,88	8,037
378,09	7,224
378,29	1,057
378,50	7,103
378,71	9,327
378,92	2,761
379,12	4,901
379,33	5,863
379,54	2,289
379,75	6,478
379,95	3,682
380,16	7,456
380,37	11,321
380,58	7,509
380,78	8,144
380,99	3,444
381,20	4,430
381,41	6,185
381,61	6,810
381,82	9,259
382,03	8,255
382,24	7,834
382,44	8,949
382,65	5,529
382,86	6,712
383,06	7,607
383,27	6,088
383,48	5,004
383,69	10,017
383,89	6,543
384,10	4,766
384,31	5,247
384,51	11,743
384,72	5,882
384,93	7,646
385,14	4,044
385,34	4,476
385,55	4,108
385,76	3,256
385,96	12,698
386,17	6,552
386,38	10,842
386,59	6,887
386,79	6,084
387,00	13,370
387,21	8,428
387,41	7,460
387,62	6,737
387,83	10,756
388,03	9,788
388,24	1,116
388,45	8,521
388,66	8,524
388,86	8,474
389,07	4,890
389,28	11,288
389,48	8,124
389,69	2,990
389,90	2,835
390,10	9,246
390,31	11,054
390,52	4,033
390,72	6,346
390,93	7,906
391,14	7,934
391,34	6,807
391,55	11,420
391,76	14,311
391,96	8,633
392,17	4,396
392,38	6,612
392,58	10,648
392,79	9,321
393,00	5,057
393,20	6,382
393,41	11,070
393,62	11,678
393,82	9,078
394,03	8,095
394,24	7,993
394,44	10,733
394,65	13,002
394,86	3,336
395,06	12,354
395,27	7,896
395,48	8,483
395,68	12,003
395,89	10,699
396,10	14,609
396,30	9,833
396,51	5,061
396,72	9,966
396,92	6,697
397,13	8,458
397,34	5,247
397,54	12,463
397,75	5,488
397,95	7,416
398,16	10,162
398,37	11,643
398,57	9,152
398,78	10,683
398,99	10,111
399,19	12,570
399,40	16,679
399,60	8,453
399,81	10,035
400,02	16,460
400,22	14,391
400,43	6,060
400,64	10,570
400,84	9,592
401,05	15,225
401,25	14,797
401,46	15,243
401,67	12,443
401,87	12,264
402,08	6,774
402,29	11,087
402,49	19,329
402,70	18,005
402,90	12,835
403,11	15,211
403,32	15,649
403,52	10,636
403,73	14,058
403,93	12,843
404,14	18,846
404,35	13,718
404,55	9,848
404,76	13,726
404,96	16,066
405,17	19,971
405,38	15,977
405,58	12,378
405,79	16,928
405,99	18,282
406,20	13,121
406,40	10,085
406,61	19,589
406,82	13,127
407,02	17,912
407,23	14,580
407,43	14,851
407,64	13,333
407,85	16,969
408,05	6,692
408,26	28,536
408,46	20,899
408,67	13,441
408,87	15,165
409,08	17,877
409,29	24,946
409,49	19,291
409,70	18,529
409,90	19,593
410,11	20,104
410,31	22,263
410,52	16,063
410,72	16,311
410,93	20,363
411,14	19,261
411,34	16,871
411,55	21,930
411,75	23,449
411,96	19,719
412,16	19,426
412,37	14,955
412,57	18,959
412,78	20,927
412,99	15,829
413,19	20,480
413,40	16,458
413,60	16,679
413,81	15,161
414,01	19,279
414,22	16,291
414,42	19,189
414,63	16,026
414,83	23,720
415,04	26,066
415,24	18,282
415,45	20,822
415,65	21,186
415,86	24,289
416,07	19,439
416,27	19,272
416,48	27,722
416,68	26,827
416,89	15,122
417,09	16,742
417,30	24,546
417,50	18,354
417,71	22,647
417,91	23,060
418,12	20,763
418,32	24,576
418,53	22,493
418,73	18,566
418,94	20,011
419,14	20,146
419,35	20,868
419,55	22,571
419,76	22,032
419,96	21,495
420,17	20,550
420,37	21,040
420,58	26,445
420,78	24,756
420,99	24,018
421,19	22,051
421,40	24,246
421,60	23,616
421,81	19,554
422,01	21,979
422,22	23,388
422,42	27,505
422,63	25,019
422,83	21,636
423,04	26,398
423,24	29,300
423,45	19,802
423,65	23,992
423,86	29,500
424,06	26,574
424,27	20,489
424,47	20,937
424,67	18,777
424,88	27,747
425,08	19,821
425,29	28,633
425,49	21,483
425,70	19,125
425,90	24,992
426,11	22,275
426,31	28,236
426,52	24,849
426,72	21,306
426,93	21,437
427,13	27,241
427,33	21,003
427,54	26,706
427,74	25,186
427,95	30,064
428,15	20,252
428,36	23,715
428,56	23,163
428,77	27,155
428,97	25,905
429,18	25,590
429,38	21,117
429,58	26,347
429,79	27,825
429,99	22,936
430,20	15,453
430,40	28,747
430,61	22,003
430,81	19,346
431,01	28,585
431,22	25,491
431,42	30,246
431,63	20,181
431,83	21,174
432,04	24,577
432,24	30,040
432,44	23,773
432,65	24,368
432,85	25,120
433,06	28,241
433,26	20,453
433,47	22,055
433,67	23,037
433,87	24,250
434,08	20,901
434,28	21,084
434,49	21,315
434,69	31,182
434,89	21,113
435,10	19,733
435,30	27,792
435,51	20,929
435,71	21,053
435,91	21,465
436,12	23,726
436,32	25,073
436,53	24,075
436,73	21,027
436,93	27,996
437,14	24,300
437,34	24,220
437,55	20,743
437,75	25,720
437,95	28,555
438,16	24,698
438,36	22,225
438,57	21,849
438,77	20,235
438,97	23,258
439,18	28,820
439,38	20,635
439,58	20,742
439,79	25,924
439,99	21,878
440,20	28,471
440,40	25,229
440,60	22,959
440,81	25,745
441,01	27,683
441,21	25,813
441,42	25,263
441,62	24,520
441,83	28,560
442,03	24,570
442,23	26,551
442,44	23,514
442,64	26,194
442,84	22,806
443,05	26,896
443,25	24,221
443,45	28,417
443,66	25,377
443,86	21,606
444,06	25,541
444,27	22,005
444,47	27,797
444,67	19,982
444,88	27,201
445,08	26,898
445,28	22,599
445,49	21,777
445,69	20,996
445,90	25,827
446,10	27,468
446,30	22,023
446,51	26,771
446,71	31,761
446,91	31,436
447,12	28,502
447,32	24,208
447,52	24,711
447,72	26,261
447,93	23,914
448,13	21,333
448,33	31,488
448,54	27,923
448,74	21,512
448,94	29,378
449,15	31,570
449,35	29,019
449,55	25,487
449,76	29,613
449,96	24,553
450,16	29,214
450,37	23,625
450,57	28,224
450,77	23,025
450,98	29,267
451,18	25,509
451,38	21,163
451,58	24,794
451,79	25,234
451,99	27,661
452,19	24,467
452,40	29,167
452,60	22,616
452,80	23,357
453,00	23,778
453,21	27,115
453,41	30,517
453,61	22,953
453,82	30,013
454,02	22,042
454,22	32,573
454,42	24,923
454,63	23,285
454,83	25,530
455,03	29,612
455,24	24,475
455,44	23,293
455,64	24,515
455,84	24,191
456,05	24,928
456,25	18,960
456,45	26,913
456,65	26,552
456,86	25,105
457,06	30,586
457,26	28,483
457,47	33,354
457,67	29,168
457,87	21,719
458,07	23,641
458,28	25,020
458,48	24,254
458,68	18,973
458,88	30,779
459,09	26,382
459,29	33,608
459,49	23,158
459,69	29,149
459,90	29,773
460,10	22,869
460,30	24,753
460,50	25,832
460,71	27,399
460,91	18,103
461,11	24,285
461,31	18,802
461,52	31,153
461,72	23,201
461,92	24,748
462,12	36,132
462,32	21,970
462,53	22,741
462,73	23,083
462,93	29,654
463,13	24,484
463,34	22,452
463,54	24,725
463,74	25,664
463,94	23,291
464,14	25,413
464,35	22,966
464,55	29,133
464,75	33,067
464,95	24,020
465,16	18,791
465,36	28,643
465,56	24,505
465,76	22,213
465,96	28,327
466,17	25,108
466,37	24,260
466,57	26,507
466,77	24,874
466,97	24,140
467,18	27,223
467,38	29,744
467,58	29,199
467,78	29,740
467,98	25,883
468,19	26,535
468,39	24,670
468,59	27,996
468,79	29,838
468,99	24,945
469,19	23,601
469,40	26,559
469,60	22,963
469,80	20,602
470,00	22,728
470,20	29,310
470,41	23,547
470,61	24,038
470,81	24,250
471,01	25,496
471,21	23,604
471,41	23,297
471,62	25,075
471,82	21,450
472,02	25,465
472,22	24,379
472,42	20,697
472,62	28,988
472,83	22,164
473,03	23,862
473,23	22,735
473,43	30,390
473,63	29,184
473,83	23,935
474,03	22,088
474,24	30,327
474,44	23,589
474,64	21,341
474,84	21,632
475,04	26,842
475,24	27,235
475,45	24,358
475,65	22,837
475,85	27,907
476,05	15,712
476,25	23,624
476,45	23,712
476,65	31,097
476,85	23,231
477,06	20,716
477,26	21,322
477,46	22,574
477,66	22,097
477,86	23,851
478,06	22,859
478,26	33,934
478,46	23,749
478,67	24,143
478,87	20,503
479,07	20,974
479,27	25,030
479,47	22,383
479,67	17,172
479,87	19,952
480,07	29,036
480,28	22,520
480,48	19,915
480,68	26,270
480,88	30,017
481,08	23,672
481,28	23,312
481,48	25,153
481,68	24,630
481,88	20,711
482,08	22,627
482,29	26,503
482,49	19,640
482,69	25,114
482,89	20,875
483,09	27,446
483,29	22,351
483,49	17,677
483,69	21,732
483,89	20,692
484,09	20,458
484,29	19,141
484,50	22,154
484,70	22,727
484,90	20,825
485,10	18,419
485,30	22,347
485,50	27,189
485,70	22,470
485,90	17,776
486,10	16,466
486,30	19,323
486,50	19,971
486,70	20,020
486,90	20,116
487,10	25,448
487,30	19,778
487,51	19,548
487,71	18,407
487,91	20,407
488,11	23,462
488,31	18,761
488,51	23,217
488,71	20,934
488,91	21,887
489,11	19,065
489,31	20,559
489,51	20,733
489,71	19,841
489,91	20,021
490,11	17,107
490,31	21,544
490,51	21,088
490,71	18,528
490,91	20,965
491,11	21,590
491,31	20,267
491,51	19,185
491,72	20,552
491,92	22,829
492,12	24,427
492,32	21,597
492,52	23,513
492,72	19,922
492,92	21,764
493,12	21,653
493,32	18,093
493,52	16,334
493,72	18,758
493,92	20,256
494,12	20,875
494,32	21,241
494,52	19,673
494,72	20,740
494,92	16,710
495,12	22,884
495,32	24,017
495,52	20,788
495,72	21,021
495,92	21,149
496,12	24,222
496,32	15,862
496,52	17,098
496,72	18,341
496,92	22,653
497,12	21,020
497,32	21,778
497,52	22,600
497,72	22,089
497,92	21,174
498,12	20,088
498,32	19,321
498,52	19,464
498,72	19,014
498,92	19,773
499,12	23,730
499,32	17,337
499,52	21,066
499,72	20,037
499,92	23,749
500,12	20,951
500,32	24,137
500,52	20,155
500,72	26,020
500,91	22,037
501,11	21,832
501,31	16,786
501,51	24,955
501,71	25,267
501,91	23,428
502,11	19,738
502,31	20,216
502,51	21,770
502,71	18,468
502,91	20,692
503,11	19,885
503,31	19,780
503,51	16,904
503,71	17,347
503,91	23,053
504,11	19,418
504,31	19,252
504,51	20,758
504,71	24,503
504,91	21,498
505,10	21,403
505,30	19,165
505,50	22,390
505,70	19,612
505,90	19,494
506,10	16,498
506,30	19,406
506,50	22,074
506,70	22,347
506,90	17,278
507,10	18,188
507,30	18,783
507,50	20,180
507,70	19,760
507,89	21,829
508,09	19,442
508,29	18,679
508,49	18,021
508,69	18,798
508,89	19,276
509,09	16,382
509,29	17,591
509,49	20,522
509,69	25,239
509,89	19,788
510,09	16,675
510,28	21,955
510,48	18,138
510,68	15,204
510,88	16,322
511,08	19,346
511,28	17,814
511,48	19,243
511,68	16,897
511,88	12,624
512,07	18,307
512,27	18,964
512,47	17,377
512,67	16,214
512,87	15,964
513,07	18,754
513,27	16,954
513,47	18,095
513,67	14,148
513,86	18,495
514,06	15,748
514,26	18,814
514,46	21,010
514,66	18,003
514,86	18,126
515,06	23,843
515,26	22,105
515,45	16,465
515,65	14,624
515,85	19,511
516,05	16,055
516,25	15,286
516,45	20,704
516,65	17,720
516,84	19,527
517,04	20,321
517,24	15,115
517,44	19,041
517,64	18,343
517,84	18,748
518,04	19,490
518,23	19,935
518,43	21,874
518,63	18,412
518,83	16,090
519,03	18,991
519,23	17,301
519,42	15,602
519,62	15,680
519,82	15,481
520,02	17,134
520,22	16,128
520,42	16,589
520,61	18,832
520,81	22,997
521,01	19,727
521,21	15,158
521,41	17,323
521,61	22,184
521,80	16,560
522,00	16,933
522,20	21,346
522,40	20,082
522,60	16,319
522,79	14,288
522,99	20,446
523,19	12,629
523,39	15,211
523,59	15,237
523,78	19,998
523,98	14,856
524,18	17,859
524,38	14,482
524,58	17,599
524,77	19,165
524,97	18,964
525,17	16,158
525,37	16,655
525,57	20,080
525,76	16,107
525,96	16,589
526,16	15,505
526,36	15,741
526,56	18,638
526,75	14,305
526,95	17,311
527,15	17,582
527,35	19,596
527,55	14,865
527,74	16,754
527,94	14,291
528,14	12,792
528,34	15,083
528,53	14,784
528,73	19,281
528,93	15,177
529,13	12,700
529,32	17,729
529,52	17,537
529,72	15,507
529,92	14,044
530,12	12,815
530,31	13,570
530,51	16,341
530,71	17,212
530,91	19,922
531,10	12,812
531,30	12,397
531,50	15,716
531,70	17,756
531,89	15,464
532,09	13,374
532,29	14,778
532,49	15,755
532,68	15,506
532,88	11,752
533,08	12,764
533,28	17,161
533,47	16,161
533,67	16,575
533,87	13,181
534,06	21,412
534,26	16,447
534,46	11,225
534,66	15,758
534,85	14,956
535,05	7,855
535,25	14,099
535,45	10,459
535,64	17,126
535,84	14,743
536,04	11,766
536,23	13,490
536,43	17,696
536,63	11,075
536,83	12,180
537,02	13,571
537,22	13,730
537,42	14,032
537,61	12,732
537,81	16,112
538,01	15,595
538,20	14,503
538,40	13,751
538,60	14,318
538,80	14,293
538,99	16,390
539,19	13,920
539,39	11,860
539,58	14,303
539,78	10,969
539,98	10,965
540,17	10,586
540,37	13,951
540,57	9,418
540,76	11,948
540,96	8,428
541,16	13,416
541,36	10,289
541,55	5,898
541,75	8,185
541,95	9,402
542,14	10,588
542,34	8,552
542,54	9,446
542,73	10,791
542,93	11,693
543,13	7,782
543,32	8,270
543,52	11,356
543,72	8,032
543,91	9,142
544,11	6,992
544,31	7,793
544,50	10,620
544,70	9,596
544,89	9,704
545,09	11,996
545,29	8,353
545,48	10,386
545,68	8,239
545,88	10,038
546,07	9,877
546,27	8,612
546,47	9,317
546,66	12,223
546,86	12,001
547,06	9,014
547,25	9,722
547,45	12,293
547,64	11,513
547,84	13,153
548,04	12,512
548,23	14,861
548,43	14,341
548,63	14,706
548,82	12,394
549,02	12,934
549,21	10,028
549,41	14,587
549,61	12,535
549,80	10,250
550,00	12,166
550,20	10,486
550,39	12,832
550,59	11,479
550,78	13,567
550,98	9,458
551,18	14,867
551,37	13,012
551,57	12,456
551,76	12,575
551,96	10,364
552,16	9,538
552,35	12,927
552,55	12,393
552,74	13,567
552,94	16,701
553,14	11,600
553,33	10,912
553,53	11,240
553,72	11,525
553,92	14,816
554,12	11,651
554,31	12,771
554,51	14,305
554,70	10,298
554,90	12,569
555,09	14,642
555,29	15,041
555,49	14,624
555,68	15,310
555,88	10,733
556,07	13,404
556,27	14,068
556,46	12,211
556,66	9,613
556,86	16,685
557,05	13,498
557,25	12,067
557,44	12,032
557,64	12,859
557,83	10,258
558,03	11,705
558,22	12,663
558,42	14,536
558,62	12,872
558,81	11,443
559,01	12,031
559,20	14,619
559,40	9,187
559,59	13,510
559,79	9,628
559,98	13,158
560,18	12,534
560,37	13,828
560,57	13,502
560,76	14,180
560,96	12,315
561,16	12,226
561,35	11,319
561,55	15,835
561,74	14,570
561,94	12,326
562,13	11,304
562,33	16,000
562,52	14,788
562,72	12,741
562,91	11,538
563,11	10,907
563,30	14,379
563,50	10,796
563,69	12,466
563,89	10,185
564,08	12,483
564,28	10,708
564,47	12,326
564,67	11,606
564,86	13,469
565,06	13,242
565,25	13,782
565,45	13,987
565,64	16,109
565,84	13,303
566,03	11,029
566,23	12,899
566,42	13,964
566,62	12,386
566,81	11,036
567,01	12,118
567,20	13,692
567,40	11,011
567,59	11,812
567,79	16,445
567,98	16,541
568,18	13,280
568,37	13,239
568,57	13,444
568,76	15,041
568,96	12,445
569,15	12,026
569,35	14,970
569,54	15,667
569,73	13,872
569,93	10,607
570,12	11,397
570,32	14,615
570,51	12,942
570,71	14,942
570,90	15,155
571,10	12,930
571,29	12,690
571,49	11,717
571,68	14,320
571,87	12,719
572,07	12,750
572,26	9,419
572,46	12,334
572,65	12,695
572,85	10,880
573,04	13,135
573,24	13,133
573,43	15,166
573,62	14,503
573,82	12,764
574,01	12,871
574,21	12,582
574,40	10,409
574,60	10,362
574,79	16,332
574,98	12,087
575,18	13,281
575,37	11,826
575,57	13,115
575,76	12,725
575,96	12,575
576,15	12,831
576,34	13,697
576,54	12,061
576,73	12,499
576,93	13,068
577,12	14,486
577,31	13,437
577,51	11,969
577,70	12,792
577,90	13,780
578,09	12,364
578,28	11,718
578,48	13,225
578,67	14,559
578,87	14,452
579,06	11,795
579,25	14,317
579,45	13,934
579,64	11,440
579,84	12,519
580,03	12,024
580,22	15,643
580,42	11,953
580,61	14,418
580,81	13,294
581,00	14,989
581,19	15,277
581,39	11,613
581,58	13,136
581,77	13,153
581,97	15,501
582,16	12,913
582,35	11,490
582,55	15,103
582,74	16,621
582,94	11,793
583,13	12,081
583,32	13,814
583,52	14,898
583,71	13,907
583,90	13,663
584,10	15,170
584,29	14,430
584,48	12,772
584,68	13,416
584,87	16,620
585,06	14,281
585,26	12,840
585,45	13,866
585,65	16,686
585,84	14,192
586,03	14,567
586,23	11,731
586,42	13,983
586,61	16,465
586,81	14,338
587,00	14,100
587,19	11,545
587,39	16,579
587,58	13,851
587,77	15,646
587,97	14,893
588,16	14,627
588,35	16,567
588,54	15,523
588,74	15,082
588,93	17,334
589,12	16,076
589,32	14,488
589,51	14,366
589,70	12,988
589,90	13,045
590,09	15,139
590,28	18,772
590,48	13,780
590,67	15,191
590,86	14,773
591,06	14,383
591,25	17,379
591,44	16,126
591,63	14,281
591,83	16,092
592,02	15,881
592,21	14,801
592,41	13,249
592,60	16,801
592,79	16,735
592,98	16,263
593,18	15,074
593,37	16,083
593,56	18,089
593,76	16,220
593,95	15,277
594,14	15,836
594,33	18,791
594,53	14,467
594,72	15,677
594,91	18,499
595,10	17,122
595,30	16,203
595,49	15,120
595,68	19,436
595,88	18,193
596,07	16,338
596,26	18,132
596,45	16,990
596,65	15,902
596,84	16,112
597,03	17,124
597,22	18,167
597,42	20,820
597,61	17,147
597,80	18,182
597,99	18,351
598,19	19,048
598,38	18,670
598,57	16,695
598,76	18,588
598,95	18,621
599,15	17,658
599,34	17,505
599,53	18,545
599,72	17,815
599,92	19,292
600,11	18,470
600,30	19,595
600,49	21,303
600,69	17,329
600,88	17,704
601,07	18,459
601,26	19,478
601,45	18,837
601,65	18,509
601,84	19,774
602,03	18,725
602,22	20,991
602,42	20,538
602,61	17,985
602,80	20,124
602,99	19,042
603,18	18,039
603,38	20,086
603,57	18,443
603,76	18,235
603,95	18,254
604,14	20,270
604,34	20,225
604,53	19,054
604,72	19,542
604,91	19,505
605,10	19,301
605,29	18,510
605,49	16,643
605,68	20,291
605,87	22,126
606,06	18,639
606,25	17,815
606,45	20,558
606,64	18,351
606,83	20,606
607,02	18,817
607,21	21,278
607,40	21,666
607,60	17,783
607,79	17,147
607,98	18,312
608,17	19,113
608,36	18,701
608,55	18,720
608,75	19,628
608,94	18,770
609,13	15,398
609,32	15,498
609,51	18,507
609,70	15,730
609,89	17,233
610,09	16,267
610,28	19,977
610,47	17,631
610,66	14,651
610,85	15,316
611,04	19,388
611,23	15,786
611,43	14,894
611,62	15,033
611,81	16,461
612,00	18,023
612,19	16,332
612,38	17,180
612,57	18,263
612,77	17,614
612,96	18,407
613,15	17,443
613,34	18,504
613,53	18,102
613,72	19,661
613,91	18,581
614,10	19,835
614,29	21,472
614,49	17,284
614,68	17,285
614,87	20,154
615,06	24,201
615,25	16,300
615,44	19,917
615,63	20,799
615,82	19,542
616,01	18,831
616,21	18,827
616,40	22,477
616,59	24,322
616,78	21,344
616,97	21,162
617,16	21,015
617,35	22,119
617,54	22,108
617,73	22,657
617,92	20,010
618,11	23,346
618,31	19,771
618,50	22,238
618,69	21,962
618,88	21,203
619,07	19,018
619,26	18,947
619,45	20,138
619,64	20,309
619,83	18,926
620,02	19,991
620,21	21,849
620,40	22,350
620,59	19,522
620,78	20,270
620,97	22,810
621,17	22,289
621,36	19,528
621,55	21,333
621,74	22,777
621,93	24,326
622,12	21,825
622,31	19,609
622,50	21,525
622,69	25,537
622,88	21,395
623,07	23,626
623,26	22,914
623,45	23,571
623,64	21,794
623,83	20,943
624,02	23,144
624,21	23,147
624,40	21,918
624,59	20,472
624,78	23,912
624,97	24,677
625,16	19,796
625,35	19,189
625,54	20,585
625,73	20,550
625,92	23,238
626,12	25,292
626,31	25,158
626,50	22,463
626,69	22,302
626,88	21,400
627,07	24,063
627,26	23,224
627,45	22,195
627,64	21,448
627,83	23,007
628,02	21,916
628,21	21,215
628,40	21,091
628,59	25,616
628,78	21,297
628,97	21,661
629,16	21,132
629,35	23,228
629,54	24,993
629,73	22,150
629,92	21,266
630,10	21,485
630,29	22,849
630,48	23,036
630,67	20,759
630,86	25,958
631,05	23,632
631,24	24,217
631,43	21,007
631,62	23,795
631,81	22,442
632,00	23,707
632,19	20,313
632,38	23,634
632,57	20,833
632,76	23,517
632,95	22,831
633,14	24,407
633,33	25,221
633,52	22,978
633,71	23,817
633,90	22,563
634,09	24,005
634,28	22,964
634,47	22,669
634,66	22,654
634,85	22,503
635,04	25,902
635,22	23,217
635,41	23,745
635,60	25,804
635,79	26,373
635,98	20,850
636,17	26,000
636,36	22,142
636,55	23,417
636,74	23,229
636,93	24,190
637,12	24,783
637,31	23,792
637,50	22,784
637,69	24,596
637,87	23,328
638,06	24,354
638,25	22,689
638,44	25,218
638,63	20,808
638,82	22,714
639,01	22,792
639,20	24,516
639,39	27,756
639,58	22,246
639,77	24,624
639,95	22,848
640,14	25,175
640,33	23,737
640,52	23,751
640,71	26,061
640,90	23,955
641,09	25,684
641,28	22,841
641,47	26,563
641,66	24,490
641,84	25,820
642,03	22,756
642,22	23,601
642,41	27,506
642,60	24,070
642,79	23,956
642,98	25,804
643,17	23,087
643,35	22,140
643,54	23,205
643,73	25,649
643,92	24,138
644,11	24,351
644,30	22,519
644,49	27,133
644,67	22,876
644,86	21,415
645,05	25,800
645,24	23,387
645,43	25,018
645,62	24,325
645,81	25,303
645,99	27,120
646,18	25,514
646,37	23,057
646,56	23,446
646,75	26,797
646,94	28,311
647,13	24,170
647,31	24,472
647,50	24,054
647,69	26,464
647,88	25,782
648,07	25,689
648,26	29,920
648,44	23,968
648,63	24,963
648,82	24,861
649,01	28,577
649,20	24,461
649,38	24,269
649,57	24,769
649,76	24,204
649,95	26,295
650,14	22,262
650,33	24,915
650,51	24,898
650,70	25,946
650,89	24,484
651,08	25,094
651,27	26,765
651,45	23,542
651,64	22,208
651,83	25,156
652,02	25,345
652,21	27,996
652,39	24,980
652,58	26,161
652,77	26,363
652,96	26,692
653,15	25,188
653,33	25,831
653,52	26,478
653,71	27,582
653,90	26,428
654,09	27,535
654,27	25,736
654,46	28,699
654,65	26,049
654,84	26,079
655,02	27,803
655,21	27,169
655,40	27,698
655,59	25,704
655,77	27,373
655,96	26,541
656,15	27,646
656,34	28,207
656,53	26,504
656,71	27,285
656,90	26,383
657,09	28,189
657,28	26,281
657,46	25,996
657,65	25,788
657,84	25,211
658,03	27,512
658,21	26,269
658,40	25,174
658,59	24,908
658,78	27,274
658,96	24,901
659,15	26,494
659,34	24,033
659,52	25,497
659,71	27,792
659,90	23,976
660,09	26,231
660,27	25,980
660,46	28,617
660,65	23,971
660,84	23,561
661,02	27,189
661,21	26,322
661,40	24,973
661,58	26,102
661,77	26,255
661,96	23,684
662,15	25,969
662,33	24,214
662,52	24,458
662,71	26,945
662,89	22,259
663,08	23,875
663,27	26,113
663,45	26,309
663,64	25,423
663,83	23,814
664,02	23,468
664,20	26,989
664,39	23,078
664,58	26,550
664,76	25,381
664,95	26,444
665,14	24,015
665,32	23,437
665,51	26,964
665,70	26,848
665,88	27,125
666,07	25,509
666,26	27,896
666,44	27,133
666,63	23,906
666,82	23,206
667,00	26,539
667,19	23,432
667,38	24,854
667,56	25,978
667,75	27,028
667,94	26,630
668,12	22,715
668,31	26,327
668,50	28,068
668,68	27,932
668,87	23,965
669,06	25,680
669,24	26,748
669,43	24,365
669,62	23,455
669,80	23,666
669,99	23,812
670,18	25,962
670,36	24,416
670,55	26,067
670,74	25,222
670,92	23,190
671,11	25,508
671,29	24,927
671,48	24,787
671,67	25,591
671,85	25,697
672,04	23,663
672,23	24,233
672,41	25,583
672,60	26,837
672,78	23,993
672,97	24,843
673,16	26,057
673,34	25,750
673,53	23,213
673,71	25,719
673,90	26,006
674,09	24,455
674,27	24,129
674,46	25,811
674,64	26,278
674,83	24,444
675,02	22,691
675,20	24,944
675,39	25,051
675,57	26,589
675,76	24,035
675,95	27,189
676,13	26,418
676,32	25,594
676,50	25,213
676,69	24,412
676,88	24,987
677,06	24,889
677,25	25,098
677,43	28,565
677,62	26,787
677,80	25,143
677,99	24,546
678,18	27,550
678,36	27,063
678,55	23,245
678,73	23,650
678,92	27,431
679,10	26,418
679,29	25,010
679,48	22,234
679,66	25,370
679,85	26,199
680,03	25,246
680,22	25,596
680,40	24,503
680,59	25,311
680,77	24,803
680,96	25,310
681,15	26,561
681,33	27,049
681,52	23,068
681,70	25,553
681,89	28,904
682,07	28,011
682,26	24,658
682,44	25,041
682,63	26,772
682,81	26,784
683,00	26,817
683,18	23,189
683,37	27,429
683,55	26,038
683,74	24,200
683,92	31,912
684,11	26,575
684,29	25,057
684,48	22,988
684,67	24,092
684,85	25,991
685,04	26,141
685,22	25,610
685,41	23,560
685,59	25,020
685,78	25,190
685,96	24,039
686,15	25,150
686,33	24,670
686,52	24,662
686,70	25,115
686,89	25,638
687,07	27,548
687,26	26,625
687,44	25,874
687,62	23,245
687,81	26,584
687,99	25,991
688,18	24,608
688,36	24,744
688,55	26,898
688,73	25,924
688,92	22,698
689,10	24,994
689,29	26,682
689,47	27,533
689,66	23,692
689,84	23,680
690,03	28,694
690,21	24,041
690,40	24,268
690,58	24,054
690,76	23,263
690,95	25,261
691,13	23,715
691,32	26,454
691,50	26,868
691,69	26,514
691,87	24,664
692,06	25,089
692,24	24,721
692,43	24,556
692,61	22,361
692,79	23,545
692,98	23,268
693,16	27,624
693,35	23,702
693,53	26,298
693,72	25,965
693,90	26,351
694,08	24,231
694,27	24,485
694,45	28,620
694,64	29,039
694,82	23,152
695,01	23,669
695,19	23,218
695,37	24,267
695,56	23,467
695,74	26,167
695,93	26,904
696,11	24,074
696,29	25,251
696,48	26,355
696,66	24,736
696,85	24,745
697,03	23,270
697,21	27,251
697,40	25,893
697,58	26,056
697,77	25,346
697,95	25,472
698,13	25,896
698,32	25,994
698,50	24,132
698,69	23,007
698,87	26,603
699,05	27,174
699,24	22,272
699,42	24,911
699,60	23,578
699,79	23,710
699,97	23,372
700,16	22,962
700,34	28,212
700,52	24,277
700,71	25,609
700,89	23,727
701,07	24,217
701,26	27,331
701,44	24,744
701,63	22,588
701,81	27,209
701,99	26,845
702,18	22,371
702,36	23,342
702,54	24,980
702,73	25,000
702,91	24,524
703,09	23,778
703,28	23,534
703,46	26,377
703,64	25,180
703,83	25,577
704,01	26,995
704,19	24,199
704,38	23,950
704,56	23,879
704,74	27,557
704,93	26,036
705,11	24,283
705,29	24,895
705,48	32,401
705,66	25,622
705,84	25,275
706,03	21,970
706,21	25,537
706,39	24,936
706,58	23,478
706,76	23,488
706,94	26,095
707,12	25,773
707,31	23,113
707,49	24,362
707,67	24,729
707,86	27,933
708,04	23,981
708,22	21,898
708,41	25,647
708,59	26,038
708,77	22,199
708,95	25,008
709,14	29,714
709,32	26,566
709,50	23,446
709,69	23,099
709,87	24,844
710,05	25,021
710,23	24,527
710,42	22,944
710,60	25,246
710,78	27,995
710,97	24,594
711,15	24,805
711,33	26,483
711,51	25,140
711,70	23,755
711,88	21,904
712,06	26,231
712,24	25,581
712,43	23,696
712,61	23,599
712,79	25,757
712,97	23,828
713,16	24,533
713,34	24,125
713,52	26,302
713,70	27,021
713,89	24,773
714,07	25,882
714,25	25,804
714,43	27,308
714,62	23,754
714,80	24,580
714,98	23,245
715,16	24,702
715,35	21,813
715,53	25,123
715,71	28,086
715,89	27,142
716,07	25,387
716,26	29,849
716,44	26,055
716,62	25,369
716,80	25,382
716,99	23,919
717,17	28,646
717,35	25,662
717,53	23,334
717,71	22,985
717,90	25,736
718,08	23,798
718,26	20,906
718,44	26,342
718,62	26,450
718,81	25,989
718,99	22,664
719,17	23,757
719,35	26,560
719,53	23,887
719,72	23,928
719,90	25,554
720,08	24,961
720,26	27,590
720,44	22,878
720,62	24,447
720,81	28,432
720,99	27,242
721,17	23,017
721,35	26,573
721,53	27,106
721,72	28,395
721,90	26,002
722,08	24,168
722,26	26,953
722,44	25,895
722,62	24,640
722,81	21,930
722,99	23,901
723,17	25,088
723,35	27,189
723,53	24,307
723,71	26,576
723,89	28,448
724,08	21,284
724,26	23,211
724,44	26,170
724,62	25,997
724,80	23,745
724,98	24,448
725,16	29,392
725,35	24,827
725,53	24,092
725,71	24,896
725,89	26,214
726,07	27,964
726,25	27,998
726,43	24,068
726,61	26,475
726,80	28,233
726,98	25,325
727,16	26,299
727,34	27,170
727,52	26,789
727,70	25,008
727,88	22,530
728,06	22,856
728,25	24,410
728,43	23,101
728,61	24,261
728,79	24,670
728,97	25,378
729,15	24,482
729,33	24,742
729,51	25,338
729,69	26,300
729,87	24,002
730,06	24,725
730,24	23,186
730,42	27,707
730,60	20,946
730,78	25,489
730,96	24,438
731,14	26,212
731,32	26,100
731,50	24,770
731,68	23,162
731,86	26,320
732,04	26,298
732,22	24,345
732,41	30,961
732,59	26,553
732,77	26,734
732,95	25,311
733,13	28,099
733,31	27,491
733,49	22,417
733,67	23,149
733,85	27,481
734,03	25,422
734,21	24,560
734,39	26,174
734,57	28,630
734,75	28,189
734,93	23,278
735,11	25,667
735,29	22,509
735,47	27,706
735,65	24,938
735,84	25,172
736,02	24,954
736,20	30,796
736,38	24,671
736,56	23,506
736,74	25,610
736,92	24,926
737,10	24,541
737,28	26,588
737,46	25,573
737,64	25,528
737,82	23,863
738,00	25,056
738,18	26,114
738,36	26,571
738,54	24,138
738,72	23,048
738,90	25,535
739,08	28,860
739,26	21,985
739,44	25,393
739,62	28,079
739,80	27,421
739,98	24,992
740,16	23,230
740,34	25,752
740,52	28,620
740,70	26,131
740,88	23,732
741,06	25,709
741,24	26,446
741,42	25,280
741,60	25,216
741,78	27,633
741,96	27,944
742,14	24,404
742,32	22,032
742,50	25,963
742,68	26,381
742,86	23,241
743,04	22,959
743,21	27,563
743,39	28,215
743,57	25,654
743,75	23,108
743,93	24,615
744,11	22,681
744,29	25,821
744,47	22,944
744,65	24,807
744,83	25,377
745,01	23,318
745,19	26,304
745,37	28,937
745,55	25,514
745,73	25,259
745,91	22,400
746,09	26,271
746,27	24,334
746,45	23,280
746,62	25,311
746,80	23,730
746,98	25,617
747,16	23,064
747,34	23,947
747,52	25,772
747,70	27,050
747,88	26,559
748,06	23,546
748,24	24,679
748,42	25,603
748,60	25,259
748,78	22,494
748,95	28,161
749,13	28,289
749,31	24,308
749,49	23,737
749,67	26,355
749,85	28,325
750,03	25,400
750,21	24,484
750,39	26,587
750,57	26,784
750,74	24,852
750,92	23,573
751,10	28,016
751,28	24,146
751,46	24,605
751,64	25,021
751,82	26,034
752,00	26,311
752,17	25,880
752,35	23,670
752,53	26,395
752,71	26,185
752,89	24,445
753,07	23,444
753,25	26,863
753,43	24,729
753,60	27,181
753,78	23,810
753,96	28,358
754,14	27,523
754,32	25,769
754,50	27,390
754,68	26,398
754,85	25,198
755,03	25,705
755,21	24,293
755,39	29,171
755,57	25,827
755,75	25,028
755,92	24,610
756,10	25,540
756,28	27,337
756,46	23,796
756,64	24,805
756,82	27,452
756,99	26,608
757,17	23,578
757,35	22,957
757,53	28,762
757,71	28,622
757,89	24,648
758,06	24,699
758,24	28,162
758,42	27,095
758,60	25,364
758,78	24,238
758,95	28,580
759,13	28,120
759,31	25,102
759,49	24,472
759,67	25,961
759,84	25,764
760,02	26,521
760,20	25,250
760,38	26,175
760,56	25,708
760,73	25,496
760,91	24,819
761,09	27,811
761,27	24,262
761,45	25,341
761,62	24,073
761,80	25,891
761,98	25,254
762,16	25,584
762,33	24,462
762,51	27,591
762,69	25,852
762,87	26,603
763,05	24,455
763,22	25,243
763,40	25,170
763,58	25,241
763,76	24,643
763,93	27,394
764,11	29,301
764,29	23,848
764,47	24,251
764,64	27,111
764,82	30,137
765,00	25,149
765,18	21,628
765,35	26,184
765,53	25,153
765,71	25,749
765,89	23,322
766,06	25,123
766,24	28,276
766,42	25,184
766,60	24,759
766,77	25,795
766,95	25,334
767,13	25,192
767,30	26,172
767,48	24,943
767,66	24,595
767,84	23,735
768,01	24,549
768,19	27,853
768,37	26,719
768,54	24,609
768,72	25,646
768,90	24,351
769,08	26,661
769,25	26,673
769,43	25,596
769,61	24,010
769,78	26,399
769,96	25,381
770,14	27,938
770,31	26,698
770,49	27,938
770,67	26,523
770,85	23,122
771,02	27,865
771,20	23,815
771,38	27,784
771,55	25,690
771,73	23,108
771,91	26,983
772,08	28,435
772,26	26,080
772,44	25,769
772,61	26,477
772,79	24,175
772,97	23,533
773,14	20,609
773,32	28,408
773,50	24,767
773,67	24,550
773,85	27,380
774,03	28,702
774,20	24,996
774,38	23,266
774,56	24,725
774,73	24,131
774,91	23,145
775,09	25,259
775,26	28,759
775,44	28,230
775,61	26,927
775,79	24,897
775,97	27,928
776,14	26,784
776,32	26,263
776,50	26,254
776,67	26,695
776,85	27,988
777,03	22,780
777,20	24,909
777,38	31,015
777,55	28,731
777,73	21,748
777,91	25,172
778,08	26,652
778,26	24,848
778,43	27,301
778,61	21,498
778,79	25,887
778,96	25,916
779,14	23,518
779,32	26,944
779,49	26,774
779,67	28,181
779,84	25,331
780,02	27,317
780,20	22,659
780,37	27,434
780,55	19,803
780,72	25,639
780,90	27,926
781,07	25,931
781,25	25,248
781,43	26,002
781,60	25,983
781,78	24,884
781,95	24,627
782,13	27,316
782,30	27,219
782,48	26,821
782,66	24,176
782,83	23,484
783,01	32,851
783,18	27,775
783,36	26,080
783,53	28,008
783,71	25,290
783,89	23,259
784,06	26,161
784,24	24,849
784,41	28,266
784,59	25,586
784,76	26,797
784,94	25,940
785,11	26,996
785,29	24,111
785,46	25,661
785,64	23,546
785,82	27,750
785,99	30,762
786,17	27,430
786,34	25,066
786,52	29,444
786,69	28,561
786,87	25,558
787,04	24,393
787,22	22,551
787,39	27,383
787,57	27,883
787,74	26,161
787,92	29,757
788,09	27,089
788,27	23,703
788,44	24,924
788,62	30,017
788,79	26,439
788,97	28,974
789,14	27,574
789,32	26,802
789,49	28,536
789,67	26,419
789,84	27,162
790,02	29,406
790,19	24,507
790,37	26,010
790,54	26,906
790,72	33,238
790,89	29,978
791,07	28,661
791,24	21,910
791,42	28,839
791,59	30,265
791,77	25,424
791,94	23,663
792,12	23,499
792,29	28,781
792,47	26,731
792,64	31,206
792,81	28,542
792,99	25,424
793,16	26,375
793,34	28,291
793,51	28,401
793,69	28,235
793,86	25,810
794,04	26,390
794,21	31,237
794,39	25,661
794,56	25,150
794,73	24,853
794,91	30,105
795,08	27,892
795,26	26,216
795,43	25,115
795,61	32,220
795,78	25,180
795,95	27,523
796,13	26,687
796,30	28,003
796,48	26,074
796,65	25,634
796,83	28,676
797,00	32,107
797,17	26,051
797,35	25,337
797,52	28,802
797,70	29,693
797,87	28,406
798,04	24,959
798,22	26,235
798,39	28,406
798,57	28,654
798,74	28,017
798,91	24,183
799,09	25,791
799,26	29,729
799,44	29,420
799,61	22,511
799,78	28,516
799,96	31,083
800,13	22,129
800,31	23,377
800,48	33,074
800,65	31,773
800,83	27,834
801,00	26,627
801,17	27,665
801,35	31,069
801,52	26,329
801,70	25,911
801,87	28,934
802,04	29,747
802,22	26,124
802,39	24,986
802,56	36,657
802,74	29,522
802,91	24,241
803,08	23,084
803,26	32,374
803,43	31,477
803,61	25,413
803,78	26,710
803,95	27,315
804,13	31,618
804,30	25,320
804,47	28,649
804,65	30,527
804,82	28,638
804,99	26,375
805,17	26,386
805,34	35,501
805,51	31,678
805,69	24,601
805,86	27,166
806,03	34,721
806,21	30,495
806,38	28,762
806,55	27,530
806,72	33,103
806,90	35,918
807,07	28,104
807,24	23,087
807,42	27,969
807,59	30,560
807,76	22,258
807,94	27,410
808,11	35,413
808,28	33,782
808,45	29,817
808,63	31,801
808,80	33,529
808,97	30,172
809,15	25,715
809,32	29,455
809,49	29,659
809,67	28,647
809,84	27,492
810,01	32,806
810,18	41,978
810,36	34,108
810,53	27,948
810,70	26,664
810,87	32,445
811,05	30,820
811,22	28,738
811,39	26,771
811,57	36,025
811,74	33,607
811,91	24,368
812,08	30,045
812,26	29,040
812,43	26,295
812,60	29,244
812,77	25,852
812,95	30,992
813,12	34,244
813,29	25,977
813,46	28,318
813,64	29,716
813,81	32,908
813,98	27,972
814,15	28,869
814,32	36,256
814,50	35,404
814,67	29,620
814,84	28,614
815,01	33,588
815,19	21,696
815,36	21,355
815,53	26,168
815,70	29,705
815,87	23,739
816,05	24,483
816,22	31,921
816,39	34,586
816,56	34,885
816,74	29,563
816,91	23,773
817,08	37,252
817,25	31,685
817,42	28,757
817,60	27,890
817,77	31,054
817,94	33,004
818,11	26,401
818,28	28,988
818,45	32,370
818,63	33,199
818,80	27,605
818,97	26,632
819,14	37,935
819,31	38,514
819,49	33,893
819,66	26,719
819,83	27,787
820,00	33,256
820,17	24,872
820,34	32,086
820,52	38,205
820,69	36,908
820,86	23,433
821,03	30,943
821,20	34,478
821,37	37,450
821,55	22,958
821,72	28,102
821,89	29,071
822,06	39,037
822,23	25,774
822,40	27,651
822,57	34,945
822,75	35,696
822,92	23,841
823,09	27,745
823,26	35,095
823,43	39,295
823,60	29,051
823,77	35,308
823,94	41,644
824,12	37,502
824,29	26,474
824,46	26,609
824,63	42,754
824,80	38,940
824,97	29,463
825,14	28,632
825,31	36,902
825,49	27,628
825,66	31,760
825,83	28,556
826,00	34,133
826,17	47,523
826,34	34,696
826,51	26,103
826,68	30,319
826,85	37,002
827,02	30,081
827,20	24,305
827,37	36,565
827,54	36,067
827,71	26,245
827,88	32,925
828,05	35,420
828,22	32,680
828,39	36,876
828,56	34,366
828,73	34,694
828,90	33,948
829,07	26,896
829,25	35,040
829,42	32,680
829,59	27,723
829,76	30,660
829,93	21,703
830,10	32,620
830,27	30,623
830,44	29,818
830,61	28,290
830,78	28,096
830,95	37,378
831,12	26,670
831,29	24,568
831,46	25,742
831,63	32,414
831,80	29,458
831,97	30,211
832,14	39,109
832,31	52,037
832,48	28,865
832,65	37,216
832,83	36,811
833,00	34,779
833,17	24,766
833,34	32,639
833,51	37,808
833,68	42,334
833,85	34,602
834,02	24,869
834,19	38,032
834,36	32,995
834,53	29,127
834,70	33,794
834,87	53,609
835,04	32,532
835,21	30,325
835,38	24,024
835,55	34,545
835,72	49,631
835,89	32,099
836,06	27,619
836,23	45,266
836,40	28,362
836,57	23,311
836,74	42,410
836,91	36,925
837,08	43,234
837,25	26,327
837,42	20,490
837,59	31,622
837,76	33,241
837,93	26,756
838,09	26,043
838,26	38,546
838,43	44,949
838,60	35,837
838,77	30,287
838,94	42,521
839,11	23,973
839,28	33,348
839,45	30,582
839,62	34,390
839,79	34,420
839,96	29,922
840,13	38,527
840,30	31,330
840,47	26,036
840,64	33,072
840,81	41,477
840,98	32,607
841,15	42,745
841,32	24,119
841,48	48,761
841,65	38,446
841,82	36,958
841,99	32,338
842,16	30,459
842,33	34,490
842,50	45,686
842,67	30,704
842,84	28,889
843,01	42,803
843,18	35,886
843,35	25,641
843,52	32,522
843,68	48,208
843,85	40,786
844,02	34,450
844,19	29,295
844,36	42,729
844,53	47,286
844,70	33,240
844,87	44,094
845,04	47,907
845,21	30,616
845,37	33,929
845,54	35,580
845,71	42,355
845,88	59,911
846,05	25,452
846,22	23,212
846,39	45,185
846,56	48,463
846,72	23,385
846,89	35,102
847,06	49,885
847,23	52,297
847,40	27,594
847,57	26,246
847,74	38,662
847,90	59,913
848,07	34,944
848,24	36,597
848,41	43,390
848,58	43,386
848,75	45,188
848,92	27,254
849,08	39,121
849,25	38,329
849,42	28,880
849,59	29,047
849,76	36,834
849,93	49,320
850,09	30,694
850,26	28,556
850,43	54,795
850,60	37,417
850,77	31,401
850,94	35,203
851,10	42,347
851,27	37,266
851,44	23,783
851,61	33,723
851,78	57,967
851,95	48,486
852,11	33,736
852,28	34,984
852,45	55,349
852,62	51,046
852,79	40,434
852,95	33,160
853,12	47,116
853,29	26,695
853,46	28,803
853,63	34,716
853,79	42,348
853,96	36,827
854,13	41,776
854,30	35,510
854,46	65,998
854,63	48,734
854,80	30,481
854,97	20,683
855,14	54,160
855,30	41,947
855,47	28,782
855,64	40,094
855,81	50,169
855,97	57,708
856,14	53,136
856,31	24,913
856,48	54,363
856,65	59,257
856,81	36,514
856,98	26,883
857,15	25,357
857,32	57,229
857,48	20,173
857,65	38,035
857,82	52,451
857,99	55,787
858,15	47,461
858,32	49,757
858,49	38,610
858,65	74,213
858,82	44,609
858,99	30,005
859,16	64,115
859,32	61,564
859,49	42,620
859,66	45,356
859,83	46,535
859,99	34,188
860,16	42,713
860,33	26,703
860,49	53,637
860,66	60,799
860,83	45,467
861,00	31,459
861,16	63,770
861,33	37,423
861,50	34,389
861,66	35,417
861,83	59,653
862,00	37,244
862,16	33,795
862,33	38,905
862,50	94,161
862,67	58,556
862,83	25,373
863,00	44,087
863,17	70,222
863,33	45,981
863,50	8,279
863,67	34,827
863,83	53,004
864,00	59,554
864,17	34,800
864,33	35,616
864,50	54,519
864,67	42,589
864,83	22,398
865,00	36,037
865,17	36,894
865,33	75,798
865,50	24,483
865,67	13,482
865,83	64,685
866,00	81,700
866,17	57,760
866,33	60,674
866,50	67,035
866,66	58,903
866,83	39,935
867,00	60,664
867,16	69,166
867,33	90,596
867,50	11,762
867,66	35,198
867,83	74,808
868,00	69,033
868,16	45,273
868,33	36,297
868,49	53,594
868,66	68,562
868,83	58,506
868,99	39,080
869,16	83,706
869,32	83,428
869,49	59,932
869,66	15,915
869,82	94,517
869,99	69,920
870,15	20,079
870,32	72,094
870,49	94,696
870,65	102,042
870,82	60,433
870,98	40,294
871,15	128,187
871,32	66,792
871,48	8,605
871,65	32,046
871,81	54,937
871,98	34,697
872,15	26,728
872,31	33,118
872,48	110,896
872,64	73,382
872,81	31,595
872,97	44,500
873,14	93,644
873,31	71,922
873,47	61,179
873,64	63,344
873,80	107,247
873,97	118,101
874,13	22,022
874,30	66,969
874,46	90,103
874,63	64,059
874,80	41,865
874,96	44,106
875,13	108,765
875,29	70,297
875,46	93,089
875,62	33,404
875,79	114,898
875,95	67,478
876,12	51,334
876,28	-6,301
876,45	104,054
876,61	50,022
876,78	37,110
876,94	45,364
877,11	90,932
877,27	93,728
877,44	83,102
877,60	48,024
877,77	133,933
877,94	112,019
878,10	28,942
878,27	69,031
878,43	127,276
878,60	45,183
878,76	54,162
878,93	35,654
879,09	140,032
879,26	109,862
879,42	87,938
879,58	59,048
879,75	148,924
879,91	196,805
880,08	-86,412
880,24	45,077
880,41	51,403
880,57	104,630
880,74	26,922
880,90	72,138
881,07	52,435
881,23	158,616
881,40	47,265
881,56	89,599
881,73	118,681
881,89	144,399
882,06	-6,210
882,22	131,981
882,38	183,202
882,55	203,630
882,71	43,472
882,88	51,438
883,04	243,208
883,21	160,641
883,37	72,010
883,54	45,840
883,70	273,297
883,86	107,994
884,03	63,430
884,19	25,010
884,36	184,684
884,52	325,322
884,69	49,707
884,85	71,379
885,01	239,539
885,18	139,082
885,34	11,511
885,51	1,177
885,67	89,712
>>>>> Data<<<<< Espectral Procesado Extremo
