Fichero De Datos De SpectraSuite
++++++++++++++++++++++++++++++++++++
Fecha: Wed Apr 22 13:01:55 CEST 2009
Usuario: evoflor
Presente Oscuro Del Espectro: Sí
La Referencia de Presente Del Espectro De: Sí
Muestreados de los componentes de Número de espectros: 1
Espectrómetros: USB4F02353
Tiempo de integración (usec): 500000 (USB4F02353)
Promedio de Espectros Hechos un: 5 (USB4F02353)
El Alisar Del Furgón: 0 (USB4F02353)
Párrafo de de Corregir del la del del de Eléctrica del obscuridad: Sí (USB4F02353)
Estrobo/Lámpara Permitido: No (USB4F02353)
Correct for Detector Non-linearity: No (USB4F02353)
Párrafo de de Corregir del la del del de Externa del luz: No (USB4F02353)
Procesado del espectro de Número de pixeles en: 3648
>>>>> Comienza Data<<<<< Espectral Procesado Del EL
177,79	413,999
178,00	413,999
178,22	413,999
178,44	2343,352
178,66	-477,308
178,88	246,075
179,09	72,532
179,31	346,009
179,53	841,656
179,75	27,274
179,96	1715,129
180,18	-307,554
180,40	559,092
180,62	520,570
180,83	-412,583
181,05	-1855,549
181,27	-192655,000
181,49	-139,033
181,70	592,135
181,92	653,579
182,14	509,804
182,36	23,987
182,58	1007,450
182,79	1731,942
183,01	-49,617
183,23	203,049
183,45	-58,323
183,66	111,261
183,88	937,382
184,10	-3846,455
184,32	300,879
184,53	404,559
184,75	-267,361
184,97	9,543
185,18	-265,705
185,40	-601,707
185,62	150,668
185,84	21,736
186,05	196,113
186,27	-229,784
186,49	5229,038
186,71	-7,067
186,92	130,659
187,14	-326,880
187,36	149,387
187,58	112,679
187,79	-143,701
188,01	378,447
188,23	-291,634
188,45	-72,436
188,66	265,424
188,88	-2897,364
189,10	-2934,550
189,31	61,340
189,53	-39,316
189,75	392,852
189,97	349,827
190,18	15,687
190,40	873,853
190,62	-27,343
190,83	-490,379
191,05	250,485
191,27	226,443
191,49	274,146
191,70	-493,534
191,92	-999,619
192,14	-71,186
192,35	663,806
192,57	6378,714
192,79	-38,426
193,01	141,354
193,22	155,074
193,44	-136,783
193,66	112,623
193,87	-38,426
194,09	-117,579
194,31	289,769
194,53	1145,839
194,74	90,089
194,96	36,899
195,18	169,643
195,39	-532,071
195,61	-114,821
195,83	-379,685
196,04	152,833
196,26	-90,729
196,48	21,253
196,70	531,521
196,91	190,292
197,13	57,101
197,35	74,460
197,56	766,424
197,78	2579,515
198,00	434,650
198,21	406,578
198,43	-1690,436
198,65	252,471
198,86	246,241
199,08	295,262
199,30	393,634
199,51	-557,182
199,73	237,596
199,95	298,651
200,16	782,519
200,38	140,835
200,60	11,633
200,81	364,358
201,03	296,073
201,25	-1683,550
201,46	198,493
201,68	6,838
201,90	4173,977
202,11	-810,897
202,33	142,289
202,55	731,937
202,76	-156,585
202,98	467,439
203,20	-324,784
203,41	-507,132
203,63	243,040
203,85	-134155,000
204,06	77,390
204,28	-379,651
204,50	157,224
204,71	364,231
204,93	-78,760
205,15	-249,232
205,36	-228,977
205,58	231,583
205,80	-267,361
206,01	93,256
206,23	170,601
206,45	329,679
206,66	238,019
206,88	24,109
207,10	106,489
207,31	352,921
207,53	69,586
207,75	53,894
207,96	1061,604
208,18	-253,507
208,39	107,403
208,61	4733,000
208,83	-503,679
209,04	148,512
209,26	-332,051
209,48	307,863
209,69	245,411
209,91	1040,051
210,13	106,119
210,34	117,809
210,56	240,252
210,77	-2027,205
210,99	116,241
211,21	4767,941
211,42	-319,350
211,64	-38,701
211,86	198,944
212,07	232,883
212,29	229,187
212,50	186,263
212,72	194,058
212,94	126,931
213,15	262,477
213,37	147,004
213,58	121,608
213,80	255,179
214,02	11332,647
214,23	366,341
214,45	560,836
214,67	-1197,012
214,88	-495,487
215,10	-481,787
215,31	-155,120
215,53	-6,011
215,75	358,530
215,96	1660,590
216,18	292,324
216,39	236,655
216,61	613,221
216,83	221,228
217,04	1244,438
217,26	137,992
217,47	236,204
217,69	411,518
217,91	18,415
218,12	-28855,000
218,34	138,366
218,55	682,905
218,77	104,839
218,99	129,915
219,20	-180,555
219,42	360,907
219,63	-109,499
219,85	-126,151
220,06	-134,788
220,28	363,954
220,50	69,475
220,71	88,386
220,93	3991,604
221,14	-3366,550
221,36	-51,730
221,58	-57,373
221,79	194,080
222,01	939,267
222,22	1089,836
222,44	-201,629
222,65	101,139
222,87	749,336
223,09	161,640
223,30	69,639
223,52	165,127
223,73	217,442
223,95	-17,669
224,16	241,351
224,38	300,841
224,60	133,013
224,81	52,332
225,03	128,915
225,24	341,369
225,46	43,447
225,67	43,433
225,89	68,397
226,10	607,395
226,32	1332,440
226,54	-42,637
226,75	52,701
226,97	178,509
227,18	196,081
227,40	118,064
227,61	-18,209
227,83	48,621
228,04	141,954
228,26	62,768
228,47	45,869
228,69	349,401
228,91	187,741
229,12	120,126
229,34	37,836
229,55	84,168
229,77	94,720
229,98	10,229
230,20	109,300
230,41	-8,302
230,63	126,422
230,84	57,004
231,06	8,864
231,27	45,629
231,49	72,743
231,71	32,315
231,92	37,494
232,14	39,081
232,35	107,670
232,57	97,637
232,78	18,830
233,00	46,611
233,21	63,699
233,43	10,583
233,64	19,721
233,86	68,194
234,07	40,408
234,29	27,857
234,50	26,423
234,72	55,050
234,93	24,043
235,15	22,298
235,36	20,378
235,58	48,751
235,79	52,051
236,01	13,171
236,22	18,064
236,44	51,545
236,65	26,572
236,87	12,213
237,08	10,153
237,30	9,039
237,51	25,292
237,73	-3,134
237,94	9,489
238,16	23,644
238,37	23,641
238,59	9,149
238,80	10,213
239,02	9,136
239,23	15,460
239,45	-10,250
239,66	25,806
239,88	45,686
240,09	20,688
240,31	-4,797
240,52	4,891
240,74	20,009
240,95	12,979
241,17	-0,758
241,38	7,721
241,60	15,283
241,81	24,263
242,03	4,362
242,24	12,889
242,46	18,147
242,67	2,124
242,89	11,338
243,10	16,479
243,32	13,136
243,53	16,634
243,75	4,781
243,96	2,456
244,18	9,467
244,39	11,964
244,60	8,408
244,82	2,873
245,03	24,989
245,25	9,162
245,46	24,578
245,68	3,347
245,89	19,695
246,11	17,534
246,32	10,144
246,54	7,961
246,75	10,283
246,97	17,958
247,18	20,816
247,39	2,910
247,61	14,014
247,82	16,817
248,04	3,728
248,25	2,766
248,47	16,076
248,68	16,985
248,90	3,569
249,11	3,699
249,33	20,883
249,54	6,868
249,75	13,929
249,97	3,455
250,18	15,738
250,40	19,248
250,61	-12,390
250,83	2,627
251,04	6,344
251,25	15,544
251,47	-1,154
251,68	5,436
251,90	14,443
252,11	11,905
252,33	2,123
252,54	7,350
252,76	4,427
252,97	3,527
253,18	2,433
253,40	2,442
253,61	0,668
253,83	11,094
254,04	6,462
254,25	6,199
254,47	4,513
254,68	7,152
254,90	2,355
255,11	4,447
255,33	7,309
255,54	3,194
255,75	7,430
255,97	2,926
256,18	3,129
256,40	9,437
256,61	5,196
256,82	-0,135
257,04	11,353
257,25	1,835
257,47	5,023
257,68	-0,544
257,89	7,298
258,11	9,308
258,32	4,560
258,54	10,644
258,75	10,450
258,96	12,061
259,18	8,597
259,39	0,346
259,61	12,571
259,82	2,046
260,03	4,204
260,25	7,490
260,46	4,959
260,68	3,130
260,89	2,163
261,10	4,699
261,32	3,309
261,53	1,798
261,75	5,276
261,96	-3,781
262,17	9,828
262,39	9,723
262,60	0,247
262,81	-0,662
263,03	13,743
263,24	9,299
263,46	1,807
263,67	5,282
263,88	6,378
264,10	6,373
264,31	1,039
264,52	6,740
264,74	7,716
264,95	2,089
265,17	6,008
265,38	7,915
265,59	12,810
265,81	4,983
266,02	1,396
266,23	2,956
266,45	9,598
266,66	10,681
266,87	6,913
267,09	2,867
267,30	10,368
267,52	9,604
267,73	5,371
267,94	4,575
268,16	5,823
268,37	2,200
268,58	3,936
268,80	3,615
269,01	7,769
269,22	7,940
269,44	6,112
269,65	4,332
269,86	-0,872
270,08	7,662
270,29	0,419
270,50	4,391
270,72	11,921
270,93	3,329
271,14	-1,240
271,36	4,074
271,57	10,146
271,78	9,169
272,00	6,385
272,21	7,273
272,42	3,234
272,64	10,093
272,85	0,186
273,06	4,161
273,28	8,292
273,49	5,133
273,70	7,235
273,92	3,869
274,13	8,533
274,34	3,476
274,56	8,161
274,77	-1,849
274,98	8,116
275,20	8,737
275,41	6,364
275,62	3,860
275,84	7,862
276,05	11,186
276,26	-0,139
276,47	-1,306
276,69	7,889
276,90	9,375
277,11	2,124
277,33	4,442
277,54	6,442
277,75	3,197
277,97	2,815
278,18	5,180
278,39	8,400
278,61	4,995
278,82	3,582
279,03	2,006
279,24	5,054
279,46	6,585
279,67	6,137
279,88	3,030
280,10	10,144
280,31	0,585
280,52	2,214
280,73	1,617
280,95	7,945
281,16	6,832
281,37	4,791
281,59	8,309
281,80	11,494
282,01	3,686
282,22	0,282
282,44	0,477
282,65	11,367
282,86	11,898
283,08	2,162
283,29	2,576
283,50	4,228
283,71	5,595
283,93	6,472
284,14	5,976
284,35	3,122
284,56	4,419
284,78	2,296
284,99	4,287
285,20	11,295
285,42	5,107
285,63	4,165
285,84	0,525
286,05	2,801
286,27	2,806
286,48	1,549
286,69	2,867
286,90	2,413
287,12	4,360
287,33	0,653
287,54	0,754
287,75	6,289
287,97	4,765
288,18	3,844
288,39	-0,172
288,60	5,613
288,82	2,906
289,03	2,861
289,24	5,039
289,45	7,168
289,67	7,072
289,88	3,211
290,09	6,975
290,30	3,983
290,52	3,117
290,73	6,166
290,94	-1,647
291,15	4,015
291,37	6,057
291,58	3,347
291,79	3,872
292,00	6,157
292,21	5,266
292,43	3,730
292,64	1,404
292,85	1,742
293,06	4,577
293,28	0,422
293,49	2,139
293,70	9,796
293,91	5,869
294,12	3,333
294,34	4,234
294,55	5,283
294,76	4,924
294,97	6,363
295,19	-0,777
295,40	4,854
295,61	4,759
295,82	-2,550
296,03	7,068
296,25	3,498
296,46	1,586
296,67	0,833
296,88	0,963
297,09	6,758
297,31	2,770
297,52	5,455
297,73	0,861
297,94	5,694
298,15	6,438
298,37	0,747
298,58	6,161
298,79	5,182
299,00	2,522
299,21	2,448
299,43	1,631
299,64	5,178
299,85	6,810
300,06	2,360
300,27	1,661
300,49	9,199
300,70	4,946
300,91	3,237
301,12	1,269
301,33	8,842
301,54	1,267
301,76	1,198
301,97	1,673
302,18	2,216
302,39	5,829
302,60	14,195
302,82	3,513
303,03	9,277
303,24	5,598
303,45	5,410
303,66	3,768
303,87	3,015
304,09	7,536
304,30	1,071
304,51	2,306
304,72	1,213
304,93	8,421
305,14	2,099
305,36	1,099
305,57	2,913
305,78	4,910
305,99	2,352
306,20	2,538
306,41	2,442
306,62	1,196
306,84	2,531
307,05	0,246
307,26	3,908
307,47	6,803
307,68	2,650
307,89	1,882
308,11	5,682
308,32	2,639
308,53	2,475
308,74	-2,091
308,95	4,240
309,16	1,911
309,37	5,256
309,59	1,167
309,80	6,261
310,01	3,017
310,22	6,496
310,43	-0,140
310,64	3,511
310,85	5,695
311,06	2,202
311,28	3,239
311,49	3,391
311,70	5,031
311,91	-2,571
312,12	2,608
312,33	5,308
312,54	4,869
312,75	4,443
312,97	-0,023
313,18	4,625
313,39	2,801
313,60	1,273
313,81	3,807
314,02	5,397
314,23	7,312
314,44	-1,517
314,65	2,564
314,87	-0,600
315,08	2,543
315,29	6,732
315,50	3,438
315,71	5,519
315,92	6,256
316,13	4,532
316,34	5,216
316,55	6,795
316,77	-1,588
316,98	3,232
317,19	1,041
317,40	5,631
317,61	9,309
317,82	2,973
318,03	1,171
318,24	4,786
318,45	5,085
318,66	3,841
318,87	0,686
319,09	5,073
319,30	7,072
319,51	5,728
319,72	3,791
319,93	6,485
320,14	6,679
320,35	5,667
320,56	0,573
320,77	2,976
320,98	9,974
321,19	3,064
321,40	2,434
321,62	4,330
321,83	3,308
322,04	3,195
322,25	1,075
322,46	7,395
322,67	7,018
322,88	4,430
323,09	0,504
323,30	8,766
323,51	7,747
323,72	5,421
323,93	2,858
324,14	3,105
324,35	-0,024
324,56	-0,580
324,77	1,959
324,99	3,675
325,20	1,469
325,41	3,941
325,62	3,413
325,83	0,539
326,04	3,141
326,25	2,825
326,46	-0,046
326,67	5,346
326,88	4,143
327,09	2,588
327,30	0,241
327,51	6,275
327,72	3,380
327,93	5,600
328,14	0,593
328,35	3,025
328,56	7,205
328,77	1,831
328,98	4,310
329,19	5,240
329,40	3,951
329,61	1,741
329,82	-0,670
330,04	4,825
330,25	3,024
330,46	3,361
330,67	1,373
330,88	2,767
331,09	1,987
331,30	2,044
331,51	2,119
331,72	3,478
331,93	7,917
332,14	2,007
332,35	1,858
332,56	4,420
332,77	5,261
332,98	-1,075
333,19	0,921
333,40	5,184
333,61	3,553
333,82	7,010
334,03	5,713
334,24	5,656
334,45	2,763
334,66	8,258
334,87	5,516
335,08	3,208
335,29	1,168
335,50	1,983
335,71	2,519
335,92	3,520
336,13	8,041
336,34	1,747
336,55	1,036
336,76	4,433
336,97	4,741
337,18	-1,844
337,39	4,965
337,60	3,831
337,81	6,424
338,02	1,864
338,23	2,898
338,44	5,123
338,65	3,794
338,86	3,620
339,07	3,169
339,28	4,376
339,49	3,776
339,70	2,296
339,91	2,640
340,11	8,409
340,32	1,060
340,53	-0,641
340,74	-1,897
340,95	2,242
341,16	5,150
341,37	3,126
341,58	0,721
341,79	1,595
342,00	2,906
342,21	2,310
342,42	3,811
342,63	7,032
342,84	2,011
343,05	3,500
343,26	4,618
343,47	9,319
343,68	4,119
343,89	3,099
344,10	1,477
344,31	5,720
344,52	5,071
344,73	3,051
344,94	2,859
345,14	1,849
345,35	7,668
345,56	4,587
345,77	0,787
345,98	2,992
346,19	4,531
346,40	2,838
346,61	2,565
346,82	4,479
347,03	3,831
347,24	5,218
347,45	2,354
347,66	8,533
347,87	3,604
348,08	7,531
348,28	-1,453
348,49	4,271
348,70	5,364
348,91	4,637
349,12	0,515
349,33	16,912
349,54	2,960
349,75	5,899
349,96	3,169
350,17	3,432
350,38	0,820
350,59	3,565
350,80	0,123
351,00	9,046
351,21	5,800
351,42	3,553
351,63	-1,181
351,84	6,239
352,05	7,486
352,26	4,541
352,47	3,068
352,68	8,547
352,89	5,472
353,09	6,727
353,30	-1,894
353,51	2,548
353,72	6,995
353,93	6,957
354,14	0,433
354,35	3,488
354,56	8,814
354,77	3,602
354,98	-0,536
355,18	7,319
355,39	9,041
355,60	0,493
355,81	4,021
356,02	7,704
356,23	5,129
356,44	1,651
356,65	5,833
356,85	11,990
357,06	6,643
357,27	3,712
357,48	-0,838
357,69	6,368
357,90	7,314
358,11	0,118
358,32	2,329
358,52	8,455
358,73	5,260
358,94	0,900
359,15	2,348
359,36	6,978
359,57	5,979
359,78	6,454
359,98	0,062
360,19	3,165
360,40	5,290
360,61	5,808
360,82	1,960
361,03	10,437
361,24	7,337
361,44	1,212
361,65	3,726
361,86	3,502
362,07	6,458
362,28	4,676
362,49	0,367
362,70	8,059
362,90	4,912
363,11	1,485
363,32	-1,138
363,53	2,788
363,74	6,230
363,95	7,189
364,15	4,539
364,36	5,876
364,57	6,457
364,78	2,617
364,99	2,082
365,20	8,358
365,40	6,465
365,61	1,997
365,82	5,076
366,03	7,486
366,24	5,901
366,45	2,294
366,65	3,061
366,86	4,053
367,07	4,367
367,28	1,660
367,49	3,327
367,69	10,685
367,90	5,838
368,11	5,416
368,32	0,474
368,53	9,262
368,73	7,536
368,94	3,482
369,15	4,148
369,36	8,864
369,57	3,769
369,78	3,873
369,98	5,126
370,19	7,151
370,40	4,997
370,61	2,488
370,82	2,373
371,02	8,020
371,23	9,327
371,44	5,274
371,65	4,810
371,85	7,464
372,06	7,502
372,27	6,683
372,48	2,894
372,69	3,505
372,89	4,303
373,10	4,130
373,31	4,468
373,52	5,165
373,73	9,912
373,93	3,881
374,14	4,606
374,35	5,558
374,56	7,973
374,76	4,655
374,97	2,850
375,18	7,796
375,39	5,107
375,60	5,227
375,80	2,832
376,01	5,609
376,22	6,037
376,43	1,491
376,63	3,834
376,84	3,128
377,05	4,690
377,26	2,912
377,46	2,081
377,67	2,311
377,88	4,057
378,09	6,076
378,29	-1,819
378,50	3,917
378,71	6,250
378,92	3,804
379,12	3,500
379,33	3,226
379,54	3,146
379,75	5,460
379,95	1,058
380,16	7,565
380,37	6,057
380,58	3,967
380,78	4,767
380,99	3,556
381,20	4,351
381,41	4,326
381,61	5,438
381,82	2,730
382,03	2,225
382,24	4,616
382,44	5,355
382,65	6,220
382,86	8,090
383,06	4,709
383,27	5,286
383,48	0,876
383,69	4,130
383,89	4,610
384,10	3,313
384,31	3,653
384,51	9,851
384,72	4,306
384,93	5,757
385,14	2,470
385,34	6,868
385,55	1,508
385,76	1,304
385,96	8,147
386,17	6,603
386,38	6,877
386,59	6,840
386,79	3,708
387,00	12,115
387,21	8,380
387,41	4,942
387,62	3,185
387,83	10,002
388,03	2,976
388,24	0,668
388,45	6,233
388,66	7,064
388,86	5,673
389,07	3,454
389,28	11,068
389,48	7,268
389,69	5,133
389,90	2,231
390,10	5,381
390,31	7,015
390,52	-2,089
390,72	4,635
390,93	6,797
391,14	4,350
391,34	2,981
391,55	8,741
391,76	8,873
391,96	7,484
392,17	2,975
392,38	7,006
392,58	8,894
392,79	3,318
393,00	1,537
393,20	3,944
393,41	8,029
393,62	4,817
393,82	3,852
394,03	6,511
394,24	6,638
394,44	8,609
394,65	4,276
394,86	4,901
395,06	8,886
395,27	4,480
395,48	4,589
395,68	4,244
395,89	7,783
396,10	10,792
396,30	3,517
396,51	1,145
396,72	4,357
396,92	4,017
397,13	2,957
397,34	0,968
397,54	6,225
397,75	0,935
397,95	-0,585
398,16	7,498
398,37	5,142
398,57	1,737
398,78	5,621
398,99	8,788
399,19	5,115
399,40	7,963
399,60	0,969
399,81	1,683
400,02	6,943
400,22	6,387
400,43	3,123
400,64	5,062
400,84	-0,939
401,05	7,520
401,25	10,745
401,46	5,835
401,67	9,139
401,87	7,968
402,08	-0,826
402,29	3,953
402,49	10,536
402,70	8,361
402,90	0,549
403,11	5,873
403,32	4,211
403,52	4,844
403,73	6,232
403,93	9,703
404,14	12,458
404,35	4,987
404,55	2,217
404,76	3,429
404,96	6,273
405,17	9,734
405,38	8,717
405,58	3,459
405,79	8,906
405,99	7,978
406,20	6,024
406,40	1,104
406,61	6,157
406,82	5,086
407,02	9,344
407,23	2,564
407,43	5,099
407,64	1,594
407,85	6,017
408,05	-3,581
408,26	11,796
408,46	10,244
408,67	2,498
408,87	2,533
409,08	2,926
409,29	11,035
409,49	9,271
409,70	3,725
409,90	9,860
410,11	5,832
410,31	11,939
410,52	6,176
410,72	4,756
410,93	8,865
411,14	2,080
411,34	1,938
411,55	8,475
411,75	10,979
411,96	7,319
412,16	4,393
412,37	4,701
412,57	7,776
412,78	7,148
412,99	6,754
413,19	5,572
413,40	5,434
413,60	2,397
413,81	2,480
414,01	8,101
414,22	2,812
414,42	-0,072
414,63	0,040
414,83	8,184
415,04	13,239
415,24	4,143
415,45	4,272
415,65	5,285
415,86	12,527
416,07	5,403
416,27	7,798
416,48	9,284
416,68	12,279
416,89	3,375
417,09	2,635
417,30	12,740
417,50	3,266
417,71	9,382
417,91	8,098
418,12	1,601
418,32	7,065
418,53	5,137
418,73	7,377
418,94	4,406
419,14	10,421
419,35	-2,572
419,55	7,544
419,76	8,475
419,96	2,582
420,17	4,247
420,37	6,029
420,58	9,270
420,78	7,096
420,99	6,893
421,19	7,813
421,40	7,968
421,60	8,851
421,81	2,151
422,01	3,777
422,22	6,096
422,42	7,856
422,63	8,300
422,83	4,117
423,04	9,347
423,24	13,207
423,45	3,553
423,65	8,902
423,86	13,920
424,06	10,520
424,27	4,999
424,47	3,582
424,67	4,711
424,88	7,795
425,08	2,826
425,29	12,176
425,49	5,415
425,70	1,353
425,90	7,164
426,11	3,294
426,31	7,174
426,52	7,802
426,72	2,885
426,93	3,021
427,13	10,483
427,33	8,103
427,54	6,998
427,74	6,690
427,95	14,367
428,15	3,271
428,36	4,641
428,56	6,306
428,77	5,900
428,97	6,660
429,18	5,459
429,38	3,919
429,58	10,390
429,79	10,238
429,99	6,466
430,20	-0,412
430,40	11,178
430,61	3,491
430,81	2,288
431,01	7,084
431,22	12,412
431,42	11,436
431,63	3,408
431,83	4,073
432,04	7,776
432,24	14,364
432,44	6,754
432,65	4,962
432,85	3,442
433,06	7,783
433,26	6,078
433,47	4,281
433,67	7,858
433,87	7,873
434,08	3,636
434,28	4,814
434,49	6,087
434,69	11,714
434,89	1,787
435,10	5,593
435,30	8,958
435,51	4,532
435,71	8,429
435,91	4,318
436,12	8,119
436,32	5,199
436,53	8,110
436,73	4,083
436,93	7,486
437,14	12,227
437,34	8,620
437,55	7,800
437,75	7,084
437,95	10,799
438,16	4,240
438,36	2,834
438,57	2,845
438,77	5,519
438,97	7,591
439,18	12,315
439,38	5,954
439,58	3,690
439,79	4,277
439,99	1,315
440,20	11,830
440,40	6,223
440,60	3,305
440,81	9,521
441,01	6,539
441,21	9,136
441,42	7,442
441,62	8,182
441,83	7,246
442,03	9,731
442,23	7,320
442,44	4,518
442,64	10,135
442,84	5,403
443,05	3,083
443,25	6,516
443,45	8,976
443,66	4,718
443,86	4,638
444,06	2,452
444,27	5,002
444,47	6,903
444,67	4,237
444,88	7,652
445,08	6,000
445,28	7,646
445,49	3,703
445,69	4,226
445,90	10,333
446,10	12,817
446,30	5,451
446,51	4,734
446,71	9,711
446,91	10,924
447,12	11,536
447,32	5,013
447,52	12,603
447,72	7,823
447,93	6,183
448,13	4,642
448,33	15,220
448,54	11,264
448,74	1,017
448,94	5,910
449,15	12,254
449,35	10,283
449,55	5,865
449,76	9,056
449,96	8,595
450,16	12,307
450,37	2,814
450,57	6,882
450,77	4,611
450,98	6,344
451,18	7,371
451,38	6,441
451,58	10,357
451,79	6,238
451,99	11,173
452,19	5,075
452,40	13,130
452,60	0,633
452,80	3,422
453,00	5,370
453,21	9,553
453,41	9,008
453,61	3,677
453,82	10,064
454,02	6,346
454,22	12,189
454,42	8,031
454,63	3,221
454,83	8,262
455,03	12,464
455,24	10,106
455,44	5,938
455,64	4,637
455,84	6,908
456,05	1,963
456,25	3,023
456,45	12,023
456,65	3,124
456,86	5,117
457,06	8,961
457,26	20,280
457,47	14,069
457,67	5,686
457,87	6,011
458,07	8,084
458,28	14,422
458,48	9,733
458,68	0,527
458,88	10,418
459,09	8,929
459,29	11,291
459,49	4,842
459,69	10,891
459,90	11,711
460,10	6,287
460,30	7,419
460,50	4,461
460,71	13,711
460,91	0,352
461,11	8,942
461,31	4,474
461,52	17,623
461,72	6,811
461,92	10,568
462,12	18,274
462,32	2,387
462,53	6,652
462,73	5,483
462,93	12,218
463,13	9,172
463,34	6,423
463,54	4,678
463,74	8,980
463,94	11,075
464,14	5,857
464,35	6,090
464,55	13,818
464,75	20,618
464,95	10,147
465,16	3,075
465,36	10,261
465,56	6,313
465,76	3,394
465,96	12,852
466,17	6,070
466,37	7,178
466,57	13,541
466,77	8,518
466,97	5,391
467,18	12,553
467,38	8,180
467,58	5,488
467,78	14,102
467,98	11,957
468,19	5,907
468,39	12,347
468,59	12,664
468,79	13,065
468,99	6,205
469,19	7,519
469,40	10,377
469,60	4,333
469,80	3,420
470,00	9,655
470,20	13,533
470,41	6,735
470,61	10,852
470,81	10,615
471,01	4,731
471,21	9,676
471,41	6,260
471,62	4,203
471,82	7,158
472,02	6,679
472,22	7,328
472,42	6,587
472,62	11,794
472,83	7,074
473,03	12,473
473,23	6,742
473,43	13,719
473,63	8,214
473,83	9,439
474,03	7,692
474,24	14,250
474,44	7,684
474,64	6,389
474,84	7,674
475,04	9,526
475,24	10,857
475,45	8,857
475,65	9,175
475,85	13,152
476,05	1,403
476,25	9,231
476,45	9,425
476,65	13,972
476,85	10,901
477,06	8,678
477,26	5,593
477,46	10,449
477,66	12,213
477,86	10,676
478,06	6,861
478,26	16,946
478,46	10,479
478,67	11,700
478,87	6,544
479,07	9,151
479,27	14,925
479,47	7,259
479,67	3,087
479,87	6,381
480,07	11,701
480,28	8,434
480,48	6,163
480,68	11,953
480,88	16,400
481,08	10,765
481,28	10,749
481,48	11,449
481,68	8,658
481,88	6,979
482,08	8,916
482,29	12,344
482,49	9,265
482,69	11,166
482,89	9,714
483,09	15,401
483,29	9,701
483,49	7,015
483,69	11,113
483,89	9,463
484,09	7,498
484,29	7,377
484,50	10,782
484,70	13,443
484,90	8,108
485,10	9,830
485,30	11,125
485,50	13,659
485,70	10,908
485,90	9,151
486,10	5,592
486,30	8,521
486,50	9,756
486,70	9,841
486,90	9,952
487,10	15,134
487,30	11,085
487,51	9,004
487,71	8,934
487,91	9,041
488,11	12,768
488,31	8,231
488,51	13,294
488,71	8,915
488,91	11,275
489,11	9,130
489,31	11,172
489,51	11,435
489,71	11,251
489,91	11,330
490,11	8,333
490,31	9,640
490,51	15,056
490,71	10,960
490,91	10,148
491,11	13,174
491,31	8,233
491,51	9,017
491,72	10,849
491,92	11,210
492,12	13,877
492,32	13,616
492,52	14,835
492,72	12,926
492,92	13,499
493,12	14,278
493,32	10,157
493,52	10,071
493,72	12,637
493,92	13,444
494,12	13,573
494,32	13,422
494,52	10,066
494,72	11,523
494,92	10,493
495,12	15,857
495,32	16,486
495,52	11,461
495,72	12,304
495,92	18,163
496,12	15,439
496,32	10,111
496,52	11,685
496,72	11,951
496,92	15,837
497,12	12,327
497,32	13,430
497,52	11,110
497,72	17,359
497,92	13,390
498,12	10,619
498,32	14,287
498,52	12,809
498,72	10,922
498,92	14,373
499,12	13,504
499,32	10,149
499,52	14,341
499,72	13,537
499,92	18,326
500,12	14,829
500,32	15,358
500,52	13,315
500,72	19,502
500,91	15,761
501,11	12,929
501,31	9,786
501,51	17,776
501,71	17,878
501,91	15,090
502,11	12,897
502,31	13,071
502,51	18,180
502,71	15,653
502,91	13,879
503,11	16,222
503,31	15,205
503,51	10,745
503,71	12,553
503,91	19,090
504,11	14,960
504,31	13,793
504,51	16,425
504,71	21,799
504,91	16,527
505,10	15,344
505,30	15,208
505,50	18,379
505,70	14,074
505,90	13,736
506,10	12,281
506,30	15,045
506,50	16,665
506,70	18,114
506,90	13,602
507,10	17,532
507,30	14,347
507,50	16,700
507,70	13,397
507,89	16,364
508,09	15,954
508,29	15,932
508,49	15,725
508,69	18,477
508,89	14,924
509,09	12,445
509,29	13,666
509,49	17,588
509,69	21,017
509,89	16,766
510,09	13,760
510,28	17,660
510,48	18,223
510,68	15,982
510,88	13,756
511,08	16,660
511,28	18,560
511,48	14,894
511,68	11,258
511,88	12,415
512,07	16,918
512,27	16,091
512,47	15,907
512,67	14,610
512,87	13,722
513,07	14,923
513,27	13,579
513,47	16,934
513,67	13,278
513,86	17,123
514,06	16,669
514,26	15,927
514,46	19,681
514,66	17,685
514,86	13,972
515,06	20,418
515,26	20,851
515,45	15,238
515,65	15,801
515,85	18,532
516,05	14,933
516,25	15,475
516,45	19,842
516,65	14,319
516,84	15,594
517,04	21,211
517,24	16,004
517,44	17,410
517,64	17,705
517,84	18,267
518,04	15,276
518,23	19,436
518,43	20,682
518,63	16,336
518,83	14,186
519,03	16,363
519,23	19,667
519,42	15,035
519,62	14,795
519,82	16,778
520,02	15,484
520,22	14,700
520,42	15,368
520,61	19,118
520,81	19,200
521,01	21,095
521,21	15,147
521,41	15,407
521,61	23,021
521,80	11,938
522,00	17,946
522,20	20,149
522,40	19,330
522,60	16,106
522,79	14,849
522,99	18,850
523,19	13,594
523,39	18,104
523,59	15,624
523,78	21,408
523,98	16,379
524,18	18,264
524,38	16,019
524,58	14,756
524,77	22,094
524,97	16,528
525,17	15,928
525,37	17,215
525,57	20,578
525,76	16,024
525,96	16,329
526,16	18,539
526,36	17,854
526,56	18,069
526,75	16,200
526,95	18,521
527,15	17,524
527,35	15,887
527,55	16,446
527,74	18,584
527,94	14,184
528,14	15,608
528,34	18,432
528,53	14,697
528,73	21,560
528,93	18,155
529,13	14,627
529,32	19,285
529,52	21,036
529,72	15,594
529,92	17,449
530,12	15,246
530,31	15,138
530,51	17,818
530,71	16,849
530,91	18,625
531,10	12,327
531,30	17,011
531,50	14,315
531,70	17,697
531,89	16,513
532,09	16,856
532,29	17,255
532,49	17,777
532,68	16,653
532,88	13,285
533,08	17,114
533,28	16,037
533,47	16,910
533,67	16,842
533,87	15,975
534,06	24,785
534,26	15,670
534,46	15,155
534,66	18,263
534,85	18,468
535,05	10,576
535,25	14,274
535,45	13,060
535,64	18,391
535,84	15,425
536,04	14,433
536,23	14,975
536,43	19,952
536,63	15,282
536,83	15,499
537,02	13,517
537,22	16,486
537,42	16,421
537,61	16,410
537,81	17,036
538,01	17,006
538,20	20,449
538,40	15,122
538,60	14,141
538,80	17,760
538,99	16,636
539,19	14,697
539,39	15,614
539,58	17,098
539,78	14,139
539,98	14,001
540,17	12,107
540,37	16,854
540,57	15,648
540,76	13,653
540,96	13,458
541,16	16,034
541,36	13,914
541,55	9,986
541,75	10,190
541,95	11,724
542,14	10,381
542,34	10,923
542,54	10,805
542,73	13,928
542,93	13,448
543,13	10,982
543,32	11,554
543,52	15,366
543,72	11,688
543,91	13,623
544,11	12,315
544,31	9,355
544,50	11,487
544,70	12,244
544,89	11,573
545,09	15,483
545,29	11,133
545,48	11,945
545,68	10,231
545,88	13,074
546,07	11,641
546,27	11,397
546,47	14,039
546,66	15,348
546,86	14,626
547,06	12,591
547,25	13,781
547,45	17,279
547,64	15,218
547,84	18,242
548,04	14,534
548,23	17,906
548,43	15,835
548,63	18,303
548,82	15,094
549,02	15,279
549,21	14,234
549,41	16,158
549,61	15,003
549,80	14,925
550,00	16,563
550,20	11,907
550,39	16,584
550,59	15,418
550,78	14,339
550,98	14,183
551,18	18,112
551,37	16,437
551,57	16,974
551,76	16,954
551,96	14,776
552,16	15,141
552,35	16,410
552,55	15,129
552,74	17,302
552,94	18,546
553,14	16,464
553,33	15,356
553,53	16,324
553,72	15,983
553,92	18,118
554,12	15,535
554,31	14,644
554,51	18,117
554,70	15,504
554,90	17,535
555,09	17,215
555,29	17,318
555,49	17,529
555,68	20,088
555,88	15,219
556,07	16,637
556,27	19,656
556,46	15,025
556,66	14,585
556,86	20,236
557,05	16,158
557,25	15,061
557,44	15,748
557,64	16,490
557,83	17,014
558,03	16,398
558,22	14,706
558,42	18,562
558,62	18,359
558,81	16,967
559,01	15,880
559,20	17,576
559,40	15,568
559,59	16,092
559,79	12,866
559,98	16,064
560,18	18,797
560,37	16,750
560,57	18,057
560,76	16,348
560,96	13,215
561,16	16,668
561,35	18,516
561,55	19,836
561,74	17,677
561,94	14,732
562,13	15,817
562,33	19,897
562,52	18,346
562,72	15,596
562,91	15,258
563,11	16,428
563,30	20,416
563,50	12,385
563,69	15,773
563,89	14,866
564,08	19,597
564,28	15,425
564,47	17,979
564,67	15,517
564,86	17,847
565,06	15,799
565,25	16,021
565,45	17,955
565,64	22,834
565,84	15,452
566,03	14,878
566,23	16,382
566,42	17,080
566,62	17,458
566,81	16,043
567,01	16,778
567,20	18,867
567,40	14,962
567,59	14,704
567,79	19,750
567,98	22,037
568,18	17,582
568,37	16,971
568,57	17,256
568,76	18,030
568,96	16,240
569,15	15,798
569,35	18,417
569,54	21,012
569,73	17,830
569,93	14,685
570,12	16,287
570,32	18,636
570,51	16,928
570,71	16,722
570,90	19,979
571,10	15,498
571,29	14,549
571,49	13,697
571,68	18,825
571,87	17,164
572,07	15,271
572,26	13,268
572,46	15,417
572,65	16,727
572,85	13,662
573,04	16,533
573,24	15,904
573,43	18,107
573,62	18,947
573,82	17,770
574,01	14,784
574,21	16,149
574,40	14,820
574,60	13,615
574,79	20,392
574,98	14,949
575,18	17,252
575,37	14,659
575,57	16,647
575,76	17,279
575,96	16,225
576,15	15,189
576,34	16,024
576,54	16,656
576,73	16,046
576,93	15,062
577,12	17,725
577,31	16,697
577,51	13,494
577,70	16,121
577,90	15,995
578,09	14,268
578,28	15,544
578,48	15,130
578,67	17,318
578,87	17,960
579,06	14,647
579,25	16,752
579,45	16,912
579,64	14,128
579,84	13,709
580,03	13,638
580,22	18,454
580,42	14,732
580,61	14,764
580,81	15,054
581,00	16,717
581,19	18,577
581,39	14,649
581,58	15,461
581,77	15,726
581,97	18,270
582,16	15,706
582,35	13,331
582,55	17,607
582,74	18,673
582,94	15,829
583,13	13,284
583,32	16,649
583,52	16,755
583,71	14,758
583,90	14,972
584,10	16,720
584,29	17,866
584,48	14,508
584,68	15,143
584,87	16,396
585,06	14,724
585,26	14,081
585,45	15,193
585,65	17,426
585,84	15,618
586,03	15,356
586,23	14,114
586,42	15,093
586,61	17,892
586,81	14,861
587,00	14,910
587,19	15,083
587,39	18,131
587,58	14,942
587,77	16,258
587,97	15,806
588,16	15,778
588,35	16,254
588,54	17,673
588,74	14,557
588,93	17,998
589,12	16,365
589,32	16,018
589,51	16,954
589,70	14,109
589,90	13,958
590,09	14,876
590,28	20,299
590,48	14,920
590,67	15,835
590,86	15,303
591,06	15,204
591,25	17,811
591,44	16,078
591,63	15,321
591,83	17,395
592,02	16,026
592,21	13,546
592,41	14,180
592,60	17,049
592,79	17,202
592,98	15,239
593,18	14,524
593,37	16,786
593,56	17,778
593,76	16,613
593,95	14,818
594,14	16,068
594,33	17,998
594,53	14,504
594,72	15,468
594,91	18,797
595,10	16,502
595,30	14,825
595,49	13,266
595,68	17,284
595,88	17,574
596,07	15,289
596,26	17,224
596,45	15,129
596,65	14,744
596,84	15,368
597,03	15,685
597,22	16,437
597,42	19,329
597,61	15,655
597,80	15,917
597,99	16,269
598,19	17,807
598,38	15,506
598,57	14,477
598,76	18,242
598,95	17,514
599,15	17,321
599,34	16,413
599,53	16,431
599,72	14,351
599,92	17,551
600,11	15,274
600,30	16,635
600,49	19,856
600,69	15,323
600,88	16,763
601,07	16,436
601,26	17,127
601,45	17,246
601,65	13,482
601,84	16,000
602,03	17,098
602,22	17,664
602,42	17,524
602,61	16,297
602,80	17,860
602,99	17,181
603,18	15,206
603,38	18,363
603,57	17,174
603,76	15,401
603,95	15,521
604,14	17,183
604,34	16,555
604,53	15,774
604,72	16,732
604,91	18,783
605,10	15,936
605,29	16,837
605,49	14,249
605,68	17,012
605,87	19,082
606,06	15,969
606,25	14,837
606,45	16,504
606,64	16,516
606,83	17,026
607,02	16,612
607,21	19,064
607,40	16,458
607,60	14,428
607,79	14,155
607,98	15,987
608,17	15,311
608,36	15,451
608,55	17,279
608,75	17,503
608,94	16,101
609,13	12,992
609,32	12,341
609,51	16,347
609,70	12,566
609,89	14,857
610,09	13,340
610,28	15,437
610,47	15,360
610,66	13,792
610,85	12,888
611,04	15,332
611,23	13,366
611,43	12,521
611,62	13,257
611,81	13,582
612,00	13,237
612,19	12,281
612,38	13,102
612,57	15,200
612,77	14,492
612,96	13,516
613,15	13,897
613,34	16,404
613,53	15,936
613,72	14,264
613,91	14,292
614,10	13,925
614,29	15,997
614,49	13,728
614,68	14,308
614,87	14,573
615,06	17,923
615,25	14,067
615,44	16,558
615,63	15,727
615,82	13,559
616,01	14,142
616,21	15,521
616,40	18,115
616,59	18,426
616,78	16,622
616,97	16,663
617,16	16,263
617,35	16,387
617,54	17,593
617,73	17,461
617,92	17,579
618,11	18,061
618,31	13,821
618,50	18,434
618,69	16,556
618,88	15,662
619,07	13,792
619,26	15,594
619,45	16,075
619,64	14,982
619,83	15,124
620,02	14,551
620,21	18,936
620,40	15,862
620,59	13,904
620,78	13,643
620,97	16,816
621,17	18,429
621,36	13,747
621,55	15,540
621,74	16,960
621,93	16,598
622,12	14,867
622,31	14,881
622,50	15,062
622,69	17,208
622,88	16,073
623,07	19,375
623,26	18,068
623,45	19,912
623,64	16,334
623,83	15,883
624,02	18,268
624,21	17,335
624,40	15,273
624,59	13,951
624,78	15,369
624,97	20,393
625,16	13,151
625,35	14,181
625,54	14,901
625,73	16,367
625,92	16,973
626,12	17,716
626,31	18,370
626,50	17,346
626,69	15,790
626,88	14,989
627,07	15,842
627,26	16,494
627,45	15,024
627,64	15,569
627,83	16,605
628,02	15,581
628,21	15,594
628,40	15,271
628,59	18,689
628,78	14,730
628,97	15,559
629,16	14,509
629,35	18,130
629,54	18,389
629,73	15,396
629,92	14,967
630,10	15,525
630,29	16,051
630,48	15,045
630,67	15,185
630,86	19,192
631,05	15,746
631,24	18,557
631,43	14,738
631,62	16,036
631,81	14,882
632,00	15,634
632,19	13,412
632,38	16,980
632,57	17,038
632,76	14,530
632,95	15,686
633,14	18,883
633,33	17,788
633,52	15,553
633,71	16,332
633,90	14,939
634,09	17,713
634,28	15,086
634,47	14,827
634,66	16,507
634,85	16,504
635,04	18,209
635,22	15,078
635,41	15,574
635,60	17,308
635,79	17,400
635,98	13,779
636,17	15,716
636,36	14,967
636,55	15,342
636,74	15,141
636,93	16,410
637,12	16,513
637,31	13,797
637,50	14,709
637,69	15,484
637,87	16,384
638,06	15,126
638,25	16,577
638,44	16,485
638,63	15,587
638,82	15,442
639,01	14,791
639,20	16,219
639,39	19,056
639,58	13,823
639,77	16,806
639,95	16,123
640,14	17,451
640,33	16,318
640,52	14,623
640,71	18,055
640,90	16,490
641,09	16,987
641,28	15,707
641,47	18,222
641,66	18,308
641,84	15,494
642,03	15,007
642,22	15,014
642,41	18,849
642,60	17,161
642,79	16,585
642,98	17,070
643,17	14,753
643,35	14,629
643,54	15,397
643,73	17,999
643,92	17,450
644,11	16,148
644,30	14,476
644,49	18,026
644,67	15,413
644,86	15,011
645,05	18,090
645,24	16,802
645,43	16,632
645,62	17,032
645,81	16,519
645,99	16,999
646,18	17,782
646,37	13,891
646,56	15,808
646,75	18,640
646,94	17,965
647,13	14,836
647,31	15,384
647,50	16,631
647,69	18,927
647,88	15,558
648,07	16,725
648,26	20,712
648,44	15,151
648,63	14,899
648,82	14,785
649,01	18,432
649,20	12,892
649,38	15,634
649,57	15,328
649,76	14,906
649,95	17,842
650,14	13,648
650,33	14,992
650,51	16,243
650,70	16,801
650,89	15,729
651,08	13,750
651,27	15,921
651,45	15,984
651,64	15,152
651,83	16,679
652,02	15,864
652,21	17,730
652,39	16,726
652,58	18,202
652,77	17,873
652,96	15,665
653,15	15,956
653,33	15,947
653,52	16,803
653,71	19,923
653,90	15,375
654,09	16,715
654,27	15,437
654,46	18,228
654,65	16,516
654,84	15,860
655,02	18,085
655,21	17,006
655,40	17,787
655,59	16,713
655,77	16,822
655,96	15,663
656,15	16,926
656,34	17,445
656,53	17,041
656,71	17,846
656,90	16,186
657,09	17,436
657,28	18,379
657,46	16,209
657,65	16,636
657,84	16,137
658,03	17,461
658,21	16,776
658,40	15,079
658,59	15,741
658,78	17,002
658,96	17,069
659,15	16,677
659,34	16,125
659,52	17,520
659,71	17,409
659,90	16,212
660,09	16,703
660,27	16,762
660,46	18,026
660,65	16,564
660,84	14,628
661,02	17,416
661,21	18,222
661,40	15,935
661,58	16,475
661,77	16,709
661,96	14,076
662,15	15,808
662,33	15,374
662,52	15,858
662,71	17,310
662,89	14,450
663,08	15,091
663,27	16,191
663,45	16,608
663,64	16,303
663,83	14,947
664,02	14,369
664,20	18,948
664,39	15,477
664,58	17,623
664,76	18,084
664,95	17,207
665,14	15,310
665,32	15,111
665,51	16,183
665,70	17,074
665,88	19,830
666,07	15,595
666,26	18,478
666,44	16,400
666,63	14,979
666,82	16,298
667,00	18,141
667,19	15,101
667,38	15,866
667,56	17,890
667,75	18,179
667,94	17,791
668,12	15,722
668,31	16,065
668,50	17,851
668,68	18,310
668,87	14,798
669,06	16,246
669,24	17,705
669,43	15,638
669,62	14,513
669,80	13,904
669,99	16,100
670,18	16,745
670,36	13,218
670,55	16,838
670,74	15,017
670,92	14,210
671,11	17,038
671,29	15,179
671,48	15,437
671,67	16,641
671,85	18,536
672,04	14,007
672,23	14,577
672,41	16,599
672,60	16,051
672,78	14,851
672,97	15,519
673,16	16,948
673,34	15,015
673,53	14,748
673,71	17,062
673,90	17,171
674,09	15,825
674,27	15,161
674,46	16,410
674,64	17,666
674,83	16,019
675,02	13,325
675,20	16,568
675,39	14,866
675,57	17,376
675,76	14,995
675,95	17,575
676,13	17,431
676,32	15,649
676,50	15,762
676,69	15,066
676,88	15,390
677,06	12,995
677,25	16,446
677,43	19,534
677,62	16,890
677,80	15,802
677,99	15,872
678,18	17,859
678,36	19,280
678,55	14,920
678,73	15,243
678,92	16,885
679,10	17,361
679,29	16,644
679,48	14,236
679,66	17,055
679,85	15,345
680,03	15,248
680,22	16,248
680,40	16,951
680,59	16,314
680,77	15,704
680,96	15,886
681,15	14,984
681,33	17,748
681,52	16,661
681,70	16,551
681,89	19,193
682,07	18,107
682,26	15,498
682,44	15,478
682,63	17,576
682,81	17,022
683,00	17,549
683,18	13,966
683,37	18,080
683,55	16,635
683,74	16,405
683,92	23,376
684,11	16,579
684,29	16,112
684,48	15,206
684,67	15,978
684,85	16,928
685,04	17,350
685,22	15,266
685,41	14,916
685,59	17,769
685,78	15,411
685,96	15,490
686,15	15,556
686,33	14,861
686,52	16,026
686,70	16,744
686,89	16,411
687,07	17,720
687,26	17,302
687,44	16,791
687,62	16,109
687,81	17,037
687,99	15,778
688,18	16,768
688,36	16,404
688,55	18,662
688,73	16,648
688,92	14,671
689,10	17,254
689,29	17,512
689,47	17,303
689,66	16,539
689,84	16,195
690,03	20,939
690,21	16,423
690,40	16,426
690,58	14,835
690,76	14,763
690,95	17,523
691,13	14,927
691,32	17,001
691,50	17,265
691,69	17,771
691,87	14,389
692,06	14,676
692,24	15,011
692,43	15,406
692,61	13,128
692,79	13,820
692,98	14,842
693,16	19,359
693,35	15,320
693,53	16,814
693,72	16,771
693,90	18,422
694,08	15,269
694,27	16,200
694,45	18,598
694,64	19,277
694,82	14,489
695,01	14,767
695,19	14,044
695,37	15,502
695,56	14,252
695,74	15,050
695,93	18,002
696,11	15,635
696,29	16,501
696,48	15,983
696,66	16,663
696,85	16,793
697,03	14,806
697,21	17,350
697,40	17,819
697,58	16,081
697,77	16,526
697,95	17,445
698,13	16,016
698,32	17,173
698,50	15,369
698,69	15,094
698,87	17,361
699,05	16,740
699,24	15,281
699,42	18,092
699,60	14,324
699,79	15,232
699,97	16,075
700,16	15,300
700,34	18,633
700,52	16,399
700,71	15,201
700,89	15,539
701,07	16,575
701,26	17,016
701,44	17,582
701,63	13,351
701,81	16,934
701,99	17,599
702,18	13,389
702,36	14,741
702,54	18,163
702,73	15,737
702,91	15,996
703,09	16,506
703,28	15,603
703,46	17,603
703,64	17,445
703,83	16,834
704,01	18,034
704,19	16,569
704,38	15,251
704,56	15,749
704,74	18,141
704,93	16,273
705,11	16,436
705,29	16,192
705,48	24,010
705,66	16,878
705,84	16,100
706,03	12,939
706,21	16,046
706,39	14,479
706,58	15,069
706,76	15,736
706,94	17,456
707,12	17,357
707,31	14,324
707,49	13,401
707,67	16,451
707,86	19,108
708,04	15,599
708,22	15,243
708,41	17,721
708,59	17,825
708,77	12,751
708,95	17,421
709,14	19,123
709,32	16,618
709,50	15,075
709,69	16,175
709,87	16,110
710,05	16,649
710,23	14,892
710,42	15,414
710,60	15,892
710,78	18,265
710,97	15,329
711,15	16,551
711,33	17,618
711,51	15,846
711,70	14,628
711,88	15,496
712,06	18,421
712,24	17,842
712,43	16,113
712,61	14,315
712,79	16,689
712,97	14,386
713,16	16,493
713,34	15,055
713,52	18,070
713,70	15,643
713,89	17,040
714,07	16,222
714,25	17,180
714,43	17,267
714,62	14,126
714,80	15,759
714,98	14,358
715,16	15,540
715,35	14,077
715,53	15,594
715,71	18,730
715,89	18,555
716,07	16,867
716,26	18,132
716,44	17,483
716,62	19,925
716,80	15,654
716,99	14,231
717,17	19,118
717,35	17,400
717,53	15,042
717,71	14,452
717,90	17,173
718,08	15,167
718,26	12,679
718,44	16,515
718,62	17,801
718,81	17,679
718,99	14,784
719,17	15,756
719,35	16,766
719,53	15,461
719,72	13,584
719,90	16,130
720,08	15,298
720,26	18,702
720,44	15,769
720,62	16,818
720,81	19,806
720,99	18,430
721,17	16,952
721,35	17,685
721,53	16,288
721,72	17,723
721,90	15,371
722,08	15,185
722,26	18,577
722,44	17,206
722,62	16,779
722,81	14,215
722,99	17,541
723,17	15,660
723,35	19,279
723,53	16,489
723,71	17,365
723,89	19,197
724,08	12,835
724,26	14,271
724,44	17,198
724,62	16,079
724,80	16,951
724,98	16,452
725,16	20,420
725,35	16,402
725,53	15,126
725,71	15,062
725,89	17,665
726,07	19,169
726,25	19,812
726,43	14,466
726,61	17,234
726,80	17,981
726,98	15,732
727,16	17,382
727,34	19,216
727,52	17,613
727,70	16,494
727,88	14,256
728,06	14,076
728,25	14,215
728,43	16,198
728,61	15,423
728,79	17,467
728,97	18,056
729,15	17,115
729,33	16,124
729,51	17,190
729,69	16,502
729,87	15,315
730,06	16,761
730,24	17,850
730,42	19,515
730,60	14,973
730,78	17,026
730,96	16,182
731,14	16,782
731,32	16,628
731,50	13,047
731,68	15,895
731,86	17,558
732,04	17,401
732,22	15,073
732,41	21,513
732,59	18,795
732,77	18,911
732,95	18,877
733,13	18,663
733,31	16,735
733,49	13,376
733,67	17,913
733,85	17,469
734,03	17,273
734,21	15,677
734,39	16,584
734,57	18,955
734,75	17,395
734,93	14,722
735,11	17,674
735,29	15,337
735,47	18,590
735,65	15,761
735,84	15,833
736,02	16,883
736,20	19,298
736,38	14,764
736,56	15,180
736,74	15,110
736,92	16,338
737,10	15,382
737,28	17,013
737,46	16,501
737,64	16,018
737,82	17,611
738,00	16,591
738,18	18,539
738,36	18,243
738,54	17,227
738,72	15,635
738,90	16,097
739,08	17,793
739,26	14,951
739,44	16,452
739,62	16,569
739,80	19,505
739,98	15,696
740,16	15,040
740,34	17,698
740,52	19,496
740,70	17,215
740,88	14,935
741,06	16,422
741,24	18,056
741,42	17,559
741,60	15,661
741,78	17,871
741,96	16,608
742,14	15,390
742,32	13,307
742,50	17,435
742,68	17,015
742,86	15,153
743,04	14,651
743,21	19,297
743,39	18,248
743,57	15,316
743,75	14,529
743,93	15,680
744,11	13,378
744,29	17,136
744,47	17,720
744,65	17,513
744,83	14,921
745,01	14,910
745,19	15,900
745,37	22,246
745,55	19,605
745,73	18,034
745,91	14,934
746,09	18,298
746,27	16,246
746,45	14,266
746,62	16,632
746,80	17,121
746,98	18,782
747,16	15,989
747,34	16,943
747,52	18,118
747,70	18,992
747,88	17,498
748,06	14,908
748,24	17,127
748,42	18,040
748,60	16,545
748,78	16,433
748,95	20,269
749,13	20,659
749,31	17,006
749,49	15,490
749,67	17,163
749,85	19,104
750,03	15,399
750,21	14,653
750,39	17,013
750,57	17,819
750,74	17,003
750,92	16,492
751,10	18,167
751,28	14,684
751,46	14,539
751,64	16,912
751,82	18,707
752,00	18,152
752,17	17,413
752,35	14,757
752,53	16,047
752,71	16,571
752,89	18,043
753,07	16,082
753,25	18,871
753,43	14,419
753,60	17,882
753,78	13,729
753,96	20,498
754,14	17,676
754,32	17,041
754,50	17,400
754,68	18,691
754,85	17,290
755,03	17,295
755,21	15,461
755,39	19,641
755,57	16,475
755,75	15,916
755,92	14,655
756,10	16,681
756,28	18,742
756,46	14,930
756,64	16,766
756,82	18,484
756,99	16,485
757,17	20,101
757,35	14,600
757,53	19,638
757,71	20,673
757,89	14,591
758,06	16,478
758,24	18,433
758,42	19,056
758,60	15,186
758,78	16,538
758,95	18,389
759,13	18,774
759,31	15,452
759,49	15,267
759,67	17,355
759,84	17,875
760,02	16,791
760,20	17,215
760,38	18,180
760,56	16,791
760,73	15,417
760,91	16,487
761,09	19,847
761,27	17,248
761,45	16,140
761,62	16,566
761,80	16,641
761,98	19,164
762,16	16,193
762,33	16,125
762,51	19,170
762,69	16,577
762,87	15,611
763,05	16,772
763,22	17,279
763,40	16,489
763,58	16,758
763,76	15,313
763,93	20,373
764,11	19,026
764,29	17,397
764,47	17,100
764,64	16,748
764,82	20,719
765,00	16,133
765,18	14,761
765,35	15,053
765,53	17,956
765,71	15,961
765,89	15,804
766,06	15,564
766,24	16,333
766,42	17,958
766,60	14,460
766,77	16,902
766,95	16,285
767,13	16,138
767,30	15,451
767,48	15,443
767,66	13,918
767,84	13,909
768,01	13,338
768,19	19,238
768,37	17,417
768,54	16,241
768,72	17,624
768,90	17,654
769,08	19,402
769,25	16,007
769,43	15,096
769,61	13,672
769,78	19,780
769,96	15,895
770,14	19,556
770,31	18,626
770,49	18,693
770,67	18,744
770,85	17,235
771,02	17,666
771,20	16,758
771,38	16,909
771,55	17,017
771,73	15,413
771,91	18,593
772,08	19,300
772,26	17,474
772,44	17,692
772,61	17,640
772,79	14,452
772,97	17,710
773,14	12,789
773,32	19,449
773,50	16,337
773,67	18,402
773,85	20,453
774,03	20,177
774,20	17,854
774,38	16,222
774,56	17,981
774,73	13,842
774,91	17,100
775,09	19,275
775,26	18,004
775,44	19,843
775,61	17,155
775,79	14,180
775,97	18,250
776,14	16,609
776,32	15,286
776,50	16,261
776,67	18,376
776,85	18,580
777,03	14,659
777,20	13,743
777,38	20,245
777,55	19,475
777,73	15,090
777,91	15,476
778,08	17,823
778,26	17,138
778,43	19,512
778,61	12,812
778,79	17,562
778,96	15,170
779,14	14,888
779,32	17,540
779,49	15,916
779,67	20,825
779,84	17,899
780,02	19,280
780,20	14,191
780,37	18,423
780,55	16,246
780,72	18,205
780,90	16,869
781,07	17,169
781,25	16,728
781,43	17,142
781,60	15,949
781,78	18,085
781,95	17,072
782,13	17,338
782,30	19,569
782,48	18,187
782,66	15,160
782,83	12,502
783,01	23,222
783,18	18,468
783,36	18,891
783,53	16,683
783,71	16,597
783,89	17,740
784,06	18,415
784,24	15,977
784,41	17,972
784,59	18,224
784,76	20,209
784,94	17,123
785,11	19,752
785,29	15,623
785,46	18,527
785,64	16,271
785,82	17,880
785,99	19,781
786,17	19,387
786,34	14,203
786,52	22,217
786,69	17,894
786,87	18,532
787,04	15,759
787,22	14,827
787,39	18,054
787,57	20,134
787,74	15,959
787,92	20,628
788,09	18,322
788,27	15,069
788,44	17,558
788,62	19,627
788,79	18,431
788,97	19,968
789,14	18,705
789,32	18,716
789,49	16,395
789,67	18,337
789,84	17,366
790,02	20,597
790,19	17,367
790,37	15,222
790,54	17,617
790,72	22,202
790,89	23,465
791,07	20,274
791,24	13,803
791,42	21,275
791,59	20,332
791,77	16,486
791,94	15,267
792,12	15,559
792,29	21,959
792,47	20,365
792,64	20,830
792,81	19,693
792,99	16,660
793,16	20,277
793,34	19,581
793,51	17,323
793,69	22,030
793,86	15,906
794,04	16,083
794,21	22,377
794,39	15,295
794,56	17,226
794,73	18,090
794,91	22,915
795,08	18,911
795,26	14,978
795,43	16,602
795,61	21,614
795,78	15,985
795,95	19,716
796,13	16,587
796,30	19,256
796,48	15,151
796,65	20,926
796,83	19,723
797,00	22,913
797,17	19,585
797,35	15,587
797,52	21,916
797,70	24,035
797,87	21,784
798,04	15,493
798,22	18,376
798,39	19,438
798,57	17,801
798,74	21,045
798,91	17,273
799,09	17,866
799,26	18,570
799,44	22,626
799,61	16,049
799,78	20,310
799,96	23,660
800,13	18,545
800,31	14,580
800,48	22,981
800,65	22,479
800,83	17,804
801,00	18,034
801,17	20,269
801,35	18,859
801,52	17,544
801,70	18,378
801,87	23,287
802,04	22,877
802,22	18,423
802,39	20,341
802,56	25,731
802,74	21,414
802,91	17,216
803,08	17,655
803,26	18,843
803,43	23,714
803,61	16,711
803,78	18,728
803,95	22,389
804,13	22,324
804,30	19,050
804,47	23,044
804,65	20,180
804,82	20,941
804,99	17,127
805,17	17,907
805,34	27,390
805,51	23,845
805,69	16,740
805,86	20,022
806,03	24,742
806,21	23,155
806,38	17,988
806,55	22,273
806,72	27,790
806,90	27,686
807,07	15,821
807,24	16,438
807,42	15,545
807,59	21,359
807,76	16,282
807,94	18,709
808,11	23,741
808,28	23,213
808,45	18,990
808,63	19,709
808,80	27,340
808,97	22,660
809,15	17,638
809,32	20,358
809,49	18,563
809,67	16,950
809,84	20,537
810,01	21,493
810,18	29,873
810,36	22,446
810,53	21,833
810,70	18,608
810,87	22,846
811,05	21,377
811,22	22,604
811,39	19,819
811,57	27,539
811,74	20,533
811,91	16,455
812,08	21,959
812,26	22,116
812,43	16,411
812,60	23,229
812,77	14,944
812,95	25,658
813,12	19,690
813,29	14,294
813,46	21,169
813,64	23,065
813,81	21,829
813,98	20,795
814,15	19,459
814,32	26,006
814,50	23,244
814,67	22,413
814,84	23,202
815,01	21,435
815,19	12,904
815,36	13,120
815,53	20,779
815,70	20,873
815,87	10,580
816,05	16,398
816,22	23,068
816,39	28,225
816,56	23,190
816,74	21,518
816,91	15,168
817,08	32,070
817,25	26,938
817,42	21,187
817,60	22,861
817,77	26,179
817,94	25,368
818,11	20,580
818,28	18,504
818,45	21,357
818,63	22,264
818,80	22,401
818,97	17,203
819,14	27,517
819,31	28,419
819,49	20,091
819,66	16,308
819,83	22,460
820,00	22,967
820,17	16,540
820,34	22,028
820,52	29,519
820,69	25,810
820,86	17,761
821,03	25,446
821,20	25,441
821,37	25,154
821,55	12,288
821,72	19,268
821,89	22,081
822,06	30,045
822,23	21,893
822,40	18,708
822,57	23,481
822,75	27,965
822,92	17,585
823,09	20,071
823,26	24,934
823,43	29,699
823,60	17,607
823,77	23,404
823,94	28,692
824,12	29,851
824,29	22,286
824,46	20,339
824,63	31,249
824,80	30,205
824,97	19,533
825,14	20,888
825,31	25,470
825,49	27,273
825,66	20,337
825,83	18,519
826,00	23,144
826,17	32,808
826,34	22,655
826,51	15,319
826,68	24,100
826,85	23,484
827,02	17,292
827,20	14,806
827,37	21,454
827,54	25,579
827,71	24,383
827,88	21,835
828,05	29,755
828,22	27,496
828,39	30,746
828,56	25,303
828,73	23,045
828,90	27,245
829,07	14,773
829,25	23,977
829,42	20,237
829,59	18,109
829,76	19,972
829,93	13,696
830,10	26,184
830,27	22,814
830,44	21,720
830,61	21,472
830,78	35,076
830,95	23,845
831,12	13,132
831,29	19,837
831,46	18,871
831,63	22,428
831,80	18,217
831,97	21,305
832,14	36,261
832,31	38,723
832,48	16,367
832,65	29,147
832,83	23,106
833,00	30,279
833,17	17,312
833,34	29,493
833,51	26,147
833,68	31,960
833,85	29,805
834,02	12,189
834,19	31,182
834,36	31,666
834,53	17,008
834,70	22,065
834,87	40,467
835,04	24,563
835,21	18,192
835,38	20,712
835,55	19,260
835,72	44,265
835,89	19,809
836,06	20,216
836,23	42,010
836,40	18,055
836,57	12,319
836,74	33,881
836,91	26,901
837,08	36,757
837,25	19,276
837,42	15,246
837,59	21,914
837,76	27,996
837,93	20,553
838,09	18,455
838,26	30,376
838,43	40,102
838,60	17,455
838,77	25,369
838,94	27,099
839,11	21,499
839,28	19,781
839,45	23,837
839,62	29,500
839,79	22,508
839,96	27,613
840,13	28,467
840,30	21,302
840,47	20,939
840,64	7,522
840,81	30,558
840,98	17,748
841,15	33,289
841,32	12,377
841,48	30,404
841,65	30,732
841,82	27,254
841,99	24,495
842,16	18,790
842,33	28,448
842,50	33,288
842,67	24,352
842,84	20,039
843,01	36,607
843,18	25,197
843,35	22,476
843,52	12,111
843,68	34,025
843,85	32,463
844,02	13,517
844,19	22,870
844,36	31,760
844,53	34,234
844,70	19,957
844,87	35,298
845,04	30,276
845,21	19,700
845,37	25,824
845,54	25,007
845,71	26,921
845,88	54,311
846,05	10,790
846,22	14,154
846,39	32,297
846,56	32,411
846,72	5,293
846,89	25,183
847,06	53,450
847,23	46,665
847,40	21,797
847,57	19,101
847,74	30,842
847,90	36,012
848,07	18,266
848,24	23,699
848,41	33,758
848,58	46,106
848,75	29,892
848,92	7,945
849,08	28,150
849,25	32,701
849,42	15,686
849,59	30,057
849,76	19,740
849,93	24,103
850,09	27,694
850,26	14,923
850,43	43,391
850,60	21,000
850,77	15,588
850,94	28,501
851,10	25,108
851,27	29,112
851,44	4,775
851,61	12,771
851,78	41,901
851,95	33,908
852,11	17,160
852,28	21,765
852,45	39,326
852,62	43,377
852,79	25,433
852,95	24,140
853,12	46,554
853,29	37,888
853,46	14,732
853,63	32,181
853,79	31,551
853,96	25,389
854,13	28,308
854,30	22,311
854,46	55,479
854,63	32,142
854,80	24,528
854,97	25,874
855,14	47,991
855,30	32,467
855,47	19,733
855,64	24,699
855,81	30,248
855,97	50,508
856,14	19,129
856,31	19,889
856,48	46,506
856,65	56,315
856,81	19,181
856,98	18,853
857,15	19,009
857,32	46,494
857,48	31,083
857,65	35,683
857,82	36,242
857,99	27,627
858,15	30,780
858,32	24,041
858,49	41,898
858,65	72,404
858,82	38,033
858,99	29,806
859,16	48,411
859,32	63,630
859,49	18,370
859,66	18,247
859,83	34,987
859,99	20,094
860,16	35,260
860,33	21,479
860,49	37,979
860,66	44,706
860,83	41,050
861,00	28,981
861,16	46,785
861,33	46,637
861,50	21,348
861,66	34,179
861,83	51,807
862,00	36,340
862,16	27,944
862,33	12,745
862,50	76,765
862,67	45,144
862,83	16,163
863,00	51,918
863,17	64,963
863,33	37,250
863,50	14,177
863,67	30,688
863,83	45,002
864,00	49,072
864,17	15,618
864,33	32,760
864,50	39,689
864,67	54,424
864,83	10,445
865,00	20,897
865,17	8,293
865,33	52,370
865,50	4,890
865,67	8,186
865,83	53,462
866,00	68,246
866,17	42,001
866,33	33,942
866,50	66,757
866,66	59,706
866,83	38,528
867,00	47,907
867,16	71,913
867,33	67,884
867,50	11,661
867,66	2,955
867,83	58,043
868,00	47,699
868,16	42,483
868,33	33,107
868,49	40,740
868,66	53,752
868,83	26,162
868,99	27,703
869,16	78,214
869,32	78,714
869,49	37,000
869,66	21,413
869,82	87,530
869,99	71,950
870,15	4,102
870,32	44,616
870,49	91,477
870,65	114,026
870,82	28,968
870,98	15,365
871,15	102,359
871,32	48,293
871,48	-2,899
871,65	10,730
871,81	62,893
871,98	19,392
872,15	19,973
872,31	14,602
872,48	85,981
872,64	48,324
872,81	3,978
872,97	28,845
873,14	72,593
873,31	80,515
873,47	15,276
873,64	39,621
873,80	108,952
873,97	133,495
874,13	18,179
874,30	44,337
874,46	94,669
874,63	35,639
874,80	27,926
874,96	-15,526
875,13	101,827
875,29	41,673
875,46	69,487
875,62	16,805
875,79	103,382
875,95	50,037
876,12	16,982
876,28	8,598
876,45	119,701
876,61	2,514
876,78	36,980
876,94	-1,704
877,11	98,205
877,27	77,913
877,44	-35,620
877,60	38,682
877,77	84,839
877,94	132,289
878,10	14,206
878,27	49,343
878,43	139,878
878,60	38,400
878,76	39,600
878,93	45,430
879,09	75,332
879,26	94,876
879,42	82,203
879,58	65,150
879,75	103,869
879,91	117,448
880,08	-69,527
880,24	45,842
880,41	41,381
880,57	108,439
880,74	-10,286
880,90	38,100
881,07	61,900
881,23	145,177
881,40	56,919
881,56	38,133
881,73	133,229
881,89	86,703
882,06	-18,928
882,22	167,280
882,38	188,410
882,55	162,085
882,71	23,545
882,88	31,031
883,04	162,871
883,21	129,859
883,37	64,973
883,54	72,159
883,70	252,748
883,86	118,108
884,03	48,846
884,19	2,444
884,36	187,964
884,52	166,883
884,69	86,772
884,85	8,873
885,01	286,429
885,18	115,368
885,34	109,707
885,51	31,970
885,67	104,774
>>>>> Data<<<<< Espectral Procesado Extremo
