Fichero De Datos De SpectraSuite
++++++++++++++++++++++++++++++++++++
Fecha: Wed Apr 22 13:03:25 CEST 2009
Usuario: evoflor
Presente Oscuro Del Espectro: Sí
La Referencia de Presente Del Espectro De: Sí
Muestreados de los componentes de Número de espectros: 1
Espectrómetros: USB4F02353
Tiempo de integración (usec): 500000 (USB4F02353)
Promedio de Espectros Hechos un: 5 (USB4F02353)
El Alisar Del Furgón: 0 (USB4F02353)
Párrafo de de Corregir del la del del de Eléctrica del obscuridad: Sí (USB4F02353)
Estrobo/Lámpara Permitido: No (USB4F02353)
Correct for Detector Non-linearity: No (USB4F02353)
Párrafo de de Corregir del la del del de Externa del luz: No (USB4F02353)
Procesado del espectro de Número de pixeles en: 3648
>>>>> Comienza Data<<<<< Espectral Procesado Del EL
177,79	297,084
178,00	297,084
178,22	297,084
178,44	2254,341
178,66	-431,950
178,88	348,681
179,09	-298,957
179,31	308,443
179,53	889,025
179,75	376,973
179,96	566,853
180,18	-293,708
180,40	587,755
180,62	377,334
180,83	-256,384
181,05	-2162,866
181,27	-198955,000
181,49	-86,207
181,70	519,442
181,92	1101,294
182,14	669,744
182,36	110,029
182,58	-117,550
182,79	1518,996
183,01	-128,619
183,23	292,515
183,45	-374,015
183,66	-275,022
183,88	593,265
184,10	-3355,545
184,32	213,998
184,53	225,079
184,75	-301,172
184,97	-44,010
185,18	-164,201
185,40	-519,495
185,62	134,138
185,84	123,919
186,05	203,267
186,27	-247,540
186,49	6648,269
186,71	-4,205
186,92	222,074
187,14	-299,647
187,36	170,040
187,58	161,770
187,79	-186,102
188,01	518,941
188,23	-370,895
188,45	-1,535
188,66	337,746
188,88	-3421,000
189,10	-2988,550
189,31	47,517
189,53	54,297
189,75	437,852
189,97	387,904
190,18	-389,893
190,40	958,559
190,62	-374,194
190,83	-436,099
191,05	244,762
191,27	100,443
191,49	441,225
191,70	-766,130
191,92	-664,025
192,14	-102,358
192,35	716,326
192,57	6301,571
192,79	-3,737
193,01	269,289
193,22	138,243
193,44	-107,602
193,66	155,417
193,87	71,424
194,09	-45,109
194,31	127,876
194,53	661,224
194,74	161,218
194,96	100,198
195,18	180,040
195,39	-472,704
195,61	-159,408
195,83	-393,380
196,04	158,226
196,26	-497,764
196,48	-57,300
196,70	465,318
196,91	212,368
197,13	198,367
197,35	-51,509
197,56	783,142
197,78	2277,276
198,00	1334,650
198,21	764,830
198,43	-1564,855
198,65	208,080
198,86	466,385
199,08	-14,574
199,30	308,006
199,51	-357,834
199,73	272,261
199,95	479,097
200,16	768,673
200,38	418,278
200,60	73,260
200,81	439,518
201,03	225,149
201,25	-1989,550
201,46	157,224
201,68	56,037
201,90	3662,614
202,11	-879,599
202,33	166,526
202,55	540,687
202,76	-153,495
202,98	536,429
203,20	185,793
203,41	-563,974
203,63	165,286
203,85	-173755,000
204,06	37,715
204,28	-158,446
204,50	144,932
204,71	369,002
204,93	367,640
205,15	320,045
205,36	-297,811
205,58	250,585
205,80	-267,361
206,01	97,076
206,23	210,636
206,45	363,332
206,66	174,263
206,88	46,798
207,10	347,852
207,31	455,437
207,53	162,157
207,75	147,554
207,96	786,231
208,18	-284,224
208,39	141,462
208,61	4835,857
208,83	-428,801
209,04	254,507
209,26	-423,295
209,48	216,610
209,69	319,444
209,91	553,564
210,13	86,105
210,34	215,872
210,56	281,056
210,77	-1899,646
210,99	120,710
211,21	13820,882
211,42	-216,869
211,64	-46,434
211,86	327,095
212,07	231,582
212,29	294,536
212,50	194,059
212,72	308,288
212,94	144,269
213,15	251,938
213,37	106,492
213,58	-71,962
213,80	-4084,107
214,02	17685,588
214,23	399,188
214,45	543,131
214,67	-1789,695
214,88	-196,493
215,10	-424,745
215,31	15,841
215,53	100,352
215,75	297,487
215,96	1638,230
216,18	621,901
216,39	225,389
216,61	611,255
216,83	410,067
217,04	2447,809
217,26	-18,782
217,47	233,324
217,69	326,424
217,91	-118,441
218,12	-128755,000
218,34	149,719
218,55	616,061
218,77	62,739
218,99	135,326
219,20	-240,715
219,42	410,297
219,63	-297,559
219,85	-127,399
220,06	-17,096
220,28	151,041
220,50	-15,860
220,71	132,558
220,93	5010,472
221,14	-2835,550
221,36	-79,264
221,58	-114,645
221,79	82,942
222,01	1241,853
222,22	1202,336
222,44	-322,978
222,65	175,977
222,87	623,462
223,09	185,259
223,30	53,219
223,52	112,444
223,73	208,894
223,95	7,683
224,16	310,010
224,38	629,277
224,60	95,222
224,81	290,383
225,03	130,898
225,24	276,801
225,46	34,477
225,67	11,240
225,89	94,313
226,10	558,599
226,32	749,240
226,54	55,237
226,75	-37,093
226,97	237,149
227,18	194,711
227,40	75,962
227,61	13,302
227,83	78,699
228,04	165,855
228,26	95,893
228,47	73,443
228,69	266,693
228,91	175,228
229,12	123,354
229,34	34,787
229,55	79,515
229,77	30,952
229,98	11,201
230,20	58,693
230,41	16,118
230,63	137,481
230,84	52,689
231,06	32,167
231,27	4,804
231,49	62,617
231,71	48,461
231,92	16,816
232,14	49,531
232,35	105,437
232,57	59,560
232,78	17,337
233,00	67,919
233,21	57,218
233,43	33,439
233,64	33,441
233,86	51,610
234,07	53,691
234,29	19,124
234,50	18,010
234,72	49,016
234,93	33,901
235,15	14,869
235,36	16,901
235,58	50,316
235,79	55,742
236,01	22,998
236,22	23,177
236,44	61,547
236,65	37,066
236,87	38,259
237,08	15,011
237,30	18,599
237,51	36,423
237,73	-5,457
237,94	18,970
238,16	22,635
238,37	27,427
238,59	25,281
238,80	21,567
239,02	17,228
239,23	29,087
239,45	2,328
239,66	26,320
239,88	40,647
240,09	23,615
240,31	13,882
240,52	-3,251
240,74	20,009
240,95	20,511
241,17	3,719
241,38	11,000
241,60	19,647
241,81	28,467
242,03	17,894
242,24	12,244
242,46	17,329
242,67	10,131
242,89	10,036
243,10	24,244
243,32	22,259
243,53	19,700
243,75	6,103
243,96	12,264
244,18	20,239
244,39	11,304
244,60	10,159
244,82	4,239
245,03	29,443
245,25	10,604
245,46	27,795
245,68	1,778
245,89	28,800
246,11	20,624
246,32	11,403
246,54	6,433
246,75	12,698
246,97	17,432
247,18	22,268
247,39	6,827
247,61	16,551
247,82	19,164
248,04	5,929
248,25	11,053
248,47	17,343
248,68	18,699
248,90	4,044
249,11	8,029
249,33	25,534
249,54	10,328
249,75	9,338
249,97	5,898
250,18	17,850
250,40	22,829
250,61	-6,850
250,83	4,090
251,04	0,522
251,25	16,798
251,47	6,090
251,68	13,770
251,90	12,052
252,11	19,762
252,33	4,001
252,54	8,614
252,76	7,238
252,97	2,813
253,18	1,072
253,40	6,881
253,61	6,131
253,83	15,781
254,04	12,876
254,25	8,506
254,47	8,431
254,68	9,403
254,90	5,817
255,11	7,311
255,33	11,282
255,54	5,165
255,75	6,222
255,97	6,956
256,18	8,413
256,40	11,416
256,61	7,600
256,82	1,928
257,04	16,813
257,25	3,855
257,47	10,785
257,68	7,572
257,89	10,945
258,11	12,315
258,32	11,333
258,54	9,178
258,75	13,567
258,96	11,567
259,18	3,051
259,39	5,544
259,61	13,865
259,82	1,879
260,03	8,485
260,25	7,571
260,46	9,400
260,68	4,548
260,89	4,923
261,10	5,873
261,32	9,398
261,53	5,233
261,75	9,471
261,96	-1,494
262,17	15,887
262,39	12,730
262,60	4,152
262,81	-2,697
263,03	14,221
263,24	13,966
263,46	2,668
263,67	1,188
263,88	7,972
264,10	10,659
264,31	-0,454
264,52	9,730
264,74	13,596
264,95	7,818
265,17	7,549
265,38	7,120
265,59	8,477
265,81	8,838
266,02	2,233
266,23	1,767
266,45	11,756
266,66	14,717
266,87	8,502
267,09	3,543
267,30	11,487
267,52	11,318
267,73	0,910
267,94	4,649
268,16	11,159
268,37	4,545
268,58	9,984
268,80	4,449
269,01	10,944
269,22	8,123
269,44	9,566
269,65	6,286
269,86	4,261
270,08	9,747
270,29	5,037
270,50	5,008
270,72	8,569
270,93	4,237
271,14	5,554
271,36	4,661
271,57	9,807
271,78	6,453
272,00	6,882
272,21	6,836
272,42	7,664
272,64	10,346
272,85	1,945
273,06	3,178
273,28	10,270
273,49	8,040
273,70	8,631
273,92	10,301
274,13	9,090
274,34	2,269
274,56	7,290
274,77	3,455
274,98	10,720
275,20	5,707
275,41	9,494
275,62	3,443
275,84	7,862
276,05	14,077
276,26	0,496
276,47	-1,554
276,69	11,634
276,90	8,520
277,11	5,672
277,33	4,130
277,54	9,017
277,75	9,140
277,97	4,016
278,18	6,026
278,39	13,355
278,61	3,878
278,82	6,139
279,03	6,252
279,24	8,281
279,46	5,255
279,67	8,172
279,88	4,646
280,10	10,871
280,31	2,204
280,52	5,628
280,73	1,123
280,95	9,553
281,16	11,089
281,37	6,324
281,59	6,725
281,80	13,954
282,01	5,160
282,22	5,921
282,44	0,318
282,65	16,305
282,86	7,891
283,08	5,600
283,29	4,839
283,50	5,794
283,71	5,228
283,93	5,083
284,14	6,586
284,35	8,165
284,56	7,125
284,78	1,745
284,99	7,938
285,20	13,560
285,42	7,204
285,63	3,266
285,84	-0,214
286,05	2,010
286,27	8,643
286,48	4,404
286,69	2,983
286,90	7,207
287,12	4,646
287,33	3,228
287,54	3,385
287,75	12,192
287,97	8,667
288,18	7,240
288,39	2,607
288,60	7,216
288,82	2,426
289,03	4,776
289,24	5,068
289,45	7,196
289,67	5,949
289,88	5,086
290,09	9,838
290,30	6,529
290,52	5,256
290,73	6,462
290,94	0,084
291,15	6,735
291,37	7,698
291,58	4,204
291,79	-0,639
292,00	10,207
292,21	8,017
292,43	6,000
292,64	2,173
292,85	3,751
293,06	11,586
293,28	4,313
293,49	3,274
293,70	9,718
293,91	5,171
294,12	5,167
294,34	8,048
294,55	5,867
294,76	6,609
294,97	8,869
295,19	3,357
295,40	10,103
295,61	7,328
295,82	2,914
296,03	5,155
296,25	4,953
296,46	2,686
296,67	0,455
296,88	2,305
297,09	6,611
297,31	5,056
297,52	9,015
297,73	1,744
297,94	7,190
298,15	8,252
298,37	4,499
298,58	6,311
298,79	6,834
299,00	3,531
299,21	5,374
299,43	2,020
299,64	9,066
299,85	5,512
300,06	3,280
300,27	3,372
300,49	10,980
300,70	6,189
300,91	3,801
301,12	4,749
301,33	6,058
301,54	7,100
301,76	6,494
301,97	5,361
302,18	4,753
302,39	6,788
302,60	14,243
302,82	5,183
303,03	10,216
303,24	7,768
303,45	7,742
303,66	4,641
303,87	3,486
304,09	7,536
304,30	4,595
304,51	4,611
304,72	2,948
304,93	8,471
305,14	5,483
305,36	2,222
305,57	2,380
305,78	5,716
305,99	5,689
306,20	5,367
306,41	3,004
306,62	4,056
306,84	4,592
307,05	2,473
307,26	4,168
307,47	12,130
307,68	5,322
307,89	3,787
308,11	6,290
308,32	4,512
308,53	4,544
308,74	3,251
308,95	7,285
309,16	9,499
309,37	8,002
309,59	4,218
309,80	6,409
310,01	5,115
310,22	6,868
310,43	1,910
310,64	8,787
310,85	6,693
311,06	2,252
311,28	4,177
311,49	3,608
311,70	11,922
311,91	2,262
312,12	1,873
312,33	6,287
312,54	5,824
312,75	4,226
312,97	2,351
313,18	5,593
313,39	2,338
313,60	4,487
313,81	4,388
314,02	5,926
314,23	5,621
314,44	2,291
314,65	4,087
314,87	2,334
315,08	5,060
315,29	7,285
315,50	8,061
315,71	8,277
315,92	10,734
316,13	4,270
316,34	6,689
316,55	7,455
316,77	1,566
316,98	4,102
317,19	4,158
317,40	5,361
317,61	11,567
317,82	3,716
318,03	1,025
318,24	4,536
318,45	9,104
318,66	4,352
318,87	2,200
319,09	9,565
319,30	4,244
319,51	6,711
319,72	5,574
319,93	8,331
320,14	9,283
320,35	5,795
320,56	3,974
320,77	3,408
320,98	9,999
321,19	4,737
321,40	4,297
321,62	8,193
321,83	4,339
322,04	3,035
322,25	7,304
322,46	9,673
322,67	6,638
322,88	5,107
323,09	3,991
323,30	10,918
323,51	7,562
323,72	5,346
323,93	1,685
324,14	4,605
324,35	2,377
324,56	-0,049
324,77	4,479
324,99	6,492
325,20	1,343
325,41	4,866
325,62	6,438
325,83	2,621
326,04	3,616
326,25	6,343
326,46	1,505
326,67	5,885
326,88	7,395
327,09	2,612
327,30	2,514
327,51	10,326
327,72	6,782
327,93	7,962
328,14	2,986
328,35	6,200
328,56	7,155
328,77	3,222
328,98	7,909
329,19	5,240
329,40	7,081
329,61	5,497
329,82	2,919
330,04	6,117
330,25	6,730
330,46	7,933
330,67	2,511
330,88	4,124
331,09	4,132
331,30	0,718
331,51	6,937
331,72	8,231
331,93	7,495
332,14	5,324
332,35	7,555
332,56	7,588
332,77	8,206
332,98	0,816
333,19	4,128
333,40	6,850
333,61	5,316
333,82	8,015
334,03	6,540
334,24	6,860
334,45	4,533
334,66	7,585
334,87	4,668
335,08	3,128
335,29	5,621
335,50	5,249
335,71	4,197
335,92	7,409
336,13	9,193
336,34	3,465
336,55	6,205
336,76	6,157
336,97	6,694
337,18	5,406
337,39	6,585
337,60	4,464
337,81	6,204
338,02	4,985
338,23	5,091
338,44	6,015
338,65	4,927
338,86	8,391
339,07	4,314
339,28	6,995
339,49	4,475
339,70	1,121
339,91	7,124
340,11	9,269
340,32	2,743
340,53	3,378
340,74	2,756
340,95	2,324
341,16	7,253
341,37	2,094
341,58	2,216
341,79	4,039
342,00	5,295
342,21	5,063
342,42	5,471
342,63	8,749
342,84	2,945
343,05	4,747
343,26	9,207
343,47	6,693
343,68	6,545
343,89	3,565
344,10	6,009
344,31	9,633
344,52	3,400
344,73	4,436
344,94	5,217
345,14	5,654
345,35	7,980
345,56	4,587
345,77	4,631
345,98	6,120
346,19	7,977
346,40	4,471
346,61	2,537
346,82	6,845
347,03	6,899
347,24	5,975
347,45	4,510
347,66	10,005
347,87	4,679
348,08	8,239
348,28	-0,426
348,49	6,844
348,70	7,299
348,91	5,267
349,12	1,228
349,33	20,550
349,54	9,234
349,75	6,501
349,96	3,169
350,17	5,291
350,38	7,778
350,59	6,433
350,80	4,247
351,00	12,790
351,21	7,573
351,42	6,849
351,63	1,438
351,84	6,239
352,05	8,342
352,26	3,084
352,47	6,163
352,68	6,467
352,89	7,625
353,09	9,114
353,30	-0,751
353,51	0,961
353,72	10,134
353,93	9,558
354,14	-0,183
354,35	6,883
354,56	9,952
354,77	6,626
354,98	2,484
355,18	6,966
355,39	13,009
355,60	3,668
355,81	6,632
356,02	7,643
356,23	5,998
356,44	6,149
356,65	7,687
356,85	10,470
357,06	8,162
357,27	6,452
357,48	3,000
357,69	8,726
357,90	4,341
358,11	1,366
358,32	4,208
358,52	9,600
358,73	7,831
358,94	5,059
359,15	7,012
359,36	7,456
359,57	4,432
359,78	5,967
359,98	3,965
360,19	2,562
360,40	7,963
360,61	9,401
360,82	4,133
361,03	12,181
361,24	7,248
361,44	5,205
361,65	4,422
361,86	4,239
362,07	5,935
362,28	2,741
362,49	1,432
362,70	6,163
362,90	10,987
363,11	3,384
363,32	5,549
363,53	7,656
363,74	13,219
363,95	8,170
364,15	4,097
364,36	10,493
364,57	8,225
364,78	4,133
364,99	7,679
365,20	6,935
365,40	7,177
365,61	4,253
365,82	8,875
366,03	7,156
366,24	9,401
366,45	4,441
366,65	5,502
366,86	6,703
367,07	5,210
367,28	5,342
367,49	2,971
367,69	11,509
367,90	6,143
368,11	7,908
368,32	4,344
368,53	6,481
368,73	7,859
368,94	2,552
369,15	6,130
369,36	10,361
369,57	9,721
369,78	7,526
369,98	8,079
370,19	11,576
370,40	2,975
370,61	3,886
370,82	5,017
371,02	6,404
371,23	10,631
371,44	5,305
371,65	4,654
371,85	10,281
372,06	2,721
372,27	5,667
372,48	5,847
372,69	3,318
372,89	5,118
373,10	2,646
373,31	4,695
373,52	5,799
373,73	11,709
373,93	4,950
374,14	5,326
374,35	12,121
374,56	9,372
374,76	6,336
374,97	4,290
375,18	8,425
375,39	6,623
375,60	8,012
375,80	6,719
376,01	7,180
376,22	7,492
376,43	4,709
376,63	3,925
376,84	5,004
377,05	8,382
377,26	3,744
377,46	2,207
377,67	5,903
377,88	4,851
378,09	5,892
378,29	1,043
378,50	6,378
378,71	9,374
378,92	1,692
379,12	6,621
379,33	5,091
379,54	5,419
379,75	7,342
379,95	3,077
380,16	9,188
380,37	10,856
380,58	6,402
380,78	6,324
380,99	4,477
381,20	6,542
381,41	4,613
381,61	8,495
381,82	4,591
382,03	6,050
382,24	6,891
382,44	7,383
382,65	6,832
382,86	5,538
383,06	5,670
383,27	4,400
383,48	6,576
383,69	8,022
383,89	7,066
384,10	5,052
384,31	6,252
384,51	11,234
384,72	6,123
384,93	6,612
385,14	6,660
385,34	8,279
385,55	5,501
385,76	4,677
385,96	6,806
386,17	6,273
386,38	8,258
386,59	9,120
386,79	5,873
387,00	11,070
387,21	9,081
387,41	6,912
387,62	1,275
387,83	11,177
388,03	3,368
388,24	3,167
388,45	9,504
388,66	5,180
388,86	8,459
389,07	2,811
389,28	13,928
389,48	6,494
389,69	3,041
389,90	2,854
390,10	6,622
390,31	8,461
390,52	1,960
390,72	5,320
390,93	6,002
391,14	7,562
391,34	5,223
391,55	6,262
391,76	10,787
391,96	10,030
392,17	4,094
392,38	10,681
392,58	9,087
392,79	6,796
393,00	2,505
393,20	5,010
393,41	6,943
393,62	5,898
393,82	8,665
394,03	5,643
394,24	4,415
394,44	10,614
394,65	5,196
394,86	1,001
395,06	10,328
395,27	5,389
395,48	3,780
395,68	7,457
395,89	7,910
396,10	12,612
396,30	2,155
396,51	1,213
396,72	3,975
396,92	3,342
397,13	9,580
397,34	2,301
397,54	6,023
397,75	3,382
397,95	4,044
398,16	4,978
398,37	6,019
398,57	3,407
398,78	6,923
398,99	9,426
399,19	8,983
399,40	13,607
399,60	1,703
399,81	6,486
400,02	10,750
400,22	12,430
400,43	5,480
400,64	4,496
400,84	3,150
401,05	7,761
401,25	8,111
401,46	7,496
401,67	6,348
401,87	4,018
402,08	0,499
402,29	6,440
402,49	11,009
402,70	8,528
402,90	4,930
403,11	4,491
403,32	6,783
403,52	5,748
403,73	6,232
403,93	6,834
404,14	14,011
404,35	7,563
404,55	3,256
404,76	3,601
404,96	6,273
405,17	11,208
405,38	9,752
405,58	4,122
405,79	10,899
405,99	9,453
406,20	2,876
406,40	0,737
406,61	13,211
406,82	6,793
407,02	7,700
407,23	5,090
407,43	4,431
407,64	2,861
407,85	4,889
408,05	1,513
408,26	15,934
408,46	10,785
408,67	2,161
408,87	3,138
409,08	4,264
409,29	12,224
409,49	5,599
409,70	6,601
409,90	8,641
410,11	7,503
410,31	7,903
410,52	2,862
410,72	4,139
410,93	8,451
411,14	3,246
411,34	2,620
411,55	6,705
411,75	10,476
411,96	6,426
412,16	5,508
412,37	3,088
412,57	9,260
412,78	6,162
412,99	2,620
413,19	6,315
413,40	5,542
413,60	3,240
413,81	6,422
414,01	6,622
414,22	5,110
414,42	2,264
414,63	2,041
414,83	9,413
415,04	13,558
415,24	7,174
415,45	4,637
415,65	3,597
415,86	9,445
416,07	3,793
416,27	6,819
416,48	12,307
416,68	11,742
416,89	-0,108
417,09	5,638
417,30	11,072
417,50	7,850
417,71	9,857
417,91	5,570
418,12	5,727
418,32	6,123
418,53	8,367
418,73	2,522
418,94	7,937
419,14	9,038
419,35	1,344
419,55	4,792
419,76	5,958
419,96	2,946
420,17	5,282
420,37	8,475
420,58	8,095
420,78	8,478
420,99	6,893
421,19	7,847
421,40	7,868
421,60	16,298
421,81	7,018
422,01	6,391
422,22	4,375
422,42	7,135
422,63	4,515
422,83	5,163
423,04	11,347
423,24	11,305
423,45	4,459
423,65	10,109
423,86	13,563
424,06	8,283
424,27	6,192
424,47	2,762
424,67	1,735
424,88	8,085
425,08	6,144
425,29	11,625
425,49	6,423
425,70	-1,426
425,90	5,273
426,11	3,877
426,31	9,264
426,52	6,264
426,72	0,631
426,93	4,148
427,13	10,137
427,33	6,392
427,54	5,634
427,74	9,154
427,95	10,698
428,15	2,858
428,36	7,801
428,56	4,598
428,77	11,102
428,97	7,471
429,18	2,677
429,38	3,557
429,58	8,710
429,79	10,443
429,99	5,706
430,20	-0,032
430,40	11,041
430,61	6,252
430,81	0,660
431,01	6,912
431,22	12,103
431,42	11,468
431,63	3,102
431,83	5,917
432,04	13,324
432,24	8,886
432,44	3,714
432,65	4,511
432,85	7,836
433,06	10,190
433,26	5,103
433,47	6,658
433,67	8,888
433,87	8,787
434,08	5,272
434,28	5,215
434,49	6,789
434,69	13,112
434,89	7,268
435,10	5,725
435,30	12,137
435,51	3,471
435,71	6,982
435,91	3,820
436,12	7,702
436,32	9,852
436,53	3,708
436,73	7,064
436,93	9,409
437,14	10,390
437,34	2,947
437,55	6,979
437,75	3,309
437,95	10,363
438,16	6,840
438,36	5,479
438,57	2,772
438,77	5,938
438,97	5,703
439,18	10,816
439,38	3,899
439,58	4,169
439,79	5,410
439,99	5,148
440,20	10,988
440,40	6,987
440,60	5,116
440,81	7,022
441,01	10,512
441,21	9,243
441,42	11,234
441,62	6,812
441,83	8,435
442,03	5,518
442,23	8,041
442,44	8,299
442,64	10,025
442,84	3,347
443,05	6,022
443,25	1,716
443,45	4,914
443,66	4,368
443,86	3,805
444,06	6,401
444,27	7,059
444,47	8,177
444,67	1,552
444,88	6,464
445,08	5,711
445,28	7,190
445,49	1,124
445,69	2,166
445,90	6,611
446,10	12,416
446,30	10,271
446,51	5,161
446,71	12,858
446,91	13,399
447,12	12,088
447,32	4,977
447,52	7,955
447,72	7,675
447,93	7,836
448,13	3,020
448,33	11,407
448,54	9,213
448,74	4,134
448,94	8,345
449,15	13,049
449,35	13,428
449,55	5,417
449,76	16,131
449,96	6,767
450,16	11,084
450,37	4,082
450,57	9,307
450,77	1,194
450,98	11,648
451,18	11,845
451,38	8,307
451,58	9,528
451,79	10,847
451,99	10,643
452,19	10,338
452,40	9,196
452,60	7,534
452,80	5,865
453,00	6,080
453,21	10,650
453,41	8,558
453,61	6,548
453,82	11,182
454,02	3,720
454,22	9,679
454,42	11,032
454,63	4,229
454,83	9,569
455,03	11,538
455,24	9,723
455,44	2,423
455,64	6,116
455,84	0,130
456,05	2,714
456,25	3,350
456,45	11,756
456,65	6,040
456,86	5,606
457,06	5,654
457,26	8,594
457,47	13,246
457,67	8,720
457,87	3,294
458,07	9,288
458,28	10,919
458,48	7,765
458,68	4,438
458,88	11,313
459,09	7,529
459,29	5,826
459,49	4,237
459,69	7,275
459,90	10,067
460,10	6,953
460,30	5,584
460,50	2,897
460,71	11,726
460,91	6,638
461,11	11,613
461,31	4,474
461,52	12,824
461,72	7,913
461,92	6,784
462,12	17,922
462,32	1,153
462,53	6,044
462,73	7,001
462,93	9,724
463,13	8,040
463,34	6,309
463,54	7,477
463,74	6,919
463,94	11,462
464,14	5,528
464,35	4,073
464,55	13,095
464,75	14,937
464,95	10,854
465,16	3,300
465,36	10,183
465,56	7,539
465,76	4,901
465,96	4,878
466,17	8,354
466,37	6,679
466,57	8,070
466,77	9,537
466,97	7,077
467,18	14,149
467,38	9,711
467,58	7,615
467,78	13,377
467,98	8,815
468,19	12,270
468,39	8,863
468,59	12,437
468,79	8,571
468,99	9,080
469,19	8,661
469,40	11,696
469,60	4,255
469,80	4,127
470,00	12,685
470,20	12,097
470,41	9,296
470,61	9,355
470,81	8,166
471,01	8,507
471,21	8,627
471,41	5,850
471,62	7,593
471,82	4,579
472,02	6,827
472,22	8,310
472,42	7,650
472,62	11,513
472,83	4,314
473,03	13,124
473,23	7,974
473,43	15,104
473,63	8,759
473,83	9,179
474,03	8,624
474,24	14,720
474,44	9,523
474,64	11,991
474,84	5,139
475,04	11,018
475,24	11,946
475,45	6,921
475,65	6,632
475,85	15,003
476,05	8,567
476,25	12,565
476,45	11,052
476,65	14,421
476,85	10,378
477,06	10,017
477,26	5,690
477,46	10,726
477,66	9,902
477,86	12,585
478,06	5,496
478,26	13,260
478,46	8,829
478,67	11,231
478,87	12,223
479,07	9,093
479,27	14,125
479,47	11,755
479,67	4,731
479,87	10,328
480,07	15,413
480,28	10,591
480,48	8,273
480,68	14,835
480,88	15,305
481,08	14,344
481,28	11,432
481,48	10,867
481,68	11,725
481,88	8,619
482,08	9,672
482,29	16,170
482,49	12,284
482,69	14,241
482,89	11,498
483,09	17,024
483,29	12,333
483,49	11,921
483,69	14,170
483,89	13,326
484,09	9,609
484,29	7,838
484,50	13,040
484,70	12,748
484,90	13,401
485,10	12,683
485,30	16,135
485,50	20,707
485,70	15,234
485,90	13,347
486,10	10,683
486,30	13,575
486,50	14,081
486,70	13,715
486,90	14,045
487,10	17,950
487,30	15,326
487,51	14,967
487,71	13,732
487,91	17,535
488,11	19,059
488,31	11,042
488,51	17,806
488,71	15,292
488,91	16,866
489,11	14,138
489,31	15,860
489,51	17,209
489,71	17,399
489,91	16,834
490,11	17,169
490,31	19,050
490,51	20,871
490,71	18,173
490,91	19,131
491,11	20,406
491,31	18,504
491,51	14,702
491,72	18,003
491,92	20,110
492,12	23,630
492,32	18,408
492,52	21,050
492,72	21,832
492,92	20,673
493,12	23,325
493,32	16,980
493,52	18,462
493,72	20,292
493,92	21,900
494,12	21,548
494,32	22,207
494,52	20,599
494,72	20,433
494,92	22,721
495,12	22,677
495,32	25,264
495,52	20,236
495,72	22,345
495,92	27,622
496,12	27,418
496,32	20,569
496,52	24,477
496,72	24,508
496,92	26,485
497,12	24,538
497,32	28,073
497,52	27,924
497,72	28,087
497,92	25,476
498,12	22,821
498,32	26,315
498,52	26,507
498,72	26,124
498,92	23,355
499,12	27,030
499,32	23,593
499,52	29,869
499,72	28,767
499,92	32,392
500,12	31,887
500,32	31,665
500,52	29,028
500,72	32,541
500,91	32,548
501,11	29,574
501,31	26,171
501,51	31,427
501,71	34,384
501,91	34,074
502,11	30,648
502,31	30,387
502,51	36,036
502,71	31,719
502,91	30,365
503,11	30,991
503,31	34,927
503,51	30,430
503,71	31,392
503,91	34,047
504,11	34,675
504,31	33,758
504,51	34,106
504,71	37,214
504,91	35,428
505,10	37,221
505,30	33,780
505,50	36,349
505,70	36,232
505,90	36,092
506,10	34,602
506,30	36,013
506,50	37,628
506,70	39,273
506,90	35,480
507,10	35,230
507,30	36,705
507,50	39,117
507,70	38,784
507,89	38,528
508,09	37,053
508,29	36,193
508,49	36,913
508,69	39,988
508,89	36,535
509,09	37,642
509,29	37,396
509,49	43,197
509,69	44,638
509,89	40,441
510,09	38,303
510,28	41,745
510,48	42,605
510,68	39,509
510,88	40,509
511,08	41,758
511,28	41,421
511,48	40,692
511,68	39,114
511,88	37,614
512,07	44,034
512,27	44,375
512,47	40,470
512,67	41,400
512,87	41,188
513,07	42,698
513,27	42,694
513,47	45,097
513,67	39,904
513,86	47,741
514,06	44,487
514,26	42,463
514,46	48,349
514,66	43,289
514,86	43,704
515,06	49,558
515,26	47,186
515,45	47,447
515,65	45,706
515,85	45,382
516,05	46,065
516,25	44,419
516,45	48,514
516,65	44,100
516,84	47,933
517,04	48,960
517,24	45,844
517,44	49,592
517,64	49,752
517,84	50,398
518,04	49,074
518,23	50,356
518,43	51,332
518,63	45,159
518,83	45,406
519,03	48,743
519,23	51,492
519,42	48,487
519,62	47,879
519,82	49,701
520,02	50,835
520,22	47,587
520,42	48,372
520,61	49,472
520,81	51,710
521,01	53,348
521,21	47,238
521,41	48,222
521,61	51,154
521,80	48,190
522,00	53,310
522,20	54,762
522,40	53,241
522,60	51,742
522,79	51,184
522,99	54,281
523,19	52,470
523,39	50,779
523,59	52,714
523,78	51,558
523,98	50,745
524,18	53,100
524,38	52,652
524,58	53,133
524,77	56,579
524,97	52,526
525,17	53,936
525,37	55,517
525,57	63,695
525,76	50,679
525,96	53,408
526,16	51,022
526,36	51,633
526,56	53,378
526,75	51,750
526,95	55,212
527,15	52,184
527,35	52,746
527,55	51,430
527,74	54,928
527,94	52,966
528,14	52,080
528,34	52,559
528,53	54,652
528,73	57,907
528,93	56,042
529,13	53,925
529,32	57,580
529,52	54,923
529,72	52,859
529,92	55,225
530,12	55,726
530,31	52,797
530,51	54,643
530,71	56,503
530,91	56,850
531,10	52,740
531,30	51,147
531,50	50,235
531,70	58,394
531,89	54,981
532,09	51,714
532,29	51,881
532,49	55,589
532,68	54,396
532,88	52,809
533,08	52,839
533,28	55,782
533,47	57,034
533,67	52,794
533,87	54,531
534,06	63,076
534,26	54,692
534,46	55,715
534,66	57,841
534,85	60,215
535,05	51,133
535,25	53,507
535,45	52,709
535,64	56,177
535,84	56,895
536,04	52,487
536,23	57,092
536,43	60,057
536,63	52,644
536,83	55,198
537,02	53,265
537,22	53,844
537,42	53,862
537,61	53,330
537,81	56,642
538,01	56,384
538,20	57,969
538,40	54,940
538,60	56,559
538,80	54,617
538,99	55,671
539,19	53,657
539,39	53,784
539,58	56,342
539,78	52,211
539,98	53,466
540,17	53,985
540,37	55,662
540,57	53,678
540,76	52,794
540,96	49,797
541,16	54,978
541,36	50,318
541,55	51,054
541,75	49,746
541,95	51,964
542,14	51,652
542,34	49,549
542,54	48,651
542,73	51,874
542,93	52,087
543,13	51,125
543,32	51,640
543,52	53,208
543,72	49,126
543,91	49,828
544,11	51,065
544,31	51,842
544,50	50,973
544,70	51,538
544,89	51,855
545,09	53,092
545,29	51,243
545,48	53,379
545,68	50,103
545,88	51,705
546,07	49,519
546,27	50,171
546,47	52,502
546,66	53,747
546,86	56,093
547,06	53,055
547,25	51,123
547,45	56,007
547,64	53,406
547,84	57,711
548,04	55,746
548,23	57,032
548,43	57,309
548,63	59,580
548,82	55,865
549,02	57,699
549,21	55,619
549,41	54,541
549,61	55,252
549,80	54,041
550,00	57,398
550,20	52,851
550,39	57,193
550,59	55,668
550,78	57,271
550,98	55,799
551,18	58,313
551,37	57,049
551,57	54,021
551,76	53,399
551,96	54,266
552,16	57,855
552,35	58,514
552,55	56,043
552,74	53,823
552,94	57,390
553,14	54,924
553,33	56,967
553,53	55,781
553,72	55,809
553,92	60,171
554,12	55,641
554,31	55,238
554,51	55,320
554,70	53,598
554,90	57,311
555,09	59,774
555,29	59,634
555,49	56,809
555,68	56,006
555,88	56,250
556,07	57,769
556,27	63,323
556,46	56,935
556,66	54,463
556,86	61,005
557,05	56,017
557,25	55,642
557,44	57,378
557,64	55,726
557,83	58,844
558,03	56,162
558,22	56,098
558,42	57,379
558,62	59,489
558,81	55,983
559,01	54,588
559,20	58,477
559,40	55,272
559,59	55,306
559,79	53,384
559,98	57,402
560,18	59,151
560,37	57,649
560,57	58,435
560,76	57,058
560,96	55,523
561,16	57,199
561,35	58,970
561,55	60,373
561,74	57,478
561,94	58,506
562,13	55,982
562,33	61,487
562,52	59,630
562,72	55,593
562,91	57,177
563,11	58,958
563,30	62,073
563,50	55,203
563,69	57,168
563,89	54,792
564,08	58,788
564,28	54,477
564,47	57,556
564,67	59,617
564,86	56,386
565,06	54,917
565,25	54,948
565,45	56,416
565,64	62,580
565,84	55,063
566,03	56,398
566,23	59,181
566,42	57,123
566,62	58,616
566,81	57,564
567,01	60,018
567,20	59,576
567,40	54,672
567,59	54,435
567,79	61,080
567,98	60,334
568,18	57,629
568,37	58,015
568,57	57,270
568,76	60,183
568,96	57,299
569,15	56,276
569,35	58,288
569,54	60,400
569,73	58,833
569,93	56,310
570,12	56,316
570,32	58,623
570,51	57,336
570,71	59,086
570,90	59,204
571,10	59,650
571,29	56,061
571,49	55,725
571,68	59,764
571,87	58,706
572,07	57,592
572,26	54,556
572,46	57,814
572,65	60,415
572,85	54,615
573,04	55,974
573,24	59,506
573,43	60,394
573,62	59,416
573,82	56,300
574,01	58,876
574,21	56,766
574,40	54,162
574,60	55,295
574,79	61,419
574,98	57,490
575,18	58,165
575,37	53,188
575,57	58,462
575,76	59,005
575,96	56,106
576,15	55,864
576,34	55,419
576,54	57,558
576,73	57,889
576,93	56,859
577,12	57,413
577,31	57,769
577,51	53,790
577,70	56,730
577,90	57,749
578,09	58,123
578,28	56,668
578,48	58,253
578,67	59,147
578,87	58,649
579,06	56,339
579,25	56,701
579,45	58,269
579,64	56,161
579,84	55,266
580,03	56,295
580,22	59,382
580,42	55,011
580,61	57,132
580,81	56,250
581,00	57,097
581,19	58,400
581,39	55,894
581,58	54,171
581,77	56,562
581,97	60,766
582,16	56,399
582,35	56,744
582,55	58,252
582,74	59,565
582,94	58,703
583,13	56,322
583,32	56,275
583,52	58,425
583,71	56,920
583,90	58,251
584,10	57,959
584,29	58,915
584,48	54,816
584,68	57,338
584,87	59,712
585,06	57,485
585,26	56,450
585,45	55,097
585,65	59,151
585,84	54,966
586,03	56,141
586,23	56,428
586,42	57,727
586,61	60,770
586,81	57,749
587,00	56,733
587,19	57,049
587,39	59,001
587,58	57,238
587,77	57,734
587,97	56,882
588,16	58,358
588,35	57,989
588,54	57,795
588,74	56,347
588,93	58,512
589,12	57,396
589,32	55,663
589,51	56,472
589,70	56,102
589,90	57,694
590,09	55,549
590,28	59,988
590,48	56,699
590,67	55,642
590,86	57,766
591,06	56,694
591,25	60,084
591,44	58,863
591,63	57,331
591,83	58,842
592,02	57,939
592,21	56,568
592,41	56,405
592,60	58,961
592,79	58,345
592,98	55,733
593,18	57,453
593,37	57,937
593,56	57,729
593,76	58,156
593,95	56,922
594,14	58,637
594,33	61,072
594,53	58,989
594,72	59,007
594,91	63,048
595,10	56,407
595,30	57,565
595,49	58,691
595,68	60,434
595,88	61,153
596,07	58,896
596,26	58,867
596,45	59,324
596,65	56,215
596,84	57,712
597,03	57,749
597,22	59,991
597,42	60,455
597,61	58,148
597,80	58,784
597,99	57,991
598,19	61,605
598,38	59,543
598,57	60,159
598,76	59,508
598,95	59,691
599,15	59,562
599,34	59,068
599,53	58,087
599,72	58,613
599,92	60,479
600,11	59,313
600,30	57,807
600,49	61,236
600,69	57,015
600,88	59,107
601,07	59,650
601,26	58,865
601,45	59,349
601,65	57,795
601,84	59,119
602,03	60,228
602,22	59,660
602,42	59,224
602,61	58,796
602,80	60,834
602,99	57,957
603,18	57,954
603,38	60,403
603,57	59,261
603,76	58,069
603,95	58,121
604,14	61,149
604,34	58,770
604,53	59,246
604,72	59,622
604,91	59,638
605,10	59,325
605,29	60,888
605,49	58,028
605,68	59,815
605,87	60,963
606,06	57,059
606,25	58,388
606,45	60,362
606,64	60,402
606,83	59,820
607,02	57,751
607,21	59,912
607,40	60,471
607,60	57,351
607,79	56,319
607,98	56,951
608,17	57,777
608,36	57,795
608,55	58,058
608,75	58,445
608,94	59,654
609,13	55,061
609,32	53,779
609,51	56,799
609,70	53,377
609,89	56,244
610,09	55,346
610,28	56,977
610,47	55,208
610,66	54,438
610,85	53,419
611,04	57,595
611,23	55,617
611,43	53,395
611,62	54,685
611,81	53,956
612,00	56,121
612,19	55,413
612,38	56,094
612,57	56,730
612,77	56,752
612,96	54,967
613,15	56,073
613,34	58,115
613,53	56,977
613,72	58,292
613,91	57,568
614,10	57,434
614,29	59,052
614,49	55,371
614,68	56,165
614,87	58,288
615,06	59,466
615,25	55,072
615,44	58,610
615,63	59,210
615,82	56,560
616,01	57,152
616,21	57,616
616,40	60,675
616,59	60,865
616,78	58,223
616,97	57,926
617,16	57,456
617,35	59,591
617,54	59,394
617,73	61,427
617,92	59,071
618,11	60,373
618,31	58,571
618,50	59,677
618,69	58,251
618,88	59,627
619,07	56,134
619,26	56,610
619,45	59,085
619,64	58,758
619,83	57,493
620,02	57,975
620,21	60,880
620,40	60,619
620,59	57,339
620,78	55,161
620,97	58,685
621,17	59,125
621,36	58,679
621,55	57,533
621,74	57,207
621,93	58,210
622,12	57,824
622,31	55,319
622,50	58,599
622,69	61,844
622,88	58,531
623,07	60,041
623,26	59,916
623,45	60,459
623,64	57,962
623,83	56,159
624,02	61,013
624,21	61,655
624,40	58,203
624,59	57,331
624,78	59,996
624,97	63,026
625,16	54,885
625,35	56,903
625,54	57,354
625,73	57,070
625,92	59,944
626,12	59,262
626,31	59,845
626,50	59,873
626,69	58,508
626,88	57,474
627,07	58,152
627,26	58,488
627,45	56,771
627,64	59,003
627,83	60,133
628,02	56,891
628,21	57,488
628,40	57,749
628,59	63,457
628,78	57,938
628,97	56,654
629,16	55,975
629,35	57,562
629,54	62,825
629,73	57,015
629,92	58,203
630,10	58,355
630,29	59,778
630,48	58,161
630,67	56,550
630,86	60,905
631,05	59,315
631,24	59,567
631,43	57,744
631,62	59,493
631,81	60,149
632,00	58,391
632,19	55,609
632,38	58,894
632,57	60,356
632,76	58,472
632,95	59,291
633,14	60,826
633,33	59,906
633,52	58,640
633,71	59,292
633,90	58,212
634,09	59,003
634,28	58,871
634,47	57,887
634,66	59,622
634,85	58,876
635,04	60,308
635,22	58,772
635,41	58,305
635,60	61,428
635,79	60,742
635,98	57,532
636,17	59,313
636,36	57,981
636,55	56,359
636,74	58,544
636,93	60,042
637,12	60,191
637,31	58,644
637,50	55,492
637,69	62,081
637,87	60,914
638,06	58,603
638,25	58,686
638,44	58,584
638,63	56,365
638,82	58,987
639,01	59,059
639,20	57,004
639,39	61,548
639,58	57,478
639,77	60,161
639,95	57,813
640,14	60,489
640,33	56,814
640,52	57,276
640,71	61,605
640,90	58,571
641,09	60,719
641,28	57,598
641,47	61,388
641,66	59,506
641,84	58,554
642,03	55,870
642,22	59,540
642,41	60,935
642,60	56,969
642,79	59,850
642,98	59,878
643,17	59,066
643,35	58,013
643,54	58,848
643,73	58,741
643,92	62,276
644,11	57,959
644,30	58,104
644,49	60,699
644,67	58,323
644,86	56,667
645,05	60,036
645,24	58,692
645,43	57,502
645,62	58,640
645,81	59,457
645,99	62,036
646,18	61,446
646,37	57,509
646,56	58,798
646,75	60,512
646,94	61,330
647,13	57,796
647,31	58,569
647,50	58,966
647,69	61,079
647,88	59,921
648,07	58,758
648,26	63,903
648,44	59,400
648,63	56,868
648,82	57,422
649,01	62,832
649,20	57,955
649,38	58,997
649,57	59,586
649,76	58,209
649,95	59,430
650,14	56,103
650,33	57,237
650,51	58,595
650,70	60,314
650,89	58,561
651,08	56,994
651,27	59,117
651,45	57,917
651,64	56,983
651,83	59,296
652,02	59,285
652,21	59,721
652,39	60,262
652,58	61,253
652,77	57,168
652,96	58,348
653,15	58,803
653,33	58,439
653,52	57,656
653,71	59,334
653,90	59,741
654,09	57,488
654,27	59,225
654,46	60,644
654,65	59,609
654,84	59,633
655,02	61,061
655,21	58,812
655,40	61,263
655,59	59,025
655,77	59,557
655,96	60,143
656,15	59,383
656,34	61,692
656,53	59,167
656,71	59,140
656,90	59,870
657,09	61,752
657,28	60,542
657,46	58,852
657,65	58,602
657,84	57,263
658,03	58,563
658,21	59,273
658,40	55,966
658,59	59,018
658,78	60,683
658,96	57,215
659,15	56,491
659,34	58,105
659,52	59,669
659,71	59,327
659,90	57,894
660,09	59,178
660,27	58,688
660,46	59,209
660,65	58,425
660,84	56,009
661,02	58,605
661,21	57,763
661,40	58,121
661,58	58,128
661,77	57,531
661,96	54,927
662,15	57,436
662,33	55,831
662,52	56,138
662,71	57,383
662,89	55,903
663,08	56,404
663,27	58,250
663,45	56,719
663,64	57,033
663,83	54,087
664,02	57,487
664,20	59,665
664,39	55,643
664,58	58,558
664,76	58,274
664,95	59,135
665,14	57,790
665,32	55,842
665,51	57,405
665,70	59,368
665,88	59,175
666,07	55,379
666,26	59,150
666,44	59,743
666,63	55,324
666,82	57,690
667,00	59,037
667,19	55,718
667,38	57,677
667,56	58,399
667,75	59,077
667,94	58,958
668,12	54,341
668,31	57,782
668,50	57,829
668,68	60,115
668,87	54,774
669,06	56,867
669,24	59,652
669,43	56,150
669,62	54,595
669,80	54,531
669,99	57,515
670,18	57,154
670,36	54,172
670,55	55,316
670,74	58,686
670,92	52,798
671,11	56,332
671,29	55,903
671,48	57,755
671,67	58,416
671,85	56,833
672,04	55,916
672,23	54,255
672,41	57,335
672,60	56,129
672,78	54,815
672,97	56,006
673,16	57,195
673,34	56,218
673,53	55,284
673,71	58,411
673,90	57,700
674,09	56,258
674,27	56,305
674,46	54,865
674,64	57,106
674,83	56,528
675,02	54,112
675,20	57,054
675,39	56,571
675,57	56,637
675,76	53,804
675,95	59,087
676,13	57,769
676,32	58,103
676,50	58,321
676,69	54,363
676,88	56,489
677,06	54,475
677,25	56,540
677,43	60,369
677,62	57,678
677,80	56,833
677,99	56,401
678,18	58,081
678,36	58,379
678,55	54,522
678,73	54,782
678,92	57,813
679,10	58,843
679,29	56,341
679,48	55,751
679,66	55,752
679,85	55,794
680,03	55,243
680,22	55,919
680,40	56,845
680,59	57,225
680,77	55,336
680,96	57,250
681,15	57,561
681,33	57,605
681,52	56,715
681,70	56,048
681,89	59,367
682,07	56,996
682,26	56,803
682,44	57,355
682,63	57,336
682,81	57,515
683,00	56,873
683,18	55,084
683,37	59,180
683,55	56,519
683,74	57,885
683,92	63,184
684,11	58,212
684,29	56,530
684,48	54,323
684,67	55,800
684,85	58,048
685,04	56,806
685,22	56,173
685,41	56,444
685,59	57,687
685,78	56,643
685,96	55,993
686,15	56,385
686,33	56,537
686,52	56,987
686,70	57,849
686,89	57,310
687,07	58,367
687,26	59,131
687,44	58,866
687,62	56,666
687,81	59,991
687,99	56,944
688,18	56,675
688,36	58,596
688,55	58,619
688,73	58,518
688,92	55,887
689,10	57,643
689,29	58,810
689,47	59,277
689,66	58,955
689,84	57,766
690,03	62,106
690,21	57,943
690,40	56,386
690,58	57,724
690,76	55,767
690,95	59,298
691,13	55,869
691,32	57,632
691,50	59,172
691,69	59,443
691,87	57,882
692,06	59,148
692,24	57,131
692,43	59,913
692,61	56,319
692,79	56,276
692,98	55,595
693,16	60,363
693,35	58,231
693,53	58,462
693,72	59,689
693,90	61,240
694,08	57,748
694,27	56,850
694,45	59,702
694,64	60,673
694,82	58,618
695,01	56,568
695,19	58,538
695,37	58,976
695,56	57,222
695,74	57,122
695,93	59,401
696,11	56,634
696,29	60,211
696,48	57,816
696,66	60,129
696,85	58,310
697,03	57,792
697,21	59,956
697,40	59,658
697,58	57,587
697,77	58,510
697,95	59,740
698,13	61,211
698,32	58,047
698,50	59,749
698,69	58,194
698,87	58,817
699,05	58,088
699,24	55,775
699,42	58,092
699,60	55,847
699,79	59,611
699,97	58,558
700,16	54,684
700,34	59,804
700,52	59,710
700,71	57,796
700,89	57,570
701,07	59,633
701,26	59,323
701,44	57,342
701,63	56,488
701,81	59,025
701,99	60,311
702,18	57,361
702,36	57,575
702,54	58,824
702,73	57,500
702,91	58,593
703,09	56,615
703,28	57,851
703,46	60,230
703,64	57,799
703,83	59,571
704,01	59,005
704,19	59,341
704,38	57,154
704,56	56,382
704,74	59,724
704,93	59,078
705,11	59,459
705,29	58,391
705,48	64,403
705,66	59,507
705,84	57,400
706,03	55,994
706,21	59,985
706,39	58,023
706,58	56,841
706,76	58,086
706,94	58,803
707,12	58,801
707,31	56,355
707,49	56,020
707,67	58,789
707,86	61,396
708,04	57,972
708,22	56,001
708,41	58,875
708,59	58,832
708,77	55,216
708,95	58,909
709,14	63,380
709,32	59,993
709,50	56,409
709,69	57,641
709,87	59,042
710,05	59,051
710,23	57,728
710,42	56,070
710,60	59,012
710,78	59,788
710,97	59,717
711,15	57,620
711,33	59,560
711,51	57,729
711,70	56,519
711,88	56,166
712,06	60,114
712,24	58,643
712,43	59,015
712,61	55,551
712,79	59,500
712,97	58,830
713,16	58,616
713,34	56,419
713,52	58,614
713,70	58,819
713,89	57,332
714,07	58,731
714,25	58,060
714,43	60,928
714,62	57,043
714,80	57,714
714,98	55,214
715,16	58,722
715,35	56,936
715,53	56,820
715,71	60,699
715,89	61,750
716,07	59,026
716,26	61,438
716,44	57,575
716,62	60,185
716,80	57,836
716,99	57,521
717,17	60,461
717,35	59,716
717,53	55,013
717,71	56,588
717,90	58,363
718,08	60,602
718,26	54,202
718,44	59,685
718,62	60,136
718,81	59,745
718,99	56,972
719,17	57,430
719,35	58,649
719,53	57,556
719,72	57,578
719,90	59,157
720,08	56,393
720,26	59,522
720,44	58,253
720,62	55,921
720,81	60,748
720,99	61,795
721,17	58,791
721,35	60,211
721,53	57,143
721,72	61,284
721,90	57,365
722,08	58,873
722,26	60,152
722,44	57,674
722,62	58,383
722,81	54,671
722,99	58,958
723,17	59,964
723,35	59,207
723,53	58,662
723,71	59,534
723,89	63,242
724,08	54,370
724,26	57,129
724,44	60,135
724,62	58,791
724,80	56,615
724,98	59,488
725,16	61,035
725,35	59,557
725,53	56,932
725,71	56,890
725,89	59,497
726,07	63,955
726,25	61,887
726,43	58,777
726,61	59,781
726,80	60,745
726,98	56,906
727,16	58,343
727,34	60,171
727,52	58,146
727,70	57,436
727,88	56,705
728,06	56,642
728,25	57,958
728,43	59,517
728,61	58,889
728,79	58,082
728,97	58,619
729,15	57,177
729,33	57,954
729,51	60,335
729,69	59,898
729,87	59,260
730,06	57,680
730,24	59,315
730,42	62,822
730,60	57,738
730,78	56,193
730,96	59,312
731,14	58,051
731,32	58,220
731,50	57,292
731,68	58,301
731,86	58,357
732,04	58,678
732,22	58,278
732,41	62,576
732,59	58,580
732,77	59,996
732,95	59,448
733,13	60,969
733,31	58,256
733,49	57,942
733,67	58,721
733,85	58,342
734,03	58,289
734,21	58,211
734,39	58,781
734,57	60,896
734,75	60,194
734,93	58,199
735,11	57,898
735,29	58,526
735,47	60,925
735,65	58,265
735,84	58,086
736,02	60,153
736,20	64,378
736,38	58,865
736,56	58,311
736,74	58,359
736,92	58,896
737,10	58,636
737,28	59,345
737,46	58,091
737,64	58,297
737,82	58,712
738,00	58,620
738,18	61,641
738,36	60,454
738,54	58,048
738,72	57,056
738,90	59,890
739,08	61,208
739,26	55,796
739,44	60,422
739,62	60,279
739,80	59,926
739,98	57,748
740,16	59,859
740,34	58,299
740,52	60,125
740,70	59,177
740,88	55,150
741,06	59,408
741,24	58,571
741,42	59,769
741,60	57,961
741,78	60,936
741,96	58,734
742,14	58,983
742,32	55,649
742,50	60,207
742,68	59,412
742,86	59,031
743,04	56,274
743,21	60,983
743,39	61,377
743,57	57,984
743,75	58,234
743,93	57,490
744,11	56,860
744,29	56,548
744,47	58,357
744,65	59,438
744,83	57,727
745,01	57,014
745,19	61,072
745,37	63,218
745,55	60,796
745,73	59,268
745,91	57,979
746,09	56,243
746,27	58,599
746,45	54,737
746,62	57,970
746,80	56,713
746,98	60,138
747,16	57,500
747,34	58,190
747,52	56,820
747,70	58,824
747,88	58,116
748,06	56,230
748,24	59,331
748,42	61,303
748,60	59,112
748,78	56,841
748,95	62,107
749,13	64,200
749,31	57,094
749,49	57,096
749,67	61,682
749,85	61,443
750,03	58,269
750,21	58,927
750,39	59,892
750,57	62,478
750,74	59,716
750,92	58,727
751,10	60,107
751,28	56,908
751,46	56,884
751,64	61,185
751,82	59,061
752,00	60,082
752,17	57,100
752,35	56,645
752,53	61,134
752,71	58,084
752,89	59,828
753,07	56,502
753,25	59,882
753,43	57,030
753,60	60,404
753,78	56,403
753,96	59,890
754,14	58,056
754,32	58,706
754,50	58,843
754,68	60,833
754,85	59,531
755,03	60,112
755,21	57,316
755,39	63,137
755,57	60,086
755,75	57,269
755,92	57,352
756,10	59,822
756,28	61,191
756,46	56,832
756,64	59,574
756,82	60,643
756,99	58,014
757,17	57,739
757,35	55,759
757,53	62,036
757,71	62,865
757,89	57,907
758,06	60,665
758,24	57,922
758,42	58,758
758,60	57,355
758,78	57,895
758,95	60,577
759,13	57,874
759,31	55,883
759,49	57,110
759,67	57,897
759,84	57,252
760,02	59,012
760,20	57,740
760,38	60,517
760,56	57,350
760,73	59,183
760,91	58,805
761,09	62,180
761,27	57,082
761,45	60,337
761,62	56,873
761,80	60,394
761,98	59,322
762,16	57,830
762,33	55,909
762,51	60,568
762,69	57,467
762,87	57,551
763,05	59,343
763,22	58,542
763,40	58,684
763,58	57,622
763,76	58,356
763,93	63,222
764,11	59,714
764,29	58,649
764,47	58,492
764,64	60,409
764,82	62,889
765,00	58,119
765,18	55,757
765,35	58,058
765,53	60,256
765,71	57,679
765,89	56,167
766,06	56,768
766,24	60,006
766,42	59,887
766,60	57,979
766,77	58,854
766,95	56,863
767,13	58,897
767,30	59,362
767,48	58,688
767,66	57,933
767,84	57,523
768,01	56,798
768,19	59,843
768,37	59,122
768,54	58,505
768,72	61,548
768,90	59,169
769,08	60,304
769,25	59,080
769,43	58,369
769,61	56,107
769,78	60,088
769,96	57,788
770,14	59,926
770,31	59,934
770,49	63,256
770,67	59,211
770,85	56,162
771,02	59,606
771,20	57,488
771,38	60,508
771,55	58,325
771,73	58,628
771,91	60,742
772,08	59,709
772,26	58,146
772,44	58,126
772,61	60,041
772,79	57,312
772,97	58,923
773,14	57,497
773,32	62,655
773,50	59,496
773,67	55,504
773,85	62,817
774,03	62,014
774,20	60,852
774,38	57,432
774,56	59,880
774,73	59,203
774,91	57,374
775,09	56,886
775,26	61,167
775,44	60,437
775,61	57,893
775,79	57,349
775,97	59,325
776,14	57,784
776,32	59,278
776,50	58,682
776,67	60,672
776,85	57,888
777,03	56,254
777,20	59,490
777,38	60,374
777,55	60,791
777,73	54,819
777,91	55,821
778,08	61,393
778,26	54,700
778,43	62,114
778,61	54,137
778,79	55,655
778,96	59,616
779,14	56,899
779,32	58,362
779,49	61,168
779,67	63,143
779,84	58,005
780,02	58,851
780,20	57,605
780,37	60,613
780,55	56,745
780,72	59,167
780,90	60,448
781,07	60,383
781,25	59,830
781,43	59,973
781,60	58,642
781,78	63,433
781,95	58,443
782,13	58,421
782,30	61,453
782,48	60,671
782,66	58,018
782,83	58,652
783,01	65,593
783,18	58,079
783,36	59,169
783,53	62,076
783,71	57,421
783,89	58,704
784,06	59,552
784,24	61,412
784,41	58,532
784,59	58,724
784,76	61,683
784,94	58,183
785,11	59,363
785,29	58,353
785,46	58,378
785,64	59,306
785,82	59,453
785,99	61,233
786,17	59,662
786,34	60,324
786,52	61,212
786,69	62,111
786,87	57,687
787,04	59,567
787,22	57,612
787,39	60,909
787,57	61,085
787,74	60,027
787,92	63,298
788,09	61,987
788,27	56,122
788,44	57,747
788,62	59,363
788,79	59,540
788,97	62,699
789,14	57,733
789,32	57,678
789,49	60,552
789,67	58,905
789,84	60,147
790,02	61,739
790,19	59,492
790,37	60,503
790,54	61,755
790,72	65,420
790,89	62,806
791,07	60,188
791,24	54,721
791,42	63,971
791,59	62,497
791,77	59,227
791,94	56,353
792,12	60,113
792,29	61,129
792,47	61,289
792,64	62,562
792,81	63,135
792,99	60,495
793,16	58,275
793,34	59,309
793,51	62,855
793,69	63,290
793,86	59,664
794,04	60,324
794,21	65,653
794,39	57,082
794,56	58,421
794,73	60,091
794,91	65,151
795,08	62,448
795,26	63,078
795,43	61,039
795,61	66,054
795,78	61,845
795,95	59,389
796,13	63,792
796,30	64,038
796,48	58,275
796,65	58,262
796,83	59,795
797,00	66,377
797,17	62,312
797,35	61,755
797,52	61,703
797,70	64,711
797,87	62,849
798,04	59,597
798,22	62,058
798,39	63,925
798,57	62,423
798,74	60,484
798,91	58,565
799,09	61,032
799,26	60,691
799,44	60,815
799,61	59,842
799,78	61,886
799,96	63,343
800,13	60,147
800,31	61,547
800,48	67,590
800,65	64,244
800,83	57,359
801,00	57,138
801,17	62,945
801,35	63,568
801,52	59,461
801,70	63,433
801,87	59,548
802,04	65,453
802,22	58,822
802,39	57,694
802,56	66,309
802,74	64,940
802,91	60,040
803,08	58,314
803,26	64,339
803,43	62,863
803,61	59,262
803,78	59,305
803,95	64,551
804,13	63,461
804,30	59,886
804,47	60,096
804,65	63,135
804,82	61,685
804,99	62,241
805,17	58,500
805,34	69,166
805,51	68,248
805,69	59,991
805,86	57,198
806,03	65,648
806,21	65,178
806,38	60,534
806,55	60,059
806,72	66,563
806,90	61,815
807,07	61,482
807,24	57,199
807,42	60,308
807,59	64,431
807,76	55,556
807,94	59,815
808,11	62,850
808,28	67,226
808,45	61,482
808,63	61,585
808,80	65,966
808,97	63,692
809,15	56,202
809,32	66,428
809,49	60,661
809,67	63,602
809,84	64,453
810,01	62,906
810,18	72,575
810,36	60,960
810,53	64,946
810,70	59,734
810,87	66,978
811,05	65,332
811,22	64,987
811,39	60,868
811,57	70,989
811,74	67,143
811,91	57,845
812,08	59,292
812,26	65,063
812,43	63,272
812,60	61,270
812,77	62,061
812,95	69,844
813,12	65,514
813,29	62,423
813,46	61,201
813,64	65,836
813,81	65,632
813,98	61,048
814,15	60,857
814,32	62,930
814,50	68,296
814,67	65,266
814,84	63,165
815,01	66,127
815,19	59,100
815,36	53,323
815,53	61,197
815,70	64,511
815,87	54,773
816,05	56,555
816,22	63,062
816,39	67,328
816,56	68,896
816,74	70,713
816,91	58,826
817,08	67,379
817,25	67,340
817,42	66,128
817,60	61,703
817,77	66,004
817,94	67,266
818,11	59,594
818,28	63,705
818,45	66,179
818,63	65,842
818,80	60,481
818,97	61,756
819,14	69,417
819,31	68,766
819,49	66,136
819,66	59,179
819,83	70,313
820,00	68,940
820,17	59,529
820,34	63,326
820,52	68,603
820,69	65,074
820,86	59,596
821,03	62,682
821,20	66,520
821,37	70,565
821,55	53,916
821,72	62,273
821,89	66,611
822,06	69,920
822,23	59,315
822,40	62,339
822,57	66,574
822,75	67,958
822,92	58,187
823,09	65,935
823,26	70,565
823,43	70,867
823,60	64,145
823,77	62,757
823,94	71,068
824,12	73,615
824,29	60,377
824,46	61,600
824,63	73,691
824,80	73,771
824,97	58,784
825,14	65,087
825,31	69,302
825,49	66,243
825,66	58,011
825,83	60,534
826,00	65,031
826,17	76,703
826,34	63,706
826,51	59,115
826,68	63,170
826,85	68,914
827,02	60,215
827,20	57,603
827,37	67,709
827,54	68,307
827,71	63,575
827,88	66,003
828,05	70,364
828,22	68,479
828,39	78,609
828,56	68,423
828,73	64,096
828,90	68,832
829,07	59,244
829,25	63,048
829,42	63,089
829,59	64,587
829,76	60,725
829,93	59,763
830,10	60,526
830,27	65,440
830,44	61,589
830,61	58,376
830,78	58,204
830,95	71,118
831,12	60,128
831,29	66,674
831,46	62,277
831,63	66,694
831,80	60,585
831,97	65,997
832,14	74,198
832,31	81,051
832,48	69,595
832,65	66,635
832,83	66,878
833,00	71,304
833,17	66,277
833,34	65,282
833,51	70,428
833,68	81,263
833,85	69,207
834,02	65,921
834,19	73,361
834,36	75,288
834,53	58,761
834,70	59,457
834,87	86,461
835,04	70,015
835,21	63,512
835,38	66,928
835,55	69,297
835,72	81,450
835,89	63,895
836,06	62,155
836,23	77,698
836,40	61,273
836,57	61,443
836,74	67,321
836,91	66,005
837,08	74,348
837,25	66,355
837,42	55,489
837,59	69,499
837,76	67,820
837,93	68,453
838,09	55,613
838,26	77,028
838,43	83,118
838,60	64,014
838,77	66,852
838,94	75,542
839,11	56,882
839,28	61,790
839,45	64,064
839,62	61,860
839,79	66,816
839,96	72,771
840,13	73,739
840,30	60,008
840,47	67,009
840,64	63,044
840,81	74,684
840,98	61,761
841,15	78,081
841,32	59,656
841,48	76,076
841,65	75,890
841,82	70,309
841,99	65,363
842,16	58,337
842,33	76,285
842,50	82,896
842,67	64,032
842,84	63,632
843,01	76,997
843,18	67,666
843,35	68,406
843,52	61,965
843,68	73,031
843,85	73,675
844,02	57,040
844,19	67,216
844,36	77,102
844,53	71,833
844,70	71,783
844,87	82,500
845,04	75,817
845,21	58,784
845,37	78,805
845,54	68,164
845,71	78,078
845,88	95,236
846,05	56,546
846,22	59,339
846,39	77,924
846,56	89,312
846,72	56,620
846,89	65,893
847,06	88,573
847,23	80,307
847,40	59,179
847,57	61,912
847,74	77,236
847,90	88,884
848,07	65,967
848,24	78,985
848,41	73,456
848,58	95,730
848,75	68,255
848,92	67,196
849,08	69,229
849,25	71,716
849,42	71,876
849,59	70,253
849,76	70,128
849,93	77,879
850,09	84,350
850,26	57,116
850,43	86,118
850,60	58,112
850,77	69,324
850,94	71,521
851,10	79,363
851,27	61,844
851,44	67,325
851,61	58,405
851,78	75,736
851,95	83,125
852,11	60,720
852,28	59,793
852,45	76,364
852,62	87,342
852,79	74,989
852,95	71,249
853,12	86,807
853,29	64,842
853,46	58,908
853,63	62,961
853,79	70,197
853,96	62,921
854,13	82,655
854,30	64,687
854,46	90,484
854,63	77,004
854,80	69,482
854,97	61,441
855,14	95,865
855,30	77,757
855,47	60,453
855,64	70,591
855,81	76,474
855,97	95,508
856,14	72,902
856,31	66,441
856,48	91,874
856,65	92,389
856,81	66,880
856,98	59,552
857,15	65,871
857,32	89,461
857,48	60,983
857,65	82,848
857,82	85,231
857,99	84,690
858,15	72,301
858,32	70,731
858,49	82,238
858,65	98,717
858,82	85,082
858,99	65,260
859,16	82,774
859,32	100,953
859,49	76,738
859,66	75,783
859,83	73,124
859,99	58,889
860,16	75,375
860,33	61,974
860,49	90,920
860,66	79,735
860,83	72,069
861,00	62,319
861,16	97,309
861,33	94,459
861,50	60,042
861,66	69,962
861,83	106,404
862,00	88,381
862,16	82,529
862,33	79,837
862,50	133,312
862,67	101,975
862,83	55,974
863,00	90,228
863,17	107,803
863,33	90,754
863,50	28,855
863,67	56,514
863,83	78,988
864,00	108,704
864,17	52,408
864,33	58,609
864,50	72,646
864,67	81,785
864,83	43,725
865,00	68,345
865,17	59,989
865,33	95,010
865,50	51,066
865,67	65,241
865,83	88,879
866,00	111,981
866,17	73,900
866,33	93,241
866,50	102,534
866,66	93,339
866,83	81,693
867,00	88,761
867,16	102,675
867,33	111,743
867,50	54,822
867,66	62,843
867,83	105,945
868,00	110,033
868,16	67,451
868,33	62,912
868,49	101,381
868,66	119,922
868,83	72,737
868,99	81,266
869,16	113,357
869,32	91,245
869,49	66,371
869,66	42,275
869,82	111,228
869,99	113,113
870,15	54,356
870,32	92,751
870,49	110,329
870,65	176,838
870,82	110,128
870,98	76,252
871,15	164,587
871,32	92,460
871,48	63,304
871,65	60,321
871,81	80,123
871,98	72,113
872,15	55,992
872,31	48,007
872,48	142,575
872,64	96,107
872,81	65,766
872,97	62,940
873,14	141,907
873,31	96,878
873,47	76,878
873,64	97,251
873,80	162,344
873,97	163,655
874,13	69,189
874,30	89,627
874,46	131,046
874,63	92,732
874,80	82,363
874,96	62,544
875,13	157,170
875,29	81,960
875,46	88,938
875,62	81,595
875,79	120,054
875,95	106,975
876,12	98,003
876,28	21,739
876,45	153,640
876,61	61,256
876,78	61,328
876,94	52,800
877,11	142,089
877,27	135,634
877,44	109,300
877,60	55,252
877,77	146,458
877,94	139,453
878,10	73,618
878,27	122,644
878,43	192,126
878,60	63,182
878,76	82,929
878,93	36,916
879,09	180,547
879,26	166,017
879,42	64,338
879,58	87,121
879,75	167,394
879,91	198,951
880,08	33,743
880,24	86,874
880,41	103,219
880,57	114,418
880,74	64,936
880,90	84,144
881,07	124,578
881,23	193,558
881,40	83,227
881,56	89,070
881,73	151,311
881,89	109,386
882,06	54,982
882,22	208,250
882,38	204,184
882,55	189,799
882,71	141,649
882,88	99,141
883,04	244,781
883,21	251,696
883,37	112,172
883,54	135,913
883,70	276,816
883,86	203,557
884,03	79,660
884,19	61,858
884,36	295,244
884,52	255,566
884,69	116,127
884,85	73,516
885,01	263,822
885,18	174,218
885,34	151,662
885,51	4,256
885,67	98,613
>>>>> Data<<<<< Espectral Procesado Extremo
