Fichero De Datos De SpectraSuite
++++++++++++++++++++++++++++++++++++
Fecha: Wed Apr 22 13:02:40 CEST 2009
Usuario: evoflor
Presente Oscuro Del Espectro: Sí
La Referencia de Presente Del Espectro De: Sí
Muestreados de los componentes de Número de espectros: 1
Espectrómetros: USB4F02353
Tiempo de integración (usec): 500000 (USB4F02353)
Promedio de Espectros Hechos un: 5 (USB4F02353)
El Alisar Del Furgón: 0 (USB4F02353)
Párrafo de de Corregir del la del del de Eléctrica del obscuridad: Sí (USB4F02353)
Estrobo/Lámpara Permitido: No (USB4F02353)
Correct for Detector Non-linearity: No (USB4F02353)
Párrafo de de Corregir del la del del de Externa del luz: No (USB4F02353)
Procesado del espectro de Número de pixeles en: 3648
>>>>> Comienza Data<<<<< Espectral Procesado Del EL
177,79	361,380
178,00	361,380
178,22	361,380
178,44	1105,055
178,66	-395,650
178,88	180,977
179,09	-1,021
179,31	333,809
179,53	875,666
179,75	285,361
179,96	1290,000
180,18	-648,738
180,40	502,357
180,62	401,698
180,83	-125,455
181,05	-1451,707
181,27	-112740,000
181,49	-117,913
181,70	191,308
181,92	951,472
182,14	1009,157
182,36	99,350
182,58	285,600
182,79	1375,179
183,01	-135,749
183,23	260,742
183,45	-438,277
183,66	86,549
183,88	467,294
184,10	-3653,455
184,32	359,257
184,53	316,387
184,75	-227,442
184,97	-10,604
185,18	-123,947
185,40	-697,788
185,62	110,449
185,84	94,847
186,05	302,289
186,27	-238,890
186,49	5928,462
186,71	46,169
186,92	123,265
187,14	-249,337
187,36	188,473
187,58	102,289
187,79	-149,453
188,01	459,413
188,23	-540,170
188,45	-39,453
188,66	157,768
188,88	-3391,636
189,10	-2297,400
189,31	59,488
189,53	-17,628
189,75	462,818
189,97	270,923
190,18	-199,828
190,40	615,529
190,62	-159,295
190,83	-411,946
191,05	232,178
191,27	-1,886
191,49	152,079
191,70	-490,096
191,92	-680,847
192,14	-39,378
192,35	616,552
192,57	5869,714
192,79	-80,428
193,01	253,943
193,22	156,142
193,44	-238,464
193,66	138,435
193,87	48,694
194,09	-50,207
194,31	353,893
194,53	958,322
194,74	207,968
194,96	57,852
195,18	154,830
195,39	-523,061
195,61	-223,982
195,83	-376,174
196,04	151,158
196,26	-173,065
196,48	52,444
196,70	288,549
196,91	32,717
197,13	94,025
197,35	48,971
197,56	911,889
197,78	2204,776
198,00	977,203
198,21	800,680
198,43	-1749,070
198,65	193,462
198,86	382,878
199,08	192,590
199,30	268,300
199,51	-719,023
199,73	210,899
199,95	410,495
200,16	468,231
200,38	311,639
200,60	128,730
200,81	270,321
201,03	12,880
201,25	-1820,400
201,46	244,332
201,68	23,977
201,90	4464,545
202,11	-347,863
202,33	147,469
202,55	790,500
202,76	-214,462
202,98	223,484
203,20	137,308
203,41	-522,316
203,63	118,834
203,85	-163140,000
204,06	67,378
204,28	-245,639
204,50	135,454
204,71	394,770
204,93	361,920
205,15	250,120
205,36	-286,119
205,58	366,679
205,80	-233,882
206,01	56,740
206,23	176,370
206,45	325,542
206,66	142,537
206,88	-30,655
207,10	381,000
207,31	391,311
207,53	-66,171
207,75	45,502
207,96	1076,418
208,18	-236,928
208,39	150,963
208,61	5741,143
208,83	-402,675
209,04	254,904
209,26	-370,230
209,48	358,330
209,69	292,161
209,91	912,973
210,13	94,915
210,34	41,985
210,56	223,473
210,77	-1993,228
210,99	120,000
211,21	8167,059
211,42	-277,577
211,64	-103,662
211,86	175,679
212,07	312,486
212,29	329,449
212,50	169,894
212,72	444,000
212,94	77,443
213,15	244,778
213,37	97,123
213,58	-16,497
213,80	280,714
214,02	18596,471
214,23	383,102
214,45	458,164
214,67	-2220,000
214,88	-532,349
215,10	-341,092
215,31	-38,777
215,53	-32,182
215,75	299,374
215,96	2097,764
216,18	-98,028
216,39	318,275
216,61	660,786
216,83	1150,179
217,04	1691,461
217,26	23,613
217,47	173,712
217,69	307,608
217,91	48,093
218,12	-92040,000
218,34	191,216
218,55	370,663
218,77	133,098
218,99	199,539
219,20	-246,979
219,42	560,122
219,63	-58,081
219,85	-70,236
220,06	-30,231
220,28	226,711
220,50	53,780
220,71	109,233
220,93	4147,925
221,14	-2171,400
221,36	-79,618
221,58	-51,164
221,79	157,482
222,01	2058,103
222,22	747,632
222,44	366,742
222,65	141,188
222,87	108,671
223,09	152,445
223,30	104,205
223,52	265,405
223,73	227,463
223,95	64,986
224,16	315,959
224,38	329,005
224,60	147,154
224,81	125,847
225,03	99,383
225,24	240,176
225,46	90,100
225,67	36,579
225,89	48,613
226,10	570,000
226,32	995,520
226,54	3,876
226,75	-28,624
226,97	139,122
227,18	146,870
227,40	99,571
227,61	100,209
227,83	58,573
228,04	176,465
228,26	104,495
228,47	49,783
228,69	268,005
228,91	131,619
229,12	117,030
229,34	76,327
229,55	100,534
229,77	38,286
229,98	-14,441
230,20	91,016
230,41	21,006
230,63	194,465
230,84	71,850
231,06	38,679
231,27	34,671
231,49	57,156
231,71	23,612
231,92	44,268
232,14	44,108
232,35	90,342
232,57	83,862
232,78	16,204
233,00	65,104
233,21	66,857
233,43	28,329
233,64	17,278
233,86	73,249
234,07	38,295
234,29	19,652
234,50	15,954
234,72	37,168
234,93	9,913
235,15	31,939
235,36	36,971
235,58	40,766
235,79	54,304
236,01	27,421
236,22	24,168
236,44	42,257
236,65	40,379
236,87	23,704
237,08	6,468
237,30	2,880
237,51	34,071
237,73	-8,162
237,94	8,982
238,16	18,629
238,37	26,671
238,59	11,328
238,80	7,688
239,02	8,120
239,23	20,960
239,45	0,399
239,66	22,949
239,88	34,754
240,09	22,879
240,31	2,163
240,52	8,647
240,74	17,328
240,95	17,499
241,17	1,667
241,38	1,279
241,60	12,550
241,81	32,513
242,03	5,586
242,24	14,193
242,46	28,498
242,67	4,652
242,89	12,043
243,10	20,921
243,32	15,154
243,53	22,091
243,75	-1,817
243,96	11,462
244,18	16,615
244,39	21,812
244,60	11,504
244,82	2,409
245,03	23,750
245,25	10,042
245,46	28,357
245,68	-0,869
245,89	23,874
246,11	16,137
246,32	10,754
246,54	4,218
246,75	11,782
246,97	13,935
247,18	20,526
247,39	6,587
247,61	13,664
247,82	16,719
248,04	6,392
248,25	0,297
248,47	20,120
248,68	15,890
248,90	5,067
249,11	6,561
249,33	24,770
249,54	9,056
249,75	8,885
249,97	7,609
250,18	17,650
250,40	18,562
250,61	-9,523
250,83	2,385
251,04	2,609
251,25	15,065
251,47	1,120
251,68	13,253
251,90	13,477
252,11	13,216
252,33	5,890
252,54	7,547
252,76	6,234
252,97	6,156
253,18	-0,570
253,40	5,721
253,61	5,191
253,83	12,449
254,04	11,485
254,25	6,163
254,47	3,611
254,68	11,530
254,90	5,338
255,11	6,636
255,33	11,885
255,54	2,594
255,75	8,156
255,97	6,965
256,18	4,107
256,40	9,033
256,61	4,132
256,82	-2,004
257,04	17,381
257,25	1,563
257,47	6,843
257,68	6,530
257,89	9,652
258,11	10,007
258,32	9,878
258,54	6,044
258,75	14,460
258,96	10,793
259,18	4,669
259,39	3,706
259,61	13,206
259,82	5,224
260,03	4,648
260,25	7,417
260,46	6,395
260,68	5,516
260,89	4,011
261,10	6,286
261,32	9,608
261,53	3,797
261,75	7,242
261,96	-2,650
262,17	12,438
262,39	9,649
262,60	3,998
262,81	-1,982
263,03	16,738
263,24	9,919
263,46	2,635
263,67	0,584
263,88	6,918
264,10	9,794
264,31	1,670
264,52	8,224
264,74	13,031
264,95	7,408
265,17	6,411
265,38	4,901
265,59	12,472
265,81	13,666
266,02	0,250
266,23	2,887
266,45	14,269
266,66	10,153
266,87	7,919
267,09	4,545
267,30	12,949
267,52	12,282
267,73	4,093
267,94	5,549
268,16	8,966
268,37	4,406
268,58	7,209
268,80	1,241
269,01	7,623
269,22	7,435
269,44	8,446
269,65	2,922
269,86	6,436
270,08	9,575
270,29	0,729
270,50	5,813
270,72	9,098
270,93	4,925
271,14	3,626
271,36	4,375
271,57	10,380
271,78	8,498
272,00	7,634
272,21	7,135
272,42	6,328
272,64	8,654
272,85	3,382
273,06	3,375
273,28	3,513
273,49	4,961
273,70	5,524
273,92	8,375
274,13	8,297
274,34	5,933
274,56	7,189
274,77	1,718
274,98	10,463
275,20	5,607
275,41	9,638
275,62	1,991
275,84	7,975
276,05	13,120
276,26	5,017
276,47	0,363
276,69	11,353
276,90	5,355
277,11	3,314
277,33	5,212
277,54	10,835
277,75	8,254
277,97	5,327
278,18	4,893
278,39	7,951
278,61	4,479
278,82	6,112
279,03	3,644
279,24	7,212
279,46	6,193
279,67	9,688
279,88	5,998
280,10	11,968
280,31	2,794
280,52	3,201
280,73	1,558
280,95	7,784
281,16	9,729
281,37	3,936
281,59	12,194
281,80	12,964
282,01	5,367
282,22	5,304
282,44	2,097
282,65	14,697
282,86	8,298
283,08	5,211
283,29	6,272
283,50	6,539
283,71	5,968
283,93	3,996
284,14	6,243
284,35	4,736
284,56	6,292
284,78	1,598
284,99	6,164
285,20	13,298
285,42	6,936
285,63	4,830
285,84	0,716
286,05	5,819
286,27	3,699
286,48	3,280
286,69	4,977
286,90	5,586
287,12	5,770
287,33	1,932
287,54	1,743
287,75	8,774
287,97	7,812
288,18	2,764
288,39	2,931
288,60	4,588
288,82	3,193
289,03	4,809
289,24	5,132
289,45	7,449
289,67	7,626
289,88	2,280
290,09	3,409
290,30	5,804
290,52	1,741
290,73	3,237
290,94	-2,054
291,15	4,505
291,37	6,977
291,58	4,431
291,79	6,412
292,00	6,935
292,21	6,241
292,43	3,088
292,64	1,959
292,85	6,194
293,06	9,687
293,28	3,214
293,49	1,802
293,70	10,033
293,91	2,850
294,12	4,914
294,34	6,721
294,55	4,519
294,76	6,219
294,97	7,766
295,19	1,349
295,40	7,880
295,61	6,850
295,82	2,043
296,03	5,874
296,25	5,546
296,46	2,768
296,67	1,871
296,88	-0,170
297,09	6,960
297,31	3,487
297,52	5,990
297,73	2,756
297,94	7,637
298,15	5,996
298,37	3,311
298,58	6,742
298,79	6,988
299,00	1,746
299,21	2,428
299,43	0,955
299,64	9,873
299,85	7,526
300,06	2,436
300,27	1,718
300,49	10,253
300,70	4,900
300,91	2,801
301,12	1,548
301,33	8,603
301,54	7,329
301,76	3,936
301,97	1,752
302,18	4,061
302,39	6,770
302,60	12,549
302,82	3,764
303,03	10,366
303,24	6,170
303,45	5,223
303,66	4,347
303,87	2,808
304,09	8,521
304,30	1,051
304,51	2,431
304,72	3,713
304,93	7,760
305,14	4,415
305,36	0,665
305,57	1,972
305,78	7,113
305,99	4,237
306,20	3,177
306,41	2,350
306,62	1,648
306,84	3,332
307,05	2,552
307,26	6,209
307,47	7,446
307,68	2,509
307,89	4,524
308,11	5,850
308,32	2,422
308,53	3,669
308,74	2,985
308,95	4,392
309,16	7,947
309,37	7,699
309,59	1,098
309,80	5,227
310,01	5,216
310,22	4,848
310,43	2,127
310,64	5,187
310,85	6,965
311,06	1,688
311,28	6,645
311,49	5,187
311,70	7,647
311,91	1,641
312,12	4,010
312,33	5,575
312,54	6,902
312,75	3,386
312,97	3,346
313,18	4,461
313,39	3,707
313,60	2,117
313,81	4,490
314,02	7,666
314,23	5,477
314,44	0,537
314,65	5,760
314,87	1,737
315,08	2,473
315,29	5,583
315,50	6,212
315,71	9,265
315,92	7,283
316,13	3,964
316,34	5,173
316,55	7,485
316,77	0,764
316,98	3,759
317,19	1,698
317,40	5,513
317,61	10,418
317,82	0,582
318,03	0,518
318,24	3,113
318,45	9,326
318,66	4,332
318,87	2,010
319,09	5,271
319,30	6,531
319,51	4,627
319,72	5,059
319,93	6,640
320,14	7,303
320,35	5,031
320,56	-0,738
320,77	4,657
320,98	11,836
321,19	2,529
321,40	2,982
321,62	4,932
321,83	0,933
322,04	5,037
322,25	4,678
322,46	9,864
322,67	6,507
322,88	4,357
323,09	1,514
323,30	6,620
323,51	7,515
323,72	8,376
323,93	-0,070
324,14	5,800
324,35	0,569
324,56	2,029
324,77	4,876
324,99	4,366
325,20	-1,258
325,41	4,183
325,62	5,741
325,83	3,117
326,04	3,645
326,25	5,606
326,46	0,547
326,67	4,695
326,88	5,692
327,09	3,360
327,30	1,394
327,51	4,107
327,72	6,691
327,93	6,725
328,14	1,216
328,35	2,325
328,56	6,960
328,77	5,057
328,98	5,886
329,19	6,392
329,40	5,778
329,61	4,292
329,82	1,298
330,04	7,651
330,25	2,688
330,46	3,695
330,67	1,870
330,88	4,364
331,09	6,229
331,30	3,005
331,51	3,025
331,72	5,222
331,93	5,917
332,14	3,427
332,35	6,772
332,56	6,209
332,77	6,476
332,98	-0,676
333,19	3,213
333,40	6,988
333,61	3,243
333,82	6,397
334,03	3,610
334,24	8,201
334,45	5,423
334,66	5,856
334,87	4,063
335,08	2,339
335,29	2,366
335,50	3,863
335,71	3,311
335,92	6,409
336,13	7,915
336,34	2,047
336,55	5,654
336,76	7,994
336,97	3,184
337,18	2,670
337,39	3,142
337,60	6,318
337,81	3,508
338,02	1,212
338,23	3,824
338,44	4,183
338,65	2,298
338,86	7,271
339,07	2,536
339,28	6,398
339,49	5,823
339,70	3,337
339,91	2,882
340,11	9,301
340,32	3,834
340,53	2,472
340,74	2,547
340,95	0,718
341,16	5,425
341,37	2,860
341,58	2,388
341,79	6,270
342,00	3,889
342,21	4,387
342,42	4,552
342,63	8,591
342,84	2,923
343,05	6,163
343,26	6,944
343,47	6,275
343,68	3,505
343,89	3,516
344,10	5,800
344,31	6,054
344,52	4,492
344,73	1,920
344,94	4,695
345,14	5,439
345,35	4,919
345,56	4,151
345,77	4,413
345,98	5,988
346,19	5,191
346,40	1,726
346,61	3,295
346,82	7,273
347,03	4,737
347,24	5,532
347,45	3,088
347,66	11,182
347,87	6,690
348,08	6,688
348,28	-0,049
348,49	8,150
348,70	9,073
348,91	5,902
349,12	3,117
349,33	18,140
349,54	5,535
349,75	5,705
349,96	5,223
350,17	3,581
350,38	2,756
350,59	7,685
350,80	5,618
351,00	6,949
351,21	8,367
351,42	2,735
351,63	0,486
351,84	6,669
352,05	11,833
352,26	2,866
352,47	1,584
352,68	5,704
352,89	7,369
353,09	7,752
353,30	-0,203
353,51	3,543
353,72	9,811
353,93	8,220
354,14	2,320
354,35	0,970
354,56	8,383
354,77	5,192
354,98	0,457
355,18	4,622
355,39	9,557
355,60	1,567
355,81	4,995
356,02	6,958
356,23	8,003
356,44	5,465
356,65	5,002
356,85	10,651
357,06	9,031
357,27	6,515
357,48	-0,532
357,69	6,698
357,90	6,380
358,11	1,401
358,32	4,602
358,52	9,283
358,73	8,103
358,94	2,761
359,15	3,859
359,36	8,193
359,57	4,408
359,78	7,890
359,98	6,283
360,19	0,038
360,40	5,384
360,61	6,993
360,82	1,538
361,03	10,147
361,24	10,360
361,44	2,579
361,65	5,095
361,86	2,035
362,07	6,433
362,28	5,813
362,49	0,799
362,70	6,110
362,90	7,019
363,11	3,449
363,32	0,809
363,53	5,873
363,74	10,944
363,95	8,146
364,15	7,050
364,36	9,126
364,57	4,161
364,78	6,665
364,99	2,967
365,20	8,245
365,40	7,954
365,61	3,391
365,82	8,079
366,03	7,432
366,24	4,230
366,45	1,313
366,65	3,567
366,86	6,344
367,07	6,811
367,28	4,139
367,49	3,571
367,69	9,837
367,90	9,022
368,11	5,049
368,32	7,403
368,53	8,292
368,73	8,832
368,94	4,329
369,15	5,984
369,36	9,170
369,57	5,232
369,78	2,818
369,98	8,417
370,19	9,853
370,40	5,801
370,61	4,266
370,82	3,747
371,02	8,554
371,23	9,681
371,44	1,460
371,65	5,784
371,85	8,759
372,06	5,884
372,27	3,857
372,48	6,949
372,69	3,981
372,89	5,581
373,10	3,911
373,31	3,213
373,52	5,081
373,73	8,990
373,93	4,132
374,14	5,771
374,35	6,235
374,56	8,709
374,76	8,294
374,97	6,237
375,18	8,651
375,39	6,692
375,60	8,863
375,80	4,175
376,01	6,540
376,22	5,858
376,43	3,970
376,63	4,935
376,84	6,792
377,05	6,600
377,26	1,224
377,46	2,402
377,67	6,519
377,88	7,560
378,09	6,450
378,29	1,830
378,50	4,812
378,71	7,288
378,92	3,961
379,12	6,249
379,33	6,330
379,54	5,145
379,75	8,039
379,95	5,383
380,16	6,744
380,37	8,093
380,58	8,064
380,78	9,850
380,99	6,515
381,20	4,132
381,41	4,810
381,61	9,459
381,82	5,978
382,03	8,443
382,24	4,334
382,44	5,552
382,65	7,053
382,86	8,660
383,06	5,312
383,27	4,636
383,48	5,061
383,69	10,412
383,89	7,207
384,10	5,728
384,31	6,555
384,51	9,331
384,72	9,987
384,93	3,758
385,14	5,368
385,34	6,040
385,55	8,160
385,76	2,880
385,96	9,082
386,17	4,464
386,38	9,678
386,59	9,322
386,79	7,093
387,00	11,011
387,21	9,055
387,41	10,256
387,62	5,137
387,83	14,036
388,03	4,192
388,24	3,840
388,45	9,510
388,66	9,054
388,86	3,935
389,07	5,762
389,28	11,654
389,48	8,788
389,69	6,872
389,90	9,285
390,10	8,761
390,31	13,342
390,52	1,303
390,72	5,686
390,93	7,268
391,14	6,368
391,34	8,977
391,55	9,460
391,76	13,538
391,96	10,496
392,17	4,069
392,38	9,776
392,58	7,322
392,79	8,798
393,00	7,920
393,20	6,697
393,41	5,930
393,62	7,018
393,82	6,813
394,03	8,754
394,24	7,266
394,44	12,834
394,65	9,707
394,86	4,585
395,06	12,681
395,27	9,067
395,48	5,608
395,68	9,167
395,89	8,778
396,10	11,416
396,30	8,400
396,51	5,591
396,72	9,322
396,92	6,183
397,13	10,464
397,34	4,073
397,54	9,898
397,75	9,021
397,95	8,679
398,16	7,440
398,37	8,094
398,57	6,918
398,78	11,025
398,99	11,109
399,19	10,497
399,40	13,379
399,60	6,011
399,81	8,517
400,02	11,128
400,22	14,076
400,43	8,044
400,64	9,730
400,84	6,695
401,05	12,906
401,25	15,713
401,46	13,200
401,67	13,996
401,87	12,887
402,08	5,077
402,29	9,001
402,49	15,573
402,70	16,125
402,90	7,899
403,11	9,436
403,32	10,965
403,52	8,305
403,73	12,732
403,93	14,801
404,14	19,388
404,35	9,880
404,55	8,559
404,76	11,182
404,96	11,978
405,17	16,064
405,38	16,270
405,58	9,437
405,79	16,787
405,99	17,469
406,20	14,242
406,40	7,064
406,61	13,910
406,82	14,208
407,02	14,450
407,23	10,606
407,43	13,578
407,64	10,864
407,85	9,886
408,05	8,580
408,26	24,148
408,46	17,176
408,67	10,262
408,87	13,339
409,08	13,184
409,29	19,884
409,49	15,995
409,70	15,170
409,90	16,868
410,11	15,296
410,31	18,423
410,52	12,776
410,72	12,819
410,93	16,734
411,14	9,886
411,34	11,233
411,55	19,608
411,75	20,419
411,96	17,177
412,16	14,818
412,37	16,840
412,57	16,865
412,78	17,856
412,99	16,786
413,19	16,609
413,40	16,521
413,60	9,520
413,81	8,139
414,01	17,369
414,22	16,720
414,42	14,619
414,63	14,431
414,83	20,691
415,04	21,515
415,24	17,866
415,45	12,784
415,65	15,124
415,86	18,466
416,07	14,710
416,27	18,575
416,48	23,090
416,68	22,165
416,89	13,500
417,09	13,989
417,30	22,490
417,50	19,189
417,71	17,821
417,91	18,362
418,12	18,821
418,32	20,981
418,53	20,819
418,73	15,125
418,94	16,682
419,14	20,104
419,35	15,275
419,55	15,700
419,76	18,372
419,96	16,217
420,17	15,986
420,37	15,820
420,58	25,161
420,78	17,690
420,99	15,741
421,19	18,154
421,40	22,081
421,60	23,356
421,81	13,537
422,01	17,179
422,22	17,394
422,42	16,689
422,63	20,498
422,83	17,862
423,04	19,665
423,24	26,792
423,45	17,003
423,65	23,294
423,86	26,164
424,06	23,840
424,27	16,826
424,47	18,243
424,67	15,001
424,88	20,054
425,08	17,200
425,29	22,004
425,49	18,973
425,70	13,210
425,90	18,513
426,11	20,209
426,31	19,578
426,52	20,690
426,72	17,453
426,93	14,701
427,13	24,258
427,33	17,643
427,54	24,354
427,74	23,312
427,95	27,425
428,15	15,805
428,36	19,068
428,56	18,427
428,77	23,436
428,97	19,341
429,18	20,374
429,38	15,974
429,58	22,602
429,79	22,084
429,99	16,705
430,20	11,819
430,40	23,939
430,61	15,526
430,81	14,177
431,01	19,261
431,22	21,117
431,42	25,417
431,63	13,225
431,83	16,642
432,04	19,657
432,24	23,676
432,44	19,310
432,65	19,400
432,85	18,232
433,06	21,836
433,26	20,412
433,47	16,682
433,67	15,527
433,87	19,506
434,08	15,361
434,28	17,066
434,49	18,164
434,69	21,545
434,89	15,528
435,10	16,252
435,30	22,430
435,51	14,882
435,71	17,089
435,91	17,938
436,12	19,034
436,32	18,424
436,53	18,772
436,73	17,895
436,93	23,594
437,14	20,785
437,34	18,718
437,55	15,297
437,75	18,702
437,95	25,456
438,16	18,529
438,36	18,565
438,57	12,948
438,77	16,281
438,97	19,800
439,18	25,100
439,38	18,607
439,58	18,890
439,79	20,252
439,99	14,417
440,20	22,933
440,40	21,073
440,60	13,682
440,81	25,737
441,01	23,087
441,21	23,521
441,42	20,884
441,62	23,438
441,83	16,118
442,03	20,195
442,23	20,270
442,44	18,953
442,64	18,770
442,84	14,818
443,05	19,557
443,25	16,534
443,45	19,139
443,66	17,509
443,86	14,136
444,06	20,998
444,27	16,251
444,47	22,162
444,67	11,958
444,88	23,256
445,08	19,447
445,28	18,208
445,49	16,085
445,69	15,717
445,90	23,906
446,10	25,493
446,30	19,500
446,51	19,434
446,71	28,642
446,91	26,221
447,12	24,624
447,32	15,295
447,52	21,797
447,72	20,396
447,93	19,306
448,13	14,986
448,33	26,739
448,54	21,490
448,74	16,176
448,94	21,564
449,15	28,598
449,35	24,369
449,55	17,860
449,76	22,529
449,96	18,073
450,16	22,632
450,37	19,101
450,57	20,648
450,77	17,691
450,98	23,801
451,18	19,560
451,38	21,002
451,58	22,865
451,79	22,048
451,99	22,351
452,19	20,759
452,40	23,215
452,60	17,046
452,80	15,381
453,00	23,216
453,21	21,871
453,41	27,233
453,61	20,789
453,82	24,260
454,02	20,658
454,22	27,785
454,42	26,200
454,63	16,684
454,83	19,604
455,03	25,474
455,24	21,404
455,44	19,496
455,64	18,158
455,84	19,279
456,05	15,281
456,25	17,277
456,45	19,258
456,65	20,792
456,86	22,651
457,06	21,580
457,26	31,771
457,47	25,039
457,67	21,670
457,87	21,902
458,07	22,311
458,28	23,409
458,48	24,428
458,68	14,487
458,88	27,229
459,09	25,616
459,29	24,703
459,49	19,444
459,69	22,574
459,90	23,628
460,10	16,699
460,30	23,635
460,50	22,029
460,71	23,973
460,91	13,709
461,11	18,123
461,31	16,272
461,52	30,645
461,72	18,626
461,92	19,644
462,12	30,685
462,32	15,384
462,53	18,552
462,73	12,533
462,93	23,972
463,13	23,109
463,34	22,292
463,54	18,162
463,74	20,761
463,94	20,885
464,14	21,269
464,35	14,239
464,55	29,125
464,75	25,805
464,95	22,987
465,16	18,032
465,36	23,661
465,56	20,277
465,76	17,946
465,96	18,114
466,17	18,854
466,37	20,931
466,57	22,552
466,77	19,188
466,97	20,319
467,18	23,732
467,38	20,362
467,58	17,212
467,78	23,135
467,98	23,000
468,19	21,344
468,39	23,336
468,59	21,088
468,79	22,479
468,99	16,123
469,19	14,601
469,40	22,518
469,60	23,226
469,80	19,061
470,00	21,447
470,20	23,896
470,41	22,038
470,61	20,774
470,81	21,718
471,01	18,889
471,21	20,221
471,41	17,404
471,62	16,112
471,82	17,882
472,02	16,220
472,22	18,201
472,42	18,700
472,62	19,827
472,83	18,878
473,03	23,991
473,23	18,142
473,43	25,179
473,63	21,066
473,83	20,250
474,03	17,553
474,24	25,413
474,44	18,361
474,64	20,776
474,84	17,488
475,04	19,533
475,24	22,456
475,45	16,004
475,65	18,130
475,85	24,360
476,05	12,871
476,25	17,067
476,45	19,714
476,65	24,168
476,85	17,650
477,06	19,765
477,26	13,120
477,46	17,266
477,66	20,465
477,86	22,485
478,06	11,896
478,26	26,792
478,46	18,793
478,67	19,621
478,87	17,642
479,07	16,290
479,27	22,278
479,47	18,193
479,67	13,042
479,87	16,084
480,07	23,405
480,28	18,559
480,48	15,689
480,68	19,759
480,88	25,822
481,08	19,008
481,28	20,052
481,48	20,185
481,68	18,801
481,88	16,331
482,08	17,711
482,29	19,922
482,49	15,898
482,69	16,791
482,89	18,763
483,09	22,283
483,29	17,911
483,49	15,086
483,69	15,635
483,89	17,656
484,09	15,625
484,29	14,434
484,50	17,399
484,70	21,355
484,90	16,241
485,10	15,232
485,30	20,885
485,50	22,185
485,70	18,414
485,90	16,677
486,10	13,893
486,30	15,014
486,50	15,888
486,70	16,207
486,90	14,909
487,10	19,050
487,30	15,936
487,51	16,410
487,71	14,112
487,91	13,338
488,11	19,590
488,31	13,745
488,51	18,277
488,71	17,880
488,91	17,891
489,11	13,505
489,31	16,417
489,51	16,597
489,71	17,261
489,91	19,256
490,11	14,749
490,31	17,858
490,51	19,313
490,71	16,363
490,91	17,768
491,11	16,795
491,31	17,045
491,51	12,328
491,72	16,785
491,92	17,760
492,12	19,974
492,32	16,639
492,52	17,364
492,72	17,484
492,92	17,942
493,12	19,829
493,32	14,215
493,52	13,892
493,72	15,801
493,92	17,998
494,12	17,125
494,32	17,797
494,52	14,569
494,72	16,658
494,92	14,064
495,12	19,655
495,32	20,426
495,52	13,225
495,72	16,289
495,92	21,787
496,12	19,888
496,32	12,416
496,52	15,915
496,72	16,201
496,92	18,088
497,12	17,693
497,32	18,760
497,52	16,983
497,72	18,998
497,92	17,424
498,12	14,171
498,32	18,117
498,52	16,569
498,72	13,926
498,92	14,217
499,12	20,059
499,32	12,375
499,52	18,169
499,72	17,586
499,92	20,210
500,12	17,343
500,32	20,976
500,52	18,212
500,72	23,792
500,91	18,571
501,11	17,608
501,31	12,930
501,51	19,384
501,71	20,603
501,91	16,841
502,11	16,271
502,31	17,633
502,51	20,181
502,71	17,221
502,91	15,040
503,11	16,976
503,31	16,785
503,51	12,416
503,71	16,180
503,91	20,150
504,11	18,009
504,31	16,488
504,51	17,344
504,71	20,921
504,91	14,675
505,10	18,639
505,30	15,019
505,50	15,648
505,70	15,648
505,90	16,379
506,10	12,037
506,30	18,151
506,50	18,516
506,70	18,165
506,90	13,583
507,10	16,486
507,30	15,307
507,50	17,351
507,70	16,614
507,89	18,195
508,09	14,196
508,29	16,811
508,49	13,246
508,69	14,801
508,89	16,173
509,09	14,187
509,29	16,370
509,49	18,201
509,69	22,208
509,89	14,763
510,09	13,789
510,28	15,904
510,48	15,492
510,68	14,902
510,88	12,324
511,08	17,906
511,28	17,430
511,48	15,297
511,68	13,163
511,88	9,447
512,07	16,367
512,27	15,303
512,47	12,264
512,67	15,522
512,87	12,552
513,07	15,841
513,27	11,212
513,47	14,663
513,67	11,001
513,86	13,626
514,06	16,411
514,26	14,386
514,46	18,224
514,66	15,680
514,86	15,840
515,06	20,540
515,26	18,685
515,45	15,019
515,65	11,862
515,85	15,370
516,05	13,591
516,25	12,526
516,45	17,770
516,65	12,129
516,84	14,035
517,04	17,921
517,24	12,604
517,44	15,819
517,64	19,039
517,84	17,852
518,04	14,963
518,23	15,662
518,43	18,889
518,63	13,824
518,83	12,298
519,03	15,634
519,23	16,094
519,42	14,535
519,62	12,926
519,82	13,262
520,02	13,245
520,22	9,721
520,42	12,853
520,61	18,061
520,81	16,138
521,01	17,219
521,21	10,154
521,41	13,286
521,61	19,319
521,80	13,965
522,00	12,335
522,20	15,155
522,40	14,317
522,60	13,465
522,79	13,884
522,99	17,295
523,19	13,317
523,39	13,602
523,59	12,644
523,78	17,494
523,98	11,982
524,18	17,094
524,38	9,903
524,58	14,165
524,77	15,486
524,97	14,851
525,17	13,026
525,37	12,476
525,57	17,830
525,76	12,742
525,96	14,893
526,16	12,676
526,36	12,427
526,56	14,383
526,75	12,785
526,95	15,037
527,15	16,186
527,35	15,371
527,55	11,146
527,74	15,579
527,94	11,129
528,14	11,656
528,34	12,846
528,53	13,182
528,73	16,612
528,93	13,689
529,13	11,460
529,32	14,588
529,52	16,274
529,72	8,293
529,92	9,816
530,12	12,414
530,31	10,624
530,51	12,885
530,71	12,001
530,91	15,844
531,10	9,369
531,30	11,472
531,50	8,980
531,70	11,723
531,89	10,702
532,09	8,703
532,29	10,382
532,49	12,149
532,68	11,816
532,88	10,811
533,08	9,828
533,28	11,636
533,47	12,385
533,67	12,747
533,87	9,087
534,06	18,987
534,26	13,679
534,46	11,384
534,66	10,300
534,85	14,213
535,05	4,599
535,25	10,416
535,45	8,102
535,64	14,816
535,84	10,743
536,04	10,081
536,23	13,345
536,43	14,593
536,63	10,888
536,83	11,995
537,02	10,148
537,22	10,937
537,42	11,999
537,61	13,054
537,81	13,773
538,01	14,671
538,20	12,111
538,40	9,817
538,60	10,270
538,80	11,572
538,99	12,144
539,19	12,618
539,39	9,140
539,58	14,188
539,78	10,133
539,98	7,624
540,17	8,679
540,37	12,186
540,57	11,076
540,76	9,974
540,96	6,425
541,16	11,335
541,36	8,615
541,55	5,911
541,75	5,769
541,95	7,070
542,14	8,533
542,34	6,109
542,54	6,404
542,73	9,750
542,93	8,693
543,13	7,542
543,32	6,585
543,52	9,512
543,72	6,642
543,91	8,501
544,11	5,789
544,31	6,944
544,50	7,712
544,70	7,492
544,89	7,159
545,09	11,396
545,29	8,151
545,48	6,774
545,68	5,611
545,88	9,670
546,07	6,552
546,27	5,234
546,47	7,276
546,66	8,705
546,86	9,950
547,06	8,804
547,25	8,311
547,45	11,760
547,64	10,380
547,84	11,719
548,04	10,346
548,23	12,633
548,43	11,219
548,63	12,840
548,82	10,029
549,02	9,342
549,21	8,651
549,41	10,148
549,61	8,853
549,80	7,864
550,00	11,571
550,20	9,091
550,39	9,787
550,59	9,658
550,78	9,437
550,98	7,855
551,18	12,040
551,37	10,942
551,57	8,023
551,76	10,434
551,96	8,964
552,16	7,979
552,35	9,807
552,55	8,801
552,74	10,847
552,94	13,592
553,14	10,489
553,33	8,830
553,53	8,555
553,72	11,759
553,92	12,796
554,12	8,458
554,31	10,660
554,51	9,832
554,70	8,072
554,90	9,934
555,09	12,943
555,29	9,320
555,49	13,307
555,68	11,849
555,88	8,828
556,07	12,254
556,27	12,760
556,46	8,876
556,66	7,308
556,86	12,501
557,05	11,263
557,25	8,554
557,44	8,821
557,64	9,317
557,83	11,658
558,03	9,660
558,22	10,186
558,42	12,524
558,62	12,888
558,81	10,868
559,01	9,905
559,20	12,637
559,40	9,832
559,59	10,150
559,79	7,927
559,98	10,442
560,18	12,301
560,37	9,702
560,57	9,886
560,76	10,336
560,96	7,353
561,16	11,064
561,35	8,072
561,55	12,496
561,74	9,941
561,94	12,022
562,13	10,007
562,33	15,106
562,52	10,782
562,72	9,597
562,91	8,006
563,11	11,593
563,30	13,194
563,50	7,614
563,69	9,441
563,89	9,306
564,08	11,622
564,28	10,402
564,47	9,348
564,67	8,427
564,86	11,369
565,06	9,815
565,25	9,697
565,45	11,234
565,64	15,389
565,84	8,600
566,03	8,191
566,23	10,421
566,42	12,158
566,62	10,185
566,81	8,715
567,01	9,440
567,20	11,049
567,40	8,242
567,59	8,341
567,79	12,184
567,98	12,512
568,18	11,058
568,37	9,282
568,57	11,341
568,76	13,034
568,96	9,340
569,15	9,254
569,35	10,450
569,54	13,261
569,73	10,843
569,93	7,978
570,12	8,638
570,32	12,286
570,51	10,090
570,71	11,786
570,90	13,188
571,10	10,241
571,29	7,890
571,49	8,709
571,68	12,106
571,87	10,658
572,07	9,422
572,26	7,108
572,46	10,286
572,65	11,088
572,85	7,257
573,04	10,275
573,24	9,710
573,43	12,124
573,62	11,029
573,82	10,842
574,01	9,816
574,21	9,409
574,40	7,599
574,60	8,268
574,79	12,980
574,98	8,608
575,18	10,888
575,37	9,012
575,57	11,074
575,76	11,513
575,96	9,984
576,15	11,225
576,34	11,669
576,54	10,777
576,73	10,569
576,93	9,906
577,12	11,263
577,31	11,881
577,51	8,720
577,70	10,350
577,90	11,254
578,09	9,436
578,28	8,944
578,48	9,871
578,67	12,419
578,87	11,776
579,06	9,959
579,25	11,245
579,45	12,765
579,64	9,081
579,84	9,248
580,03	11,325
580,22	11,593
580,42	9,563
580,61	11,274
580,81	11,167
581,00	13,426
581,19	12,527
581,39	9,735
581,58	10,878
581,77	10,419
581,97	13,299
582,16	11,912
582,35	8,993
582,55	11,598
582,74	14,093
582,94	10,422
583,13	9,300
583,32	11,633
583,52	12,192
583,71	11,640
583,90	10,697
584,10	12,705
584,29	14,491
584,48	9,722
584,68	12,331
584,87	13,104
585,06	11,908
585,26	10,484
585,45	11,185
585,65	13,856
585,84	11,748
586,03	12,257
586,23	10,375
586,42	13,017
586,61	14,196
586,81	11,307
587,00	12,464
587,19	11,239
587,39	14,529
587,58	12,845
587,77	11,733
587,97	11,583
588,16	13,481
588,35	13,455
588,54	12,264
588,74	12,737
588,93	15,476
589,12	13,062
589,32	12,963
589,51	12,633
589,70	11,134
589,90	12,914
590,09	11,627
590,28	17,603
590,48	11,232
590,67	12,087
590,86	12,666
591,06	13,719
591,25	16,157
591,44	16,371
591,63	12,571
591,83	13,756
592,02	15,687
592,21	12,574
592,41	12,974
592,60	15,540
592,79	16,488
592,98	14,800
593,18	14,091
593,37	15,834
593,56	16,025
593,76	15,749
593,95	14,001
594,14	14,362
594,33	17,326
594,53	14,148
594,72	13,823
594,91	17,437
595,10	16,797
595,30	15,174
595,49	14,828
595,68	17,200
595,88	16,609
596,07	15,278
596,26	17,227
596,45	15,381
596,65	16,023
596,84	13,936
597,03	17,365
597,22	16,711
597,42	18,373
597,61	16,114
597,80	16,686
597,99	15,628
598,19	17,179
598,38	17,461
598,57	16,273
598,76	17,422
598,95	20,353
599,15	17,072
599,34	18,007
599,53	17,787
599,72	17,621
599,92	17,898
600,11	17,776
600,30	18,738
600,49	19,966
600,69	15,781
600,88	19,381
601,07	18,279
601,26	17,225
601,45	17,249
601,65	16,884
601,84	18,857
602,03	17,818
602,22	19,292
602,42	19,797
602,61	18,398
602,80	19,496
602,99	18,342
603,18	17,144
603,38	19,851
603,57	19,341
603,76	19,944
603,95	18,794
604,14	20,851
604,34	19,637
604,53	18,425
604,72	19,633
604,91	20,272
605,10	20,329
605,29	21,189
605,49	17,223
605,68	21,077
605,87	20,538
606,06	18,897
606,25	18,349
606,45	20,032
606,64	20,645
606,83	20,484
607,02	19,543
607,21	21,249
607,40	20,077
607,60	18,824
607,79	17,560
607,98	17,639
608,17	18,716
608,36	19,509
608,55	19,638
608,75	20,083
608,94	19,201
609,13	16,843
609,32	15,495
609,51	17,747
609,70	16,058
609,89	18,234
610,09	14,991
610,28	19,304
610,47	17,963
610,66	16,501
610,85	16,530
611,04	19,164
611,23	17,025
611,43	16,416
611,62	15,848
611,81	16,781
612,00	20,123
612,19	17,118
612,38	17,001
612,57	18,429
612,77	18,568
612,96	19,697
613,15	19,483
613,34	20,900
613,53	19,567
613,72	21,567
613,91	18,871
614,10	19,258
614,29	21,855
614,49	18,981
614,68	18,881
614,87	21,544
615,06	24,032
615,25	18,576
615,44	21,155
615,63	21,745
615,82	20,100
616,01	20,810
616,21	20,295
616,40	23,976
616,59	24,333
616,78	21,299
616,97	22,606
617,16	23,259
617,35	25,362
617,54	22,992
617,73	23,169
617,92	23,343
618,11	24,797
618,31	20,417
618,50	21,444
618,69	21,658
618,88	23,331
619,07	20,740
619,26	21,615
619,45	21,416
619,64	21,828
619,83	22,278
620,02	20,876
620,21	24,695
620,40	23,825
620,59	20,908
620,78	21,907
620,97	24,335
621,17	25,287
621,36	21,536
621,55	23,053
621,74	24,847
621,93	23,752
622,12	22,969
622,31	22,310
622,50	24,478
622,69	26,080
622,88	24,931
623,07	25,836
623,26	26,169
623,45	27,695
623,64	23,609
623,83	23,966
624,02	27,856
624,21	26,095
624,40	24,035
624,59	21,573
624,78	24,726
624,97	27,047
625,16	21,554
625,35	22,468
625,54	22,521
625,73	25,548
625,92	22,960
626,12	25,994
626,31	27,228
626,50	26,671
626,69	23,666
626,88	22,959
627,07	25,712
627,26	25,462
627,45	23,930
627,64	24,205
627,83	25,517
628,02	24,474
628,21	25,082
628,40	23,798
628,59	26,125
628,78	22,523
628,97	23,800
629,16	22,822
629,35	24,521
629,54	27,529
629,73	24,704
629,92	23,093
630,10	24,283
630,29	26,504
630,48	23,719
630,67	24,900
630,86	25,940
631,05	25,279
631,24	26,558
631,43	23,446
631,62	25,251
631,81	24,069
632,00	24,822
632,19	22,942
632,38	27,558
632,57	28,024
632,76	23,884
632,95	26,029
633,14	27,301
633,33	27,154
633,52	26,142
633,71	26,998
633,90	24,871
634,09	27,043
634,28	26,298
634,47	24,313
634,66	27,577
634,85	26,466
635,04	29,163
635,22	25,707
635,41	26,114
635,60	29,058
635,79	27,566
635,98	24,283
636,17	27,159
636,36	25,891
636,55	25,650
636,74	24,623
636,93	28,102
637,12	26,506
637,31	24,657
637,50	24,551
637,69	28,790
637,87	27,314
638,06	26,503
638,25	25,566
638,44	26,531
638,63	23,953
638,82	26,093
639,01	25,550
639,20	26,871
639,39	27,753
639,58	25,445
639,77	27,338
639,95	25,602
640,14	28,188
640,33	25,906
640,52	25,300
640,71	28,318
640,90	27,341
641,09	28,505
641,28	26,863
641,47	27,845
641,66	28,048
641,84	27,400
642,03	26,312
642,22	26,726
642,41	28,687
642,60	26,882
642,79	27,079
642,98	27,997
643,17	26,017
643,35	24,780
643,54	28,103
643,73	29,396
643,92	28,161
644,11	26,074
644,30	24,594
644,49	28,829
644,67	26,740
644,86	25,290
645,05	28,236
645,24	27,365
645,43	27,046
645,62	28,355
645,81	25,775
645,99	27,319
646,18	29,431
646,37	25,895
646,56	28,488
646,75	29,529
646,94	29,448
647,13	25,544
647,31	26,680
647,50	28,720
647,69	30,254
647,88	28,059
648,07	28,815
648,26	31,884
648,44	26,050
648,63	27,820
648,82	26,434
649,01	31,119
649,20	27,141
649,38	26,568
649,57	27,811
649,76	27,413
649,95	29,135
650,14	25,660
650,33	27,106
650,51	27,512
650,70	29,401
650,89	26,012
651,08	25,312
651,27	29,688
651,45	27,987
651,64	25,370
651,83	28,558
652,02	25,342
652,21	28,929
652,39	28,746
652,58	28,413
652,77	27,509
652,96	29,029
653,15	27,818
653,33	26,133
653,52	28,978
653,71	29,236
653,90	29,030
654,09	28,007
654,27	28,940
654,46	31,390
654,65	27,026
654,84	28,594
655,02	30,483
655,21	28,529
655,40	30,584
655,59	27,507
655,77	29,649
655,96	28,955
656,15	29,710
656,34	30,988
656,53	29,812
656,71	29,306
656,90	29,573
657,09	29,688
657,28	29,899
657,46	27,609
657,65	28,419
657,84	25,599
658,03	28,766
658,21	27,561
658,40	27,802
658,59	27,473
658,78	29,493
658,96	27,511
659,15	28,798
659,34	27,663
659,52	28,071
659,71	28,693
659,90	27,461
660,09	27,413
660,27	28,318
660,46	28,502
660,65	28,399
660,84	26,757
661,02	27,657
661,21	30,151
661,40	28,261
661,58	29,283
661,77	28,914
661,96	24,681
662,15	27,141
662,33	25,533
662,52	27,942
662,71	27,832
662,89	26,199
663,08	27,105
663,27	27,811
663,45	27,677
663,64	26,437
663,83	25,522
664,02	25,625
664,20	29,524
664,39	27,063
664,58	26,630
664,76	28,138
664,95	28,281
665,14	27,246
665,32	25,954
665,51	28,309
665,70	28,590
665,88	28,972
666,07	28,497
666,26	28,846
666,44	28,270
666,63	26,868
666,82	27,608
667,00	28,228
667,19	25,004
667,38	26,589
667,56	27,466
667,75	28,122
667,94	27,901
668,12	23,844
668,31	28,064
668,50	28,810
668,68	28,509
668,87	25,731
669,06	25,909
669,24	29,147
669,43	26,192
669,62	25,824
669,80	24,291
669,99	26,240
670,18	26,867
670,36	26,097
670,55	26,670
670,74	25,754
670,92	23,723
671,11	27,189
671,29	24,286
671,48	26,450
671,67	26,592
671,85	29,034
672,04	25,094
672,23	24,418
672,41	27,239
672,60	26,365
672,78	25,872
672,97	27,103
673,16	27,395
673,34	26,112
673,53	24,563
673,71	27,073
673,90	27,411
674,09	26,134
674,27	25,376
674,46	25,900
674,64	27,249
674,83	26,340
675,02	22,580
675,20	26,557
675,39	25,114
675,57	26,875
675,76	25,996
675,95	29,072
676,13	28,540
676,32	26,350
676,50	25,347
676,69	24,100
676,88	26,032
677,06	26,411
677,25	27,304
677,43	29,452
677,62	27,662
677,80	26,720
677,99	26,033
678,18	28,059
678,36	29,463
678,55	24,528
678,73	25,487
678,92	27,790
679,10	28,287
679,29	25,810
679,48	23,788
679,66	27,239
679,85	26,907
680,03	24,888
680,22	25,797
680,40	27,630
680,59	26,775
680,77	24,693
680,96	28,339
681,15	25,183
681,33	29,234
681,52	26,591
681,70	24,849
681,89	28,223
682,07	27,622
682,26	26,200
682,44	26,876
682,63	28,859
682,81	27,557
683,00	26,669
683,18	25,106
683,37	28,575
683,55	26,220
683,74	27,630
683,92	33,564
684,11	28,437
684,29	28,148
684,48	24,884
684,67	26,445
684,85	26,486
685,04	28,321
685,22	28,204
685,41	28,199
685,59	28,241
685,78	26,330
685,96	25,802
686,15	27,909
686,33	26,534
686,52	27,611
686,70	27,826
686,89	28,611
687,07	30,261
687,26	28,793
687,44	28,186
687,62	26,873
687,81	30,038
687,99	28,083
688,18	27,891
688,36	28,908
688,55	29,951
688,73	27,882
688,92	25,621
689,10	28,444
689,29	30,489
689,47	30,651
689,66	28,152
689,84	26,764
690,03	27,095
690,21	29,197
690,40	28,418
690,58	27,720
690,76	26,807
690,95	29,090
691,13	27,918
691,32	28,761
691,50	31,933
691,69	29,745
691,87	28,370
692,06	28,270
692,24	28,286
692,43	30,492
692,61	27,018
692,79	26,890
692,98	26,241
693,16	30,727
693,35	27,462
693,53	29,585
693,72	28,782
693,90	31,603
694,08	27,884
694,27	28,501
694,45	32,868
694,64	33,223
694,82	30,216
695,01	27,384
695,19	28,742
695,37	29,754
695,56	26,726
695,74	28,856
695,93	31,474
696,11	30,576
696,29	31,051
696,48	28,027
696,66	30,834
696,85	30,303
697,03	27,382
697,21	31,061
697,40	30,480
697,58	30,155
697,77	29,590
697,95	30,949
698,13	29,665
698,32	29,439
698,50	29,382
698,69	28,434
698,87	31,327
699,05	30,292
699,24	28,883
699,42	29,496
699,60	25,348
699,79	29,703
699,97	28,611
700,16	27,130
700,34	32,346
700,52	28,127
700,71	30,236
700,89	27,961
701,07	29,993
701,26	29,818
701,44	29,105
701,63	27,221
701,81	29,251
701,99	30,290
702,18	27,493
702,36	27,384
702,54	29,694
702,73	28,725
702,91	29,051
703,09	27,665
703,28	27,720
703,46	30,710
703,64	29,883
703,83	29,560
704,01	29,148
704,19	29,174
704,38	27,561
704,56	27,836
704,74	31,048
704,93	30,189
705,11	29,308
705,29	29,601
705,48	36,938
705,66	30,226
705,84	30,277
706,03	26,943
706,21	30,536
706,39	28,865
706,58	28,577
706,76	27,758
706,94	30,428
707,12	31,157
707,31	28,568
707,49	29,222
707,67	29,569
707,86	33,270
708,04	29,195
708,22	27,190
708,41	31,749
708,59	28,803
708,77	25,908
708,95	30,143
709,14	34,551
709,32	30,142
709,50	28,145
709,69	28,418
709,87	29,420
710,05	30,484
710,23	28,818
710,42	26,737
710,60	30,820
710,78	30,718
710,97	28,252
711,15	29,205
711,33	31,558
711,51	29,522
711,70	28,078
711,88	27,141
712,06	31,655
712,24	30,625
712,43	29,111
712,61	28,391
712,79	29,352
712,97	28,340
713,16	30,069
713,34	28,803
713,52	31,049
713,70	31,418
713,89	28,648
714,07	28,452
714,25	31,443
714,43	32,140
714,62	28,794
714,80	28,099
714,98	26,788
715,16	30,463
715,35	28,464
715,53	27,752
715,71	31,536
715,89	32,244
716,07	29,999
716,26	33,784
716,44	31,678
716,62	30,582
716,80	28,704
716,99	29,916
717,17	32,006
717,35	30,907
717,53	28,631
717,71	28,711
717,90	30,866
718,08	30,121
718,26	25,299
718,44	31,127
718,62	31,682
718,81	31,362
718,99	27,195
719,17	28,184
719,35	30,710
719,53	28,674
719,72	29,262
719,90	31,510
720,08	29,723
720,26	32,220
720,44	28,987
720,62	29,591
720,81	31,584
720,99	34,147
721,17	29,289
721,35	31,516
721,53	29,825
721,72	32,853
721,90	29,818
722,08	28,765
722,26	32,619
722,44	31,298
722,62	28,092
722,81	29,429
722,99	28,925
723,17	32,118
723,35	29,820
723,53	29,245
723,71	31,558
723,89	34,030
724,08	26,066
724,26	31,326
724,44	30,063
724,62	30,981
724,80	27,480
724,98	31,450
725,16	32,873
725,35	30,839
725,53	30,076
725,71	28,682
725,89	30,675
726,07	31,592
726,25	33,147
726,43	28,693
726,61	31,704
726,80	30,497
726,98	28,308
727,16	30,498
727,34	31,612
727,52	31,243
727,70	29,203
727,88	26,668
728,06	27,084
728,25	28,433
728,43	29,369
728,61	29,392
728,79	28,694
728,97	33,076
729,15	28,978
729,33	28,988
729,51	31,432
729,69	30,743
729,87	29,460
730,06	29,633
730,24	29,014
730,42	33,133
730,60	26,327
730,78	30,318
730,96	30,420
731,14	31,754
731,32	30,337
731,50	30,529
731,68	30,353
731,86	30,811
732,04	31,740
732,22	28,089
732,41	34,848
732,59	31,088
732,77	32,457
732,95	32,807
733,13	33,452
733,31	31,386
733,49	28,407
733,67	31,618
733,85	32,562
734,03	31,306
734,21	29,513
734,39	31,319
734,57	31,844
734,75	31,224
734,93	28,978
735,11	30,475
735,29	26,532
735,47	33,214
735,65	28,312
735,84	29,340
736,02	30,030
736,20	34,528
736,38	30,353
736,56	30,227
736,74	30,435
736,92	31,193
737,10	29,932
737,28	31,409
737,46	31,137
737,64	29,507
737,82	31,280
738,00	31,586
738,18	33,863
738,36	29,885
738,54	30,270
738,72	27,854
738,90	31,213
739,08	33,905
739,26	27,708
739,44	30,634
739,62	32,888
739,80	31,639
739,98	30,056
740,16	30,623
740,34	31,157
740,52	33,156
740,70	30,323
740,88	28,282
741,06	30,438
741,24	31,474
741,42	31,701
741,60	27,699
741,78	33,540
741,96	31,488
742,14	29,015
742,32	26,737
742,50	32,323
742,68	31,645
742,86	29,436
743,04	27,403
743,21	32,362
743,39	31,468
743,57	28,450
743,75	28,705
743,93	29,368
744,11	27,553
744,29	30,452
744,47	30,414
744,65	30,294
744,83	30,805
745,01	28,511
745,19	30,658
745,37	35,147
745,55	31,924
745,73	32,075
745,91	27,044
746,09	31,150
746,27	30,345
746,45	29,048
746,62	29,510
746,80	29,399
746,98	30,916
747,16	27,264
747,34	29,807
747,52	31,190
747,70	31,071
747,88	30,447
748,06	29,083
748,24	31,584
748,42	31,488
748,60	29,527
748,78	29,121
748,95	32,540
749,13	35,392
749,31	28,843
749,49	28,609
749,67	31,131
749,85	33,129
750,03	30,401
750,21	29,376
750,39	29,756
750,57	31,106
750,74	31,581
750,92	28,351
751,10	33,301
751,28	29,995
751,46	29,129
751,64	30,243
751,82	30,523
752,00	32,015
752,17	30,138
752,35	28,654
752,53	32,065
752,71	30,969
752,89	29,161
753,07	28,021
753,25	30,763
753,43	28,412
753,60	32,386
753,78	29,347
753,96	32,505
754,14	32,361
754,32	31,205
754,50	31,417
754,68	31,890
754,85	30,409
755,03	31,224
755,21	30,013
755,39	34,457
755,57	31,957
755,75	29,941
755,92	27,859
756,10	30,576
756,28	32,205
756,46	29,545
756,64	28,042
756,82	31,576
756,99	31,305
757,17	30,295
757,35	27,581
757,53	34,369
757,71	36,451
757,89	29,920
758,06	31,846
758,24	31,715
758,42	31,406
758,60	30,166
758,78	30,779
758,95	31,513
759,13	33,428
759,31	29,320
759,49	29,890
759,67	30,778
759,84	31,755
760,02	31,666
760,20	30,796
760,38	32,004
760,56	30,232
760,73	31,002
760,91	30,651
761,09	33,285
761,27	30,627
761,45	29,967
761,62	29,053
761,80	31,067
761,98	32,281
762,16	29,389
762,33	28,882
762,51	33,628
762,69	29,585
762,87	30,183
763,05	30,842
763,22	31,305
763,40	30,099
763,58	28,399
763,76	29,889
763,93	31,941
764,11	33,560
764,29	30,506
764,47	30,190
764,64	30,140
764,82	33,054
765,00	28,970
765,18	28,748
765,35	29,768
765,53	31,938
765,71	30,298
765,89	31,095
766,06	29,573
766,24	31,587
766,42	31,473
766,60	28,677
766,77	29,619
766,95	29,868
767,13	32,918
767,30	30,516
767,48	28,605
767,66	30,942
767,84	29,658
768,01	30,347
768,19	33,581
768,37	30,693
768,54	29,372
768,72	31,235
768,90	30,612
769,08	32,112
769,25	32,016
769,43	30,053
769,61	30,157
769,78	33,130
769,96	30,860
770,14	30,761
770,31	32,962
770,49	33,928
770,67	32,212
770,85	29,560
771,02	31,386
771,20	30,115
771,38	30,800
771,55	31,259
771,73	29,667
771,91	32,622
772,08	33,593
772,26	30,652
772,44	32,445
772,61	31,332
772,79	29,528
772,97	29,381
773,14	28,614
773,32	31,960
773,50	28,895
773,67	32,225
773,85	34,472
774,03	32,408
774,20	32,124
774,38	31,815
774,56	30,027
774,73	30,206
774,91	28,346
775,09	30,234
775,26	30,329
775,44	32,279
775,61	31,725
775,79	29,651
775,97	33,571
776,14	31,665
776,32	28,674
776,50	29,387
776,67	34,435
776,85	33,319
777,03	30,825
777,20	29,811
777,38	33,126
777,55	33,258
777,73	26,251
777,91	29,876
778,08	31,544
778,26	32,328
778,43	32,132
778,61	27,582
778,79	28,555
778,96	30,614
779,14	30,957
779,32	31,555
779,49	29,512
779,67	35,355
779,84	33,136
780,02	33,069
780,20	27,665
780,37	31,418
780,55	28,450
780,72	33,438
780,90	33,802
781,07	30,598
781,25	31,900
781,43	32,522
781,60	31,837
781,78	34,249
781,95	32,483
782,13	34,803
782,30	34,985
782,48	30,756
782,66	30,515
782,83	27,481
783,01	38,441
783,18	35,375
783,36	34,729
783,53	30,470
783,71	31,224
783,89	30,735
784,06	32,191
784,24	29,892
784,41	34,591
784,59	31,417
784,76	31,388
784,94	31,053
785,11	31,177
785,29	28,079
785,46	31,322
785,64	29,063
785,82	31,970
785,99	34,519
786,17	32,114
786,34	28,717
786,52	32,641
786,69	36,658
786,87	31,432
787,04	31,475
787,22	30,653
787,39	32,328
787,57	32,694
787,74	32,136
787,92	36,643
788,09	36,220
788,27	30,559
788,44	30,700
788,62	36,129
788,79	33,094
788,97	34,177
789,14	31,938
789,32	31,464
789,49	32,695
789,67	33,010
789,84	32,135
790,02	33,372
790,19	34,232
790,37	31,002
790,54	30,784
790,72	37,763
790,89	33,576
791,07	32,054
791,24	28,342
791,42	33,316
791,59	34,918
791,77	32,280
791,94	30,365
792,12	30,050
792,29	34,898
792,47	32,024
792,64	36,209
792,81	34,436
792,99	31,161
793,16	31,966
793,34	31,457
793,51	32,699
793,69	33,474
793,86	29,350
794,04	33,851
794,21	34,765
794,39	30,040
794,56	33,134
794,73	33,427
794,91	34,656
795,08	34,626
795,26	31,228
795,43	32,483
795,61	36,177
795,78	35,626
795,95	34,393
796,13	32,355
796,30	36,325
796,48	29,568
796,65	31,327
796,83	33,963
797,00	37,189
797,17	28,381
797,35	32,801
797,52	32,948
797,70	39,113
797,87	34,635
798,04	30,906
798,22	32,733
798,39	34,763
798,57	32,308
798,74	36,744
798,91	30,601
799,09	32,270
799,26	35,969
799,44	32,999
799,61	31,953
799,78	33,739
799,96	36,390
800,13	33,294
800,31	29,896
800,48	35,671
800,65	37,915
800,83	31,262
801,00	32,189
801,17	33,361
801,35	36,810
801,52	30,677
801,70	32,190
801,87	35,041
802,04	37,135
802,22	28,408
802,39	30,502
802,56	40,090
802,74	37,578
802,91	32,811
803,08	32,623
803,26	36,147
803,43	40,084
803,61	32,445
803,78	32,832
803,95	34,172
804,13	34,289
804,30	32,409
804,47	35,247
804,65	37,979
804,82	33,731
804,99	34,291
805,17	33,647
805,34	41,397
805,51	37,333
805,69	32,896
805,86	30,413
806,03	37,403
806,21	42,522
806,38	34,967
806,55	37,425
806,72	36,520
806,90	38,295
807,07	34,014
807,24	31,858
807,42	30,969
807,59	35,128
807,76	30,635
807,94	33,098
808,11	43,058
808,28	36,081
808,45	32,922
808,63	34,222
808,80	38,917
808,97	37,025
809,15	31,888
809,32	36,023
809,49	33,568
809,67	32,078
809,84	36,203
810,01	36,611
810,18	45,398
810,36	38,595
810,53	35,480
810,70	34,554
810,87	34,947
811,05	36,840
811,22	36,019
811,39	34,441
811,57	40,498
811,74	36,101
811,91	30,088
812,08	31,781
812,26	37,402
812,43	32,384
812,60	32,637
812,77	32,377
812,95	37,531
813,12	37,173
813,29	32,495
813,46	35,364
813,64	35,762
813,81	40,620
813,98	35,655
814,15	37,108
814,32	40,600
814,50	38,527
814,67	30,936
814,84	38,509
815,01	40,502
815,19	26,054
815,36	26,670
815,53	35,802
815,70	37,364
815,87	29,860
816,05	27,324
816,22	34,844
816,39	42,486
816,56	41,673
816,74	34,311
816,91	32,691
817,08	46,810
817,25	40,213
817,42	35,033
817,60	32,601
817,77	36,828
817,94	39,235
818,11	34,704
818,28	36,848
818,45	36,207
818,63	38,088
818,80	34,692
818,97	37,344
819,14	44,078
819,31	44,069
819,49	38,579
819,66	30,448
819,83	37,864
820,00	36,668
820,17	32,870
820,34	36,226
820,52	38,580
820,69	42,288
820,86	30,142
821,03	36,984
821,20	46,749
821,37	43,669
821,55	28,604
821,72	31,900
821,89	41,221
822,06	46,050
822,23	33,483
822,40	37,808
822,57	45,632
822,75	45,022
822,92	25,752
823,09	35,770
823,26	41,922
823,43	46,546
823,60	31,662
823,77	38,497
823,94	40,319
824,12	45,265
824,29	35,023
824,46	35,566
824,63	47,862
824,80	44,705
824,97	35,705
825,14	35,858
825,31	40,907
825,49	43,138
825,66	34,836
825,83	34,993
826,00	37,020
826,17	50,740
826,34	35,475
826,51	30,395
826,68	37,893
826,85	38,522
827,02	32,405
827,20	28,104
827,37	39,907
827,54	38,709
827,71	39,152
827,88	37,742
828,05	40,730
828,22	38,493
828,39	41,091
828,56	38,717
828,73	38,366
828,90	41,290
829,07	33,259
829,25	39,032
829,42	41,536
829,59	36,904
829,76	37,938
829,93	31,336
830,10	41,193
830,27	34,693
830,44	41,443
830,61	38,006
830,78	52,895
830,95	44,704
831,12	31,125
831,29	36,096
831,46	29,858
831,63	35,428
831,80	39,384
831,97	33,216
832,14	51,400
832,31	51,393
832,48	35,846
832,65	33,876
832,83	34,000
833,00	49,699
833,17	39,352
833,34	36,334
833,51	50,302
833,68	49,137
833,85	40,478
834,02	35,307
834,19	41,783
834,36	46,984
834,53	32,135
834,70	39,164
834,87	53,407
835,04	39,604
835,21	42,477
835,38	35,373
835,55	36,834
835,72	58,618
835,89	35,089
836,06	35,965
836,23	56,003
836,40	39,349
836,57	32,700
836,74	45,832
836,91	46,031
837,08	51,343
837,25	42,623
837,42	27,359
837,59	43,906
837,76	40,351
837,93	43,430
838,09	33,844
838,26	45,986
838,43	53,686
838,60	38,075
838,77	42,887
838,94	48,817
839,11	32,471
839,28	38,451
839,45	35,833
839,62	37,171
839,79	45,026
839,96	43,929
840,13	45,008
840,30	35,019
840,47	31,620
840,64	42,918
840,81	41,677
840,98	30,976
841,15	53,693
841,32	31,981
841,48	44,980
841,65	43,957
841,82	42,664
841,99	41,874
842,16	30,289
842,33	42,762
842,50	53,988
842,67	37,004
842,84	40,249
843,01	53,105
843,18	47,970
843,35	38,791
843,52	39,798
843,68	48,631
843,85	43,634
844,02	36,316
844,19	36,744
844,36	60,236
844,53	44,511
844,70	39,844
844,87	43,197
845,04	54,851
845,21	30,521
845,37	40,049
845,54	39,255
845,71	38,001
845,88	63,539
846,05	39,895
846,22	28,674
846,39	45,969
846,56	57,023
846,72	24,275
846,89	39,946
847,06	58,026
847,23	50,350
847,40	38,557
847,57	35,818
847,74	41,325
847,90	61,748
848,07	36,204
848,24	47,504
848,41	51,901
848,58	59,270
848,75	37,583
848,92	39,333
849,08	45,566
849,25	48,015
849,42	33,127
849,59	49,887
849,76	42,080
849,93	46,750
850,09	41,213
850,26	33,478
850,43	66,886
850,60	46,108
850,77	46,300
850,94	41,380
851,10	48,549
851,27	49,649
851,44	39,536
851,61	37,820
851,78	54,460
851,95	59,384
852,11	40,781
852,28	44,243
852,45	56,569
852,62	53,498
852,79	37,817
852,95	28,214
853,12	58,239
853,29	45,611
853,46	23,003
853,63	53,220
853,79	48,207
853,96	48,191
854,13	52,122
854,30	40,295
854,46	80,855
854,63	52,527
854,80	45,893
854,97	41,283
855,14	73,043
855,30	65,059
855,47	31,638
855,64	36,073
855,81	44,419
855,97	75,066
856,14	51,022
856,31	24,520
856,48	67,912
856,65	67,670
856,81	42,049
856,98	36,683
857,15	38,422
857,32	58,778
857,48	43,644
857,65	45,746
857,82	64,361
857,99	58,313
858,15	39,402
858,32	45,722
858,49	51,232
858,65	72,870
858,82	49,604
858,99	53,424
859,16	63,548
859,32	66,978
859,49	35,867
859,66	51,202
859,83	53,955
859,99	51,626
860,16	49,207
860,33	44,336
860,49	81,074
860,66	61,714
860,83	51,689
861,00	39,310
861,16	62,963
861,33	56,865
861,50	39,114
861,66	43,301
861,83	72,371
862,00	56,007
862,16	41,142
862,33	39,179
862,50	84,781
862,67	58,071
862,83	35,123
863,00	65,693
863,17	94,019
863,33	60,385
863,50	19,162
863,67	46,529
863,83	56,688
864,00	75,292
864,17	18,836
864,33	32,937
864,50	66,449
864,67	57,083
864,83	22,175
865,00	37,525
865,17	46,061
865,33	76,858
865,50	36,290
865,67	36,053
865,83	58,579
866,00	90,560
866,17	46,544
866,33	73,239
866,50	75,452
866,66	78,055
866,83	43,492
867,00	73,125
867,16	78,746
867,33	76,856
867,50	29,977
867,66	34,728
867,83	70,748
868,00	77,027
868,16	38,638
868,33	41,922
868,49	70,771
868,66	77,505
868,83	51,398
868,99	54,704
869,16	84,626
869,32	111,075
869,49	50,686
869,66	47,679
869,82	97,271
869,99	87,378
870,15	28,197
870,32	58,793
870,49	94,829
870,65	127,585
870,82	76,174
870,98	54,815
871,15	131,726
871,32	66,307
871,48	25,159
871,65	32,417
871,81	72,337
871,98	49,442
872,15	29,656
872,31	29,808
872,48	138,661
872,64	80,671
872,81	38,767
872,97	57,727
873,14	114,509
873,31	85,056
873,47	35,680
873,64	83,848
873,80	129,267
873,97	101,904
874,13	31,418
874,30	53,832
874,46	97,096
874,63	68,115
874,80	66,945
874,96	35,576
875,13	140,954
875,29	63,106
875,46	83,136
875,62	24,595
875,79	126,224
875,95	62,370
876,12	40,442
876,28	3,826
876,45	143,877
876,61	74,858
876,78	61,975
876,94	65,634
877,11	97,909
877,27	107,951
877,44	80,089
877,60	59,918
877,77	126,959
877,94	134,825
878,10	62,581
878,27	94,317
878,43	137,395
878,60	65,359
878,76	69,611
878,93	50,114
879,09	125,983
879,26	150,902
879,42	134,689
879,58	49,930
879,75	138,183
879,91	132,206
880,08	-11,629
880,24	56,386
880,41	121,418
880,57	83,012
880,74	39,431
880,90	41,296
881,07	100,152
881,23	154,087
881,40	63,712
881,56	87,679
881,73	131,902
881,89	93,672
882,06	-38,416
882,22	149,284
882,38	212,389
882,55	201,169
882,71	79,976
882,88	60,251
883,04	194,427
883,21	174,247
883,37	83,209
883,54	89,473
883,70	245,911
883,86	143,960
884,03	88,546
884,19	23,725
884,36	203,952
884,52	220,624
884,69	87,576
884,85	79,752
885,01	242,512
885,18	168,021
885,34	99,158
885,51	-4,102
885,67	117,898
>>>>> Data<<<<< Espectral Procesado Extremo
