Fichero De Datos De SpectraSuite
++++++++++++++++++++++++++++++++++++
Fecha: Wed Apr 22 13:08:45 CEST 2009
Usuario: evoflor
Presente Oscuro Del Espectro: Sí
La Referencia de Presente Del Espectro De: Sí
Muestreados de los componentes de Número de espectros: 1
Espectrómetros: USB4F02353
Tiempo de integración (usec): 500000 (USB4F02353)
Promedio de Espectros Hechos un: 5 (USB4F02353)
El Alisar Del Furgón: 0 (USB4F02353)
Párrafo de de Corregir del la del del de Eléctrica del obscuridad: Sí (USB4F02353)
Estrobo/Lámpara Permitido: No (USB4F02353)
Correct for Detector Non-linearity: No (USB4F02353)
Párrafo de de Corregir del la del del de Externa del luz: No (USB4F02353)
Procesado del espectro de Número de pixeles en: 3648
>>>>> Comienza Data<<<<< Espectral Procesado Del EL
177,79	327,314
178,00	327,314
178,22	327,314
178,44	2509,725
178,66	-202,347
178,88	515,261
179,09	-165,596
179,31	333,765
179,53	700,046
179,75	214,804
179,96	420,819
180,18	-454,815
180,40	347,500
180,62	442,215
180,83	-214,814
181,05	-2164,817
181,27	-123515,000
181,49	-178,511
181,70	346,981
181,92	919,365
182,14	510,286
182,36	56,377
182,58	168,850
182,79	1306,763
183,01	-110,942
183,23	239,340
183,45	-224,969
183,66	-251,836
183,88	345,382
184,10	-4013,000
184,32	138,651
184,53	373,577
184,75	-237,057
184,97	53,361
185,18	-90,066
185,40	-719,303
185,62	205,934
185,84	116,408
186,05	199,229
186,27	-172,275
186,49	6239,038
186,71	67,591
186,92	137,382
187,14	-233,739
187,36	235,318
187,58	136,914
187,79	-156,254
188,01	425,989
188,23	-271,634
188,45	56,085
188,66	704,085
188,88	-3113,000
189,10	-2864,150
189,31	-100,196
189,53	-7,819
189,75	258,216
189,97	38,904
190,18	-161,309
190,40	657,735
190,62	-268,048
190,83	-413,648
191,05	207,814
191,27	31,471
191,49	475,037
191,70	-507,284
191,92	-795,042
192,14	15,795
192,35	709,589
192,57	5200,429
192,79	-45,792
193,01	242,787
193,22	59,562
193,44	-247,637
193,66	83,113
193,87	85,257
194,09	-29,614
194,31	236,704
194,53	1241,364
194,74	139,702
194,96	34,802
195,18	185,354
195,39	-660,726
195,61	-216,528
195,83	-354,598
196,04	139,158
196,26	-191,030
196,48	-8,123
196,70	229,453
196,91	103,991
197,13	262,570
197,35	-1,155
197,56	780,851
197,78	2802,351
198,00	486,119
198,21	464,150
198,43	-1884,971
198,65	192,568
198,86	450,773
199,08	263,328
199,30	255,496
199,51	-625,130
199,73	218,566
199,95	541,869
200,16	942,365
200,38	387,391
200,60	109,437
200,81	197,034
201,03	465,258
201,25	-2288,150
201,46	207,429
201,68	120,655
201,90	3625,341
202,11	-516,088
202,33	134,497
202,55	1251,437
202,76	-118,667
202,98	323,746
203,20	-299,591
203,41	-147,974
203,63	108,116
203,85	-152315,000
204,06	100,731
204,28	-158,831
204,50	205,673
204,71	351,793
204,93	-451,880
205,15	52,154
205,36	-334,254
205,58	242,255
205,80	-198,417
206,01	107,907
206,23	173,946
206,45	253,897
206,66	175,877
206,88	-62,378
207,10	252,080
207,31	384,126
207,53	257,757
207,75	149,898
207,96	1176,978
208,18	-387,398
208,39	128,228
208,61	5869,000
208,83	-498,067
209,04	264,486
209,26	-453,065
209,48	206,193
209,69	338,573
209,91	633,159
210,13	30,182
210,34	466,864
210,56	258,867
210,77	-1815,866
210,99	165,556
211,21	8218,529
211,42	-288,051
211,64	-48,325
211,86	286,113
212,07	295,542
212,29	250,841
212,50	131,769
212,72	405,827
212,94	131,799
213,15	176,247
213,37	195,600
213,58	49,412
213,80	-329,107
214,02	14730,294
214,23	346,925
214,45	434,475
214,67	-529,451
214,88	-544,346
215,10	-469,393
215,31	-1,496
215,53	59,807
215,75	202,287
215,96	2159,099
216,18	-174,437
216,39	230,619
216,61	617,500
216,83	559,442
217,04	1852,978
217,26	87,444
217,47	179,452
217,69	342,620
217,91	138,621
218,12	-96515,000
218,34	128,228
218,55	614,098
218,77	56,357
218,99	163,442
219,20	-255,368
219,42	450,328
219,63	93,571
219,85	-30,257
220,06	-2,635
220,28	202,936
220,50	79,918
220,71	125,088
220,93	3943,679
221,14	-2333,150
221,36	-91,616
221,58	-2,027
221,79	190,109
222,01	1258,750
222,22	629,046
222,44	-452,640
222,65	202,392
222,87	807,098
223,09	144,969
223,30	104,183
223,52	96,795
223,73	145,611
223,95	-23,782
224,16	265,804
224,38	241,505
224,60	152,733
224,81	203,051
225,03	175,677
225,24	345,556
225,46	21,287
225,67	40,058
225,89	39,156
226,10	719,021
226,32	1096,120
226,54	9,007
226,75	-6,978
226,97	146,753
227,18	208,542
227,40	44,337
227,61	85,267
227,83	5,922
228,04	154,037
228,26	86,856
228,47	53,942
228,69	291,917
228,91	161,087
229,12	62,134
229,34	28,741
229,55	66,400
229,77	37,512
229,98	3,030
230,20	59,946
230,41	10,268
230,63	126,516
230,84	25,230
231,06	14,962
231,27	29,879
231,49	45,794
231,71	21,145
231,92	15,570
232,14	35,641
232,35	122,042
232,57	14,967
232,78	0,071
233,00	66,178
233,21	42,052
233,43	27,830
233,64	3,302
233,86	31,651
234,07	52,113
234,29	13,880
234,50	36,280
234,72	58,191
234,93	2,719
235,15	29,216
235,36	33,986
235,58	39,781
235,79	59,281
236,01	23,731
236,22	22,886
236,44	66,324
236,65	27,421
236,87	28,463
237,08	-1,252
237,30	-2,082
237,51	47,105
237,73	-13,494
237,94	11,649
238,16	26,984
238,37	11,391
238,59	8,636
238,80	7,047
239,02	11,852
239,23	26,797
239,45	0,884
239,66	15,751
239,88	32,670
240,09	21,271
240,31	8,991
240,52	3,855
240,74	23,596
240,95	22,308
241,17	4,830
241,38	10,149
241,60	20,993
241,81	27,432
242,03	-2,017
242,24	7,266
242,46	20,019
242,67	2,374
242,89	8,825
243,10	15,476
243,32	20,820
243,53	15,269
243,75	10,452
243,96	3,956
244,18	9,334
244,39	10,290
244,60	11,642
244,82	0,290
245,03	23,957
245,25	15,520
245,46	24,659
245,68	5,201
245,89	18,790
246,11	9,486
246,32	15,656
246,54	2,116
246,75	13,081
246,97	10,132
247,18	19,374
247,39	2,605
247,61	8,409
247,82	14,315
248,04	7,237
248,25	8,864
248,47	12,860
248,68	14,671
248,90	4,233
249,11	3,656
249,33	25,750
249,54	6,487
249,75	11,565
249,97	1,394
250,18	13,530
250,40	18,959
250,61	-11,752
250,83	2,585
251,04	2,896
251,25	14,081
251,47	-0,038
251,68	7,924
251,90	16,061
252,11	11,309
252,33	2,613
252,54	8,669
252,76	5,864
252,97	2,250
253,18	0,109
253,40	3,622
253,61	2,719
253,83	11,102
254,04	7,780
254,25	4,670
254,47	3,200
254,68	9,676
254,90	1,298
255,11	8,985
255,33	9,052
255,54	1,701
255,75	5,783
255,97	5,015
256,18	1,508
256,40	9,353
256,61	3,830
256,82	-2,693
257,04	12,608
257,25	4,239
257,47	8,611
257,68	1,356
257,89	9,303
258,11	13,988
258,32	6,532
258,54	7,007
258,75	6,961
258,96	12,274
259,18	6,192
259,39	-0,033
259,61	6,858
259,82	7,141
260,03	4,607
260,25	7,254
260,46	8,852
260,68	8,726
260,89	0,250
261,10	3,006
261,32	5,615
261,53	3,835
261,75	6,122
261,96	-1,238
262,17	12,825
262,39	12,243
262,60	4,648
262,81	-3,229
263,03	13,789
263,24	7,814
263,46	-3,844
263,67	3,605
263,88	4,097
264,10	8,163
264,31	-0,737
264,52	6,027
264,74	6,577
264,95	4,979
265,17	4,040
265,38	-1,183
265,59	9,749
265,81	8,404
266,02	-0,867
266,23	0,239
266,45	11,570
266,66	10,259
266,87	7,104
267,09	1,959
267,30	11,419
267,52	4,233
267,73	2,958
267,94	4,767
268,16	6,651
268,37	4,441
268,58	9,063
268,80	3,185
269,01	2,840
269,22	5,313
269,44	5,718
269,65	6,331
269,86	2,633
270,08	6,050
270,29	-1,354
270,50	3,817
270,72	10,326
270,93	4,546
271,14	1,908
271,36	3,714
271,57	10,153
271,78	8,195
272,00	5,860
272,21	7,824
272,42	5,020
272,64	6,664
272,85	0,192
273,06	3,752
273,28	7,570
273,49	5,929
273,70	8,459
273,92	4,051
274,13	7,181
274,34	3,519
274,56	6,282
274,77	2,892
274,98	11,972
275,20	7,709
275,41	5,820
275,62	3,728
275,84	6,465
276,05	11,364
276,26	1,313
276,47	-0,876
276,69	9,047
276,90	10,059
277,11	2,165
277,33	2,124
277,54	8,954
277,75	5,883
277,97	0,832
278,18	-0,285
278,39	8,090
278,61	3,814
278,82	6,043
279,03	3,405
279,24	7,146
279,46	5,028
279,67	7,915
279,88	2,061
280,10	8,928
280,31	1,918
280,52	3,958
280,73	-0,091
280,95	7,079
281,16	10,936
281,37	6,138
281,59	7,700
281,80	9,444
282,01	2,419
282,22	1,472
282,44	-0,024
282,65	13,493
282,86	8,082
283,08	1,894
283,29	2,736
283,50	6,065
283,71	6,089
283,93	6,507
284,14	7,403
284,35	3,033
284,56	3,585
284,78	2,423
284,99	4,896
285,20	9,006
285,42	4,292
285,63	2,852
285,84	-0,670
286,05	3,263
286,27	3,984
286,48	4,856
286,69	2,229
286,90	3,900
287,12	3,419
287,33	2,072
287,54	3,911
287,75	7,681
287,97	5,631
288,18	2,178
288,39	0,615
288,60	4,988
288,82	5,053
289,03	1,561
289,24	3,922
289,45	9,150
289,67	4,583
289,88	0,632
290,09	4,145
290,30	5,532
290,52	2,851
290,73	1,245
290,94	-0,818
291,15	4,612
291,37	6,600
291,58	4,679
291,79	4,197
292,00	5,416
292,21	4,328
292,43	3,546
292,64	0,941
292,85	2,577
293,06	8,020
293,28	1,347
293,49	0,561
293,70	6,347
293,91	1,143
294,12	5,662
294,34	3,977
294,55	5,421
294,76	-0,362
294,97	4,777
295,19	-0,074
295,40	3,596
295,61	6,875
295,82	-1,772
296,03	3,935
296,25	3,171
296,46	4,326
296,67	1,241
296,88	1,272
297,09	6,910
297,31	3,588
297,52	3,212
297,73	0,595
297,94	3,416
298,15	6,343
298,37	2,640
298,58	4,413
298,79	4,421
299,00	1,519
299,21	1,519
299,43	-0,359
299,64	8,317
299,85	7,721
300,06	1,963
300,27	0,364
300,49	7,008
300,70	5,572
300,91	3,903
301,12	2,666
301,33	5,183
301,54	2,141
301,76	5,156
301,97	1,702
302,18	0,951
302,39	4,873
302,60	12,189
302,82	2,977
303,03	8,390
303,24	3,532
303,45	2,674
303,66	2,924
303,87	2,595
304,09	5,268
304,30	1,926
304,51	3,391
304,72	1,455
304,93	6,105
305,14	3,199
305,36	-1,238
305,57	1,438
305,78	5,574
305,99	1,604
306,20	4,689
306,41	1,861
306,62	1,921
306,84	3,472
307,05	-0,753
307,26	4,196
307,47	8,697
307,68	3,529
307,89	4,182
308,11	5,405
308,32	3,728
308,53	3,335
308,74	0,671
308,95	4,245
309,16	3,875
309,37	7,982
309,59	2,585
309,80	5,375
310,01	4,323
310,22	3,846
310,43	3,045
310,64	5,926
310,85	6,624
311,06	0,426
311,28	3,548
311,49	3,346
311,70	7,042
311,91	2,506
312,12	0,432
312,33	5,431
312,54	3,967
312,75	2,926
312,97	1,614
313,18	5,065
313,39	2,416
313,60	-1,026
313,81	3,811
314,02	3,835
314,23	5,053
314,44	-0,452
314,65	2,230
314,87	2,012
315,08	1,541
315,29	5,342
315,50	4,481
315,71	7,346
315,92	8,573
316,13	2,986
316,34	1,648
316,55	5,969
316,77	-0,599
316,98	3,013
317,19	2,471
317,40	6,051
317,61	6,404
317,82	-0,785
318,03	1,175
318,24	3,839
318,45	8,745
318,66	2,801
318,87	1,960
319,09	4,570
319,30	7,374
319,51	4,331
319,72	5,751
319,93	7,662
320,14	4,466
320,35	6,825
320,56	3,581
320,77	4,413
320,98	7,943
321,19	2,502
321,40	1,145
321,62	7,731
321,83	1,249
322,04	5,222
322,25	4,436
322,46	10,393
322,67	6,343
322,88	3,809
323,09	1,820
323,30	7,117
323,51	8,647
323,72	4,947
323,93	2,531
324,14	2,411
324,35	-0,019
324,56	0,006
324,77	2,526
324,99	2,920
325,20	-1,968
325,41	4,538
325,62	5,184
325,83	0,941
326,04	3,906
326,25	5,366
326,46	3,013
326,67	2,514
326,88	3,445
327,09	3,599
327,30	1,154
327,51	4,888
327,72	5,684
327,93	5,605
328,14	-1,486
328,35	4,037
328,56	5,734
328,77	7,298
328,98	6,088
329,19	4,567
329,40	7,136
329,61	2,855
329,82	-0,510
330,04	5,383
330,25	1,583
330,46	1,673
330,67	0,627
330,88	3,841
331,09	4,110
331,30	4,463
331,51	5,300
331,72	2,804
331,93	5,811
332,14	2,475
332,35	4,559
332,56	3,972
332,77	5,502
332,98	0,768
333,19	-0,992
333,40	3,338
333,61	3,216
333,82	7,839
334,03	7,186
334,24	6,080
334,45	4,377
334,66	4,794
334,87	3,665
335,08	-1,584
335,29	1,888
335,50	3,353
335,71	0,898
335,92	6,514
336,13	10,245
336,34	2,933
336,55	4,089
336,76	7,754
336,97	2,845
337,18	1,931
337,39	2,749
337,60	3,492
337,81	3,893
338,02	2,690
338,23	1,766
338,44	4,838
338,65	3,931
338,86	4,965
339,07	3,041
339,28	5,533
339,49	4,340
339,70	0,482
339,91	4,755
340,11	6,668
340,32	3,372
340,53	-1,333
340,74	1,370
340,95	1,728
341,16	5,128
341,37	4,435
341,58	0,505
341,79	3,879
342,00	1,825
342,21	2,472
342,42	5,177
342,63	4,693
342,84	2,554
343,05	3,423
343,26	6,890
343,47	7,545
343,68	2,799
343,89	1,542
344,10	4,619
344,31	6,163
344,52	4,464
344,73	2,945
344,94	3,530
345,14	4,859
345,35	4,138
345,56	2,548
345,77	0,961
345,98	2,558
346,19	7,612
346,40	1,926
346,61	2,096
346,82	3,837
347,03	5,666
347,24	6,373
347,45	1,351
347,66	9,355
347,87	3,116
348,08	6,659
348,28	-0,535
348,49	5,859
348,70	6,419
348,91	3,955
349,12	1,804
349,33	16,451
349,54	4,399
349,75	5,876
349,96	4,922
350,17	4,381
350,38	0,679
350,59	5,337
350,80	1,675
351,00	4,587
351,21	6,903
351,42	5,291
351,63	-0,810
351,84	4,397
352,05	5,605
352,26	4,518
352,47	3,277
352,68	5,419
352,89	5,128
353,09	5,218
353,30	-0,595
353,51	3,243
353,72	6,732
353,93	6,758
354,14	-0,054
354,35	5,116
354,56	3,917
354,77	6,401
354,98	1,622
355,18	6,443
355,39	10,322
355,60	1,595
355,81	3,146
356,02	6,656
356,23	5,106
356,44	3,096
356,65	4,792
356,85	8,253
357,06	5,933
357,27	4,859
357,48	-1,012
357,69	5,725
357,90	5,105
358,11	0,529
358,32	3,528
358,52	6,024
358,73	4,232
358,94	0,935
359,15	7,077
359,36	7,433
359,57	-0,053
359,78	3,872
359,98	2,259
360,19	0,308
360,40	3,121
360,61	6,446
360,82	1,935
361,03	9,053
361,24	9,295
361,44	3,365
361,65	3,852
361,86	1,512
362,07	5,449
362,28	1,615
362,49	0,159
362,70	5,309
362,90	6,791
363,11	0,956
363,32	1,702
363,53	4,259
363,74	6,177
363,95	8,056
364,15	5,871
364,36	9,826
364,57	5,564
364,78	1,166
364,99	0,534
365,20	5,459
365,40	5,996
365,61	-0,022
365,82	7,129
366,03	7,732
366,24	5,964
366,45	2,444
366,65	2,654
366,86	3,297
367,07	3,559
367,28	2,536
367,49	5,708
367,69	7,129
367,90	2,971
368,11	2,413
368,32	3,280
368,53	6,191
368,73	5,724
368,94	0,127
369,15	3,148
369,36	8,001
369,57	4,155
369,78	4,628
369,98	7,060
370,19	9,413
370,40	0,620
370,61	-0,801
370,82	3,016
371,02	11,972
371,23	8,898
371,44	5,847
371,65	5,502
371,85	8,398
372,06	5,851
372,27	3,918
372,48	2,838
372,69	3,448
372,89	5,026
373,10	2,394
373,31	2,662
373,52	3,872
373,73	7,193
373,93	2,756
374,14	1,135
374,35	10,569
374,56	5,179
374,76	3,009
374,97	4,702
375,18	8,650
375,39	3,937
375,60	5,671
375,80	4,672
376,01	5,337
376,22	3,072
376,43	5,399
376,63	2,623
376,84	4,353
377,05	3,904
377,26	1,958
377,46	0,385
377,67	1,900
377,88	5,532
378,09	3,412
378,29	0,821
378,50	4,693
378,71	6,286
378,92	1,788
379,12	4,641
379,33	1,651
379,54	2,810
379,75	6,344
379,95	5,320
380,16	4,508
380,37	6,932
380,58	3,692
380,78	4,212
380,99	3,657
381,20	3,906
381,41	3,187
381,61	5,319
381,82	6,555
382,03	3,212
382,24	5,038
382,44	3,967
382,65	5,796
382,86	6,007
383,06	1,500
383,27	4,800
383,48	4,574
383,69	5,176
383,89	6,702
384,10	5,460
384,31	4,153
384,51	6,398
384,72	7,754
384,93	3,625
385,14	2,021
385,34	3,922
385,55	1,972
385,76	3,614
385,96	8,943
386,17	6,345
386,38	2,931
386,59	0,040
386,79	6,010
387,00	7,060
387,21	4,414
387,41	5,849
387,62	2,590
387,83	9,102
388,03	5,923
388,24	1,007
388,45	6,238
388,66	8,650
388,86	2,894
389,07	4,441
389,28	9,883
389,48	5,255
389,69	4,093
389,90	2,368
390,10	6,660
390,31	11,454
390,52	-0,158
390,72	5,032
390,93	7,234
391,14	7,698
391,34	6,254
391,55	5,709
391,76	9,740
391,96	5,926
392,17	1,606
392,38	7,388
392,58	8,352
392,79	7,091
393,00	4,314
393,20	1,979
393,41	5,863
393,62	6,035
393,82	5,418
394,03	6,684
394,24	2,656
394,44	7,544
394,65	5,531
394,86	4,681
395,06	7,886
395,27	5,429
395,48	4,258
395,68	5,824
395,89	8,681
396,10	11,123
396,30	6,468
396,51	-0,395
396,72	12,309
396,92	2,370
397,13	7,573
397,34	4,372
397,54	7,173
397,75	5,029
397,95	3,496
398,16	5,953
398,37	8,156
398,57	3,479
398,78	6,833
398,99	9,029
399,19	8,137
399,40	11,329
399,60	3,476
399,81	4,743
400,02	11,835
400,22	9,124
400,43	2,232
400,64	9,196
400,84	8,090
401,05	11,250
401,25	11,435
401,46	7,875
401,67	8,812
401,87	6,513
402,08	1,896
402,29	6,003
402,49	12,669
402,70	9,738
402,90	5,998
403,11	8,814
403,32	7,156
403,52	6,173
403,73	10,489
403,93	9,966
404,14	13,208
404,35	8,394
404,55	2,881
404,76	4,875
404,96	7,999
405,17	13,573
405,38	12,396
405,58	3,954
405,79	12,467
405,99	14,888
406,20	9,690
406,40	4,711
406,61	9,379
406,82	11,665
407,02	10,567
407,23	7,061
407,43	10,975
407,64	5,110
407,85	9,783
408,05	2,046
408,26	19,837
408,46	15,227
408,67	6,821
408,87	9,203
409,08	8,286
409,29	15,277
409,49	11,656
409,70	9,552
409,90	14,220
410,11	12,842
410,31	15,675
410,52	10,542
410,72	10,024
410,93	13,836
411,14	8,938
411,34	9,188
411,55	13,551
411,75	17,934
411,96	13,571
412,16	12,448
412,37	10,002
412,57	15,415
412,78	13,701
412,99	11,170
413,19	12,672
413,40	15,621
413,60	9,148
413,81	9,813
414,01	14,305
414,22	11,720
414,42	11,615
414,63	6,540
414,83	14,054
415,04	17,220
415,24	14,020
415,45	13,367
415,65	13,546
415,86	16,358
416,07	14,816
416,27	15,346
416,48	16,083
416,68	19,372
416,89	9,393
417,09	14,359
417,30	18,698
417,50	13,687
417,71	15,119
417,91	16,456
418,12	12,054
418,32	12,396
418,53	14,664
418,73	12,240
418,94	14,270
419,14	15,720
419,35	14,295
419,55	15,342
419,76	16,776
419,96	16,761
420,17	11,672
420,37	15,855
420,58	20,392
420,78	19,617
420,99	13,051
421,19	20,234
421,40	18,893
421,60	21,520
421,81	12,227
422,01	16,488
422,22	14,203
422,42	16,868
422,63	15,584
422,83	12,980
423,04	22,044
423,24	21,830
423,45	14,248
423,65	18,498
423,86	21,798
424,06	20,275
424,27	13,805
424,47	14,924
424,67	10,970
424,88	20,198
425,08	17,799
425,29	22,628
425,49	17,031
425,70	12,939
425,90	13,168
426,11	15,098
426,31	17,991
426,52	16,968
426,72	15,161
426,93	15,391
427,13	22,354
427,33	16,385
427,54	17,428
427,74	20,953
427,95	22,543
428,15	12,087
428,36	20,278
428,56	16,883
428,77	17,934
428,97	18,360
429,18	17,270
429,38	15,413
429,58	19,550
429,79	20,070
429,99	14,077
430,20	11,473
430,40	23,595
430,61	16,797
430,81	15,665
431,01	20,085
431,22	22,491
431,42	21,474
431,63	13,905
431,83	14,518
432,04	22,341
432,24	25,782
432,44	18,320
432,65	17,421
432,85	21,194
433,06	22,000
433,26	16,318
433,47	18,005
433,67	16,203
433,87	19,310
434,08	12,120
434,28	21,322
434,49	18,765
434,69	23,171
434,89	19,957
435,10	18,235
435,30	26,193
435,51	14,175
435,71	21,108
435,91	13,720
436,12	19,418
436,32	18,808
436,53	17,514
436,73	17,362
436,93	20,435
437,14	19,548
437,34	16,885
437,55	16,527
437,75	16,796
437,95	19,820
438,16	13,008
438,36	15,434
438,57	19,069
438,77	17,397
438,97	21,578
439,18	19,674
439,38	16,871
439,58	14,648
439,79	17,839
439,99	15,339
440,20	21,504
440,40	22,381
440,60	19,860
440,81	18,789
441,01	23,917
441,21	24,911
441,42	16,694
441,62	20,661
441,83	16,874
442,03	20,500
442,23	18,503
442,44	16,162
442,64	19,062
442,84	16,594
443,05	16,086
443,25	17,115
443,45	18,215
443,66	17,264
443,86	15,873
444,06	17,560
444,27	16,853
444,47	20,002
444,67	16,758
444,88	19,839
445,08	21,469
445,28	20,311
445,49	13,692
445,69	14,913
445,90	22,096
446,10	20,359
446,30	14,993
446,51	18,650
446,71	22,574
446,91	22,070
447,12	24,512
447,32	17,493
447,52	25,681
447,72	21,062
447,93	17,437
448,13	14,268
448,33	25,526
448,54	21,372
448,74	14,906
448,94	19,487
449,15	26,790
449,35	21,836
449,55	18,046
449,76	25,191
449,96	22,203
450,16	23,472
450,37	16,842
450,57	20,031
450,77	16,339
450,98	20,494
451,18	23,769
451,38	19,591
451,58	21,170
451,79	17,090
451,99	21,479
452,19	18,507
452,40	25,101
452,60	15,744
452,80	15,530
453,00	21,163
453,21	18,722
453,41	21,664
453,61	14,580
453,82	21,945
454,02	12,455
454,22	23,250
454,42	21,016
454,63	18,157
454,83	21,216
455,03	24,007
455,24	19,872
455,44	18,362
455,64	18,351
455,84	15,868
456,05	20,161
456,25	14,704
456,45	23,745
456,65	19,929
456,86	18,551
457,06	22,732
457,26	22,201
457,47	21,147
457,67	18,558
457,87	17,002
458,07	19,940
458,28	25,643
458,48	21,584
458,68	16,825
458,88	21,085
459,09	19,261
459,29	23,305
459,49	18,006
459,69	23,438
459,90	21,342
460,10	12,994
460,30	21,187
460,50	16,866
460,71	18,900
460,91	14,135
461,11	17,309
461,31	17,653
461,52	26,498
461,72	16,421
461,92	18,406
462,12	30,449
462,32	13,368
462,53	16,803
462,73	14,808
462,93	20,140
463,13	23,967
463,34	17,721
463,54	18,603
463,74	20,245
463,94	18,486
464,14	14,060
464,35	16,652
464,55	23,265
464,75	26,233
464,95	18,991
465,16	13,685
465,36	23,894
465,56	17,932
465,76	17,870
465,96	18,642
466,17	18,532
466,37	16,896
466,57	21,166
466,77	18,750
466,97	17,751
467,18	23,985
467,38	22,527
467,58	21,540
467,78	24,185
467,98	18,516
468,19	21,343
468,39	26,477
468,59	23,968
468,79	20,269
468,99	18,731
469,19	15,595
469,40	19,144
469,60	20,689
469,80	19,138
470,00	17,443
470,20	23,026
470,41	19,219
470,61	16,807
470,81	19,268
471,01	15,185
471,21	20,370
471,41	15,838
471,62	16,590
471,82	19,515
472,02	14,995
472,22	17,359
472,42	18,287
472,62	20,636
472,83	15,704
473,03	21,934
473,23	16,807
473,43	26,225
473,63	16,738
473,83	18,427
474,03	16,853
474,24	25,815
474,44	17,901
474,64	18,744
474,84	13,684
475,04	18,738
475,24	21,142
475,45	18,352
475,65	18,257
475,85	20,041
476,05	13,524
476,25	18,882
476,45	19,928
476,65	23,591
476,85	19,712
477,06	19,673
477,26	18,035
477,46	17,789
477,66	17,216
477,86	21,269
478,06	16,613
478,26	24,057
478,46	17,937
478,67	17,246
478,87	18,682
479,07	19,768
479,27	21,791
479,47	16,314
479,67	13,733
479,87	15,024
480,07	22,139
480,28	14,273
480,48	15,605
480,68	20,234
480,88	25,192
481,08	19,981
481,28	21,309
481,48	16,831
481,68	19,684
481,88	15,497
482,08	18,969
482,29	23,505
482,49	15,820
482,69	21,252
482,89	17,648
483,09	22,040
483,29	18,811
483,49	14,774
483,69	18,486
483,89	17,725
484,09	14,696
484,29	12,728
484,50	19,494
484,70	18,061
484,90	16,821
485,10	14,946
485,30	18,765
485,50	21,379
485,70	18,966
485,90	14,556
486,10	14,892
486,30	17,618
486,50	18,861
486,70	15,920
486,90	16,740
487,10	20,636
487,30	16,878
487,51	17,895
487,71	13,890
487,91	15,791
488,11	18,697
488,31	14,288
488,51	20,233
488,71	15,924
488,91	21,045
489,11	16,509
489,31	17,634
489,51	18,787
489,71	19,310
489,91	15,663
490,11	15,108
490,31	17,995
490,51	20,622
490,71	15,788
490,91	17,060
491,11	16,207
491,31	15,221
491,51	14,778
491,72	17,107
491,92	17,006
492,12	20,043
492,32	17,974
492,52	19,697
492,72	19,135
492,92	15,596
493,12	15,623
493,32	14,102
493,52	13,132
493,72	16,169
493,92	17,607
494,12	16,882
494,32	19,305
494,52	17,084
494,72	15,604
494,92	14,665
495,12	19,282
495,32	21,031
495,52	15,796
495,72	18,414
495,92	20,787
496,12	18,925
496,32	14,763
496,52	16,284
496,72	17,526
496,92	19,278
497,12	15,813
497,32	16,494
497,52	16,820
497,72	20,034
497,92	17,589
498,12	16,748
498,32	17,725
498,52	15,485
498,72	14,177
498,92	13,640
499,12	18,332
499,32	14,315
499,52	15,721
499,72	14,849
499,92	17,605
500,12	17,296
500,32	17,543
500,52	12,212
500,72	20,377
500,91	19,833
501,11	15,145
501,31	10,042
501,51	17,825
501,71	17,859
501,91	16,773
502,11	14,063
502,31	15,209
502,51	20,617
502,71	16,278
502,91	14,518
503,11	15,410
503,31	17,132
503,51	13,114
503,71	13,992
503,91	17,949
504,11	15,012
504,31	16,217
504,51	16,772
504,71	18,340
504,91	15,662
505,10	15,232
505,30	14,219
505,50	19,355
505,70	13,088
505,90	15,295
506,10	13,552
506,30	16,576
506,50	17,767
506,70	19,803
506,90	13,913
507,10	15,841
507,30	15,167
507,50	13,260
507,70	17,351
507,89	17,385
508,09	14,845
508,29	15,106
508,49	11,233
508,69	14,084
508,89	14,436
509,09	13,401
509,29	12,698
509,49	20,235
509,69	20,183
509,89	13,945
510,09	13,574
510,28	16,998
510,48	15,158
510,68	11,967
510,88	12,445
511,08	14,209
511,28	15,302
511,48	14,804
511,68	11,167
511,88	10,512
512,07	15,811
512,27	16,529
512,47	14,038
512,67	12,996
512,87	12,143
513,07	14,687
513,27	10,848
513,47	12,558
513,67	11,295
513,86	16,057
514,06	13,593
514,26	15,207
514,46	19,997
514,66	15,325
514,86	16,183
515,06	18,247
515,26	16,588
515,45	13,704
515,65	11,862
515,85	17,118
516,05	8,701
516,25	14,678
516,45	12,866
516,65	14,153
516,84	13,793
517,04	19,295
517,24	13,163
517,44	16,205
517,64	17,007
517,84	15,874
518,04	17,064
518,23	17,100
518,43	19,972
518,63	11,877
518,83	12,051
519,03	13,335
519,23	14,192
519,42	13,422
519,62	10,751
519,82	12,079
520,02	13,925
520,22	11,314
520,42	11,913
520,61	14,109
520,81	15,642
521,01	15,405
521,21	9,291
521,41	14,052
521,61	16,847
521,80	10,709
522,00	12,559
522,20	14,952
522,40	15,528
522,60	13,540
522,79	14,008
522,99	14,299
523,19	10,335
523,39	12,250
523,59	12,568
523,78	17,542
523,98	12,887
524,18	14,719
524,38	12,781
524,58	13,071
524,77	18,498
524,97	12,475
525,17	13,782
525,37	12,624
525,57	16,070
525,76	11,920
525,96	14,345
526,16	10,416
526,36	12,549
526,56	14,115
526,75	14,470
526,95	15,784
527,15	13,189
527,35	12,888
527,55	10,110
527,74	15,802
527,94	12,197
528,14	9,566
528,34	14,141
528,53	11,737
528,73	15,316
528,93	14,344
529,13	11,653
529,32	12,373
529,52	15,325
529,72	10,352
529,92	11,744
530,12	12,611
530,31	12,081
530,51	11,222
530,71	12,629
530,91	15,677
531,10	7,472
531,30	12,886
531,50	12,125
531,70	15,780
531,89	11,440
532,09	11,070
532,29	10,640
532,49	12,933
532,68	11,626
532,88	9,945
533,08	11,023
533,28	12,275
533,47	12,100
533,67	14,924
533,87	9,918
534,06	18,822
534,26	13,028
534,46	10,046
534,66	11,028
534,85	12,992
535,05	7,660
535,25	8,819
535,45	7,579
535,64	14,748
535,84	13,767
536,04	9,672
536,23	12,386
536,43	15,064
536,63	11,024
536,83	9,632
537,02	8,883
537,22	12,429
537,42	12,805
537,61	12,181
537,81	14,664
538,01	12,894
538,20	12,261
538,40	10,029
538,60	11,086
538,80	12,630
538,99	13,844
539,19	12,814
539,39	11,719
539,58	16,006
539,78	11,962
539,98	11,853
540,17	10,693
540,37	14,737
540,57	11,898
540,76	10,830
540,96	10,011
541,16	14,974
541,36	12,944
541,55	9,271
541,75	9,697
541,95	12,668
542,14	10,568
542,34	10,435
542,54	10,041
542,73	13,359
542,93	14,023
543,13	11,089
543,32	11,995
543,52	12,841
543,72	10,786
543,91	11,903
544,11	10,465
544,31	10,837
544,50	11,791
544,70	11,429
544,89	10,033
545,09	14,187
545,29	11,790
545,48	10,443
545,68	9,609
545,88	10,668
546,07	9,288
546,27	9,350
546,47	11,837
546,66	11,572
546,86	12,100
547,06	10,142
547,25	11,334
547,45	11,596
547,64	12,273
547,84	12,965
548,04	10,702
548,23	14,931
548,43	12,101
548,63	13,305
548,82	11,402
549,02	11,232
549,21	10,571
549,41	11,346
549,61	12,274
549,80	8,360
550,00	13,203
550,20	9,228
550,39	12,164
550,59	9,914
550,78	11,138
550,98	7,409
551,18	12,823
551,37	11,577
551,57	11,964
551,76	11,358
551,96	11,046
552,16	8,907
552,35	10,382
552,55	9,282
552,74	12,185
552,94	11,938
553,14	10,682
553,33	7,919
553,53	8,944
553,72	10,031
553,92	12,446
554,12	9,063
554,31	11,600
554,51	11,853
554,70	8,479
554,90	10,872
555,09	12,646
555,29	12,601
555,49	11,745
555,68	13,914
555,88	8,342
556,07	8,185
556,27	12,909
556,46	9,445
556,66	4,327
556,86	9,899
557,05	11,721
557,25	7,315
557,44	7,456
557,64	9,275
557,83	8,220
558,03	10,138
558,22	7,085
558,42	11,489
558,62	9,279
558,81	11,234
559,01	9,581
559,20	11,426
559,40	8,826
559,59	10,511
559,79	8,340
559,98	11,114
560,18	11,989
560,37	11,321
560,57	13,973
560,76	9,207
560,96	8,992
561,16	10,338
561,35	8,952
561,55	13,787
561,74	10,940
561,94	10,883
562,13	9,204
562,33	13,404
562,52	11,911
562,72	8,910
562,91	9,195
563,11	11,959
563,30	12,076
563,50	7,370
563,69	9,914
563,89	9,425
564,08	11,797
564,28	9,195
564,47	9,449
564,67	8,261
564,86	10,756
565,06	8,978
565,25	9,896
565,45	10,024
565,64	13,666
565,84	10,356
566,03	7,640
566,23	10,121
566,42	11,947
566,62	10,413
566,81	9,174
567,01	9,090
567,20	13,009
567,40	7,252
567,59	7,210
567,79	12,294
567,98	13,937
568,18	10,264
568,37	8,676
568,57	10,842
568,76	10,874
568,96	8,637
569,15	8,010
569,35	11,678
569,54	12,432
569,73	11,448
569,93	7,830
570,12	8,284
570,32	11,516
570,51	11,156
570,71	10,404
570,90	13,406
571,10	10,100
571,29	8,171
571,49	10,187
571,68	10,841
571,87	10,642
572,07	8,714
572,26	7,912
572,46	11,077
572,65	9,346
572,85	7,242
573,04	10,333
573,24	10,143
573,43	11,226
573,62	11,658
573,82	10,232
574,01	10,862
574,21	9,872
574,40	7,841
574,60	7,012
574,79	12,189
574,98	8,975
575,18	10,984
575,37	8,547
575,57	11,128
575,76	10,002
575,96	10,130
576,15	10,043
576,34	9,255
576,54	11,865
576,73	11,112
576,93	10,959
577,12	11,925
577,31	11,381
577,51	9,348
577,70	9,322
577,90	11,779
578,09	9,607
578,28	10,782
578,48	9,740
578,67	13,775
578,87	11,800
579,06	10,557
579,25	11,072
579,45	11,160
579,64	8,681
579,84	9,311
580,03	9,959
580,22	13,654
580,42	10,085
580,61	10,645
580,81	10,524
581,00	12,138
581,19	12,273
581,39	10,824
581,58	10,609
581,77	10,139
581,97	12,826
582,16	10,938
582,35	10,039
582,55	11,849
582,74	13,360
582,94	11,119
583,13	8,284
583,32	11,530
583,52	12,926
583,71	11,806
583,90	11,427
584,10	11,875
584,29	13,540
584,48	10,887
584,68	11,692
584,87	13,450
585,06	12,933
585,26	10,217
585,45	11,451
585,65	13,470
585,84	10,661
586,03	11,000
586,23	11,084
586,42	11,425
586,61	14,587
586,81	11,717
587,00	11,741
587,19	13,228
587,39	14,885
587,58	13,246
587,77	13,546
587,97	11,871
588,16	10,645
588,35	12,758
588,54	12,363
588,74	12,596
588,93	14,331
589,12	13,286
589,32	13,560
589,51	12,094
589,70	10,166
589,90	10,694
590,09	11,755
590,28	15,515
590,48	11,832
590,67	12,585
590,86	13,456
591,06	12,505
591,25	15,842
591,44	13,412
591,63	12,378
591,83	13,919
592,02	13,528
592,21	12,574
592,41	11,969
592,60	14,763
592,79	14,078
592,98	13,461
593,18	13,071
593,37	12,739
593,56	14,352
593,76	13,122
593,95	12,615
594,14	13,241
594,33	15,429
594,53	13,445
594,72	12,218
594,91	16,001
595,10	12,930
595,30	13,298
595,49	13,240
595,68	13,444
595,88	16,423
596,07	12,820
596,26	13,481
596,45	14,315
596,65	9,019
596,84	12,953
597,03	14,173
597,22	14,729
597,42	16,767
597,61	14,758
597,80	14,426
597,99	13,722
598,19	15,312
598,38	15,678
598,57	11,914
598,76	16,180
598,95	15,793
599,15	14,874
599,34	15,290
599,53	16,239
599,72	14,667
599,92	15,686
600,11	14,758
600,30	14,550
600,49	17,959
600,69	13,050
600,88	16,480
601,07	15,907
601,26	14,552
601,45	15,021
601,65	14,310
601,84	16,410
602,03	15,523
602,22	15,957
602,42	15,270
602,61	15,911
602,80	15,918
602,99	15,441
603,18	13,150
603,38	18,447
603,57	14,583
603,76	14,996
603,95	14,655
604,14	16,867
604,34	16,703
604,53	15,337
604,72	17,723
604,91	16,675
605,10	16,547
605,29	17,399
605,49	13,110
605,68	15,831
605,87	17,395
606,06	15,018
606,25	13,844
606,45	17,551
606,64	14,650
606,83	17,253
607,02	16,129
607,21	18,014
607,40	17,574
607,60	15,487
607,79	16,014
607,98	15,925
608,17	17,624
608,36	18,623
608,55	19,122
608,75	21,372
608,94	20,189
609,13	17,195
609,32	16,415
609,51	19,306
609,70	17,335
609,89	19,339
610,09	18,629
610,28	21,783
610,47	18,833
610,66	18,702
610,85	19,344
611,04	21,283
611,23	18,256
611,43	17,731
611,62	18,235
611,81	18,853
612,00	19,835
612,19	18,013
612,38	18,447
612,57	19,576
612,77	17,746
612,96	19,175
613,15	17,962
613,34	20,349
613,53	19,461
613,72	19,909
613,91	17,492
614,10	17,277
614,29	19,799
614,49	16,368
614,68	15,593
614,87	18,744
615,06	21,125
615,25	15,766
615,44	18,910
615,63	18,381
615,82	18,335
616,01	16,872
616,21	15,948
616,40	19,579
616,59	21,387
616,78	18,370
616,97	19,587
617,16	19,797
617,35	20,599
617,54	18,192
617,73	19,614
617,92	19,137
618,11	20,132
618,31	16,016
618,50	20,526
618,69	19,444
618,88	18,024
619,07	17,017
619,26	18,128
619,45	18,284
619,64	18,399
619,83	17,251
620,02	17,263
620,21	20,752
620,40	20,541
620,59	19,168
620,78	17,402
620,97	20,343
621,17	21,028
621,36	16,487
621,55	18,163
621,74	19,385
621,93	19,467
622,12	18,905
622,31	18,905
622,50	19,053
622,69	23,852
622,88	20,170
623,07	20,195
623,26	21,496
623,45	21,825
623,64	18,282
623,83	18,093
624,02	19,978
624,21	20,485
624,40	21,705
624,59	17,055
624,78	20,119
624,97	21,746
625,16	17,847
625,35	17,187
625,54	18,768
625,73	19,964
625,92	18,735
626,12	20,625
626,31	21,764
626,50	22,773
626,69	17,592
626,88	17,112
627,07	18,257
627,26	19,823
627,45	18,602
627,64	19,166
627,83	20,615
628,02	18,976
628,21	19,311
628,40	19,196
628,59	23,647
628,78	19,409
628,97	20,989
629,16	19,296
629,35	19,374
629,54	21,504
629,73	19,800
629,92	18,221
630,10	20,764
630,29	21,484
630,48	20,062
630,67	19,470
630,86	20,795
631,05	21,759
631,24	21,724
631,43	19,337
631,62	19,972
631,81	21,602
632,00	21,053
632,19	18,375
632,38	20,033
632,57	21,063
632,76	19,874
632,95	19,757
633,14	20,662
633,33	20,593
633,52	20,878
633,71	20,863
633,90	17,431
634,09	19,888
634,28	19,156
634,47	17,566
634,66	18,951
634,85	20,212
635,04	20,760
635,22	20,285
635,41	19,914
635,60	19,612
635,79	22,639
635,98	17,510
636,17	20,443
636,36	19,656
636,55	19,155
636,74	18,990
636,93	20,156
637,12	21,075
637,31	20,299
637,50	18,139
637,69	21,063
637,87	21,594
638,06	19,478
638,25	18,091
638,44	19,121
638,63	19,128
638,82	18,533
639,01	18,827
639,20	21,300
639,39	21,530
639,58	18,188
639,77	20,470
639,95	18,824
640,14	21,196
640,33	18,579
640,52	19,120
640,71	21,463
640,90	21,152
641,09	22,125
641,28	19,793
641,47	21,062
641,66	19,142
641,84	21,335
642,03	19,106
642,22	21,930
642,41	22,101
642,60	21,379
642,79	20,416
642,98	19,757
643,17	20,236
643,35	17,995
643,54	20,272
643,73	22,040
643,92	21,277
644,11	18,994
644,30	18,780
644,49	22,879
644,67	21,158
644,86	19,370
645,05	21,220
645,24	20,052
645,43	19,995
645,62	19,420
645,81	19,721
645,99	20,899
646,18	21,966
646,37	18,394
646,56	20,227
646,75	22,669
646,94	22,964
647,13	19,453
647,31	19,517
647,50	20,446
647,69	23,132
647,88	21,469
648,07	21,477
648,26	26,943
648,44	21,216
648,63	20,432
648,82	20,757
649,01	23,888
649,20	19,271
649,38	20,020
649,57	18,874
649,76	20,358
649,95	21,869
650,14	19,787
650,33	20,261
650,51	21,783
650,70	22,512
650,89	20,366
651,08	18,756
651,27	21,930
651,45	21,519
651,64	20,269
651,83	21,415
652,02	19,281
652,21	21,901
652,39	20,832
652,58	23,119
652,77	20,303
652,96	21,956
653,15	21,445
653,33	19,393
653,52	21,563
653,71	23,821
653,90	22,366
654,09	21,169
654,27	20,969
654,46	22,580
654,65	19,846
654,84	20,719
655,02	21,966
655,21	22,197
655,40	22,416
655,59	20,414
655,77	21,943
655,96	21,417
656,15	22,636
656,34	22,512
656,53	20,939
656,71	22,156
656,90	22,169
657,09	21,592
657,28	23,360
657,46	21,207
657,65	21,531
657,84	19,552
658,03	22,687
658,21	20,638
658,40	21,067
658,59	20,179
658,78	22,199
658,96	20,537
659,15	20,821
659,34	21,368
659,52	21,113
659,71	22,042
659,90	19,164
660,09	22,306
660,27	20,625
660,46	23,801
660,65	20,132
660,84	18,724
661,02	21,408
661,21	22,596
661,40	21,221
661,58	22,526
661,77	23,340
661,96	17,969
662,15	21,042
662,33	18,688
662,52	21,517
662,71	21,445
662,89	19,287
663,08	19,538
663,27	21,758
663,45	21,624
663,64	19,564
663,83	19,228
664,02	19,367
664,20	22,438
664,39	20,597
664,58	21,172
664,76	21,011
664,95	20,319
665,14	20,213
665,32	19,342
665,51	21,817
665,70	21,566
665,88	21,111
666,07	19,959
666,26	24,603
666,44	22,118
666,63	19,442
666,82	19,953
667,00	20,843
667,19	19,552
667,38	20,568
667,56	21,872
667,75	20,009
667,94	20,875
668,12	18,044
668,31	21,045
668,50	21,618
668,68	22,051
668,87	20,437
669,06	19,774
669,24	20,915
669,43	19,162
669,62	18,772
669,80	19,875
669,99	20,690
670,18	20,391
670,36	18,246
670,55	20,351
670,74	18,908
670,92	19,146
671,11	20,009
671,29	19,249
671,48	18,956
671,67	19,751
671,85	20,809
672,04	18,518
672,23	18,092
672,41	21,265
672,60	20,585
672,78	19,905
672,97	20,127
673,16	21,908
673,34	18,882
673,53	17,798
673,71	20,382
673,90	19,909
674,09	19,635
674,27	18,900
674,46	20,766
674,64	20,390
674,83	19,738
675,02	17,532
675,20	18,438
675,39	19,221
675,57	20,035
675,76	19,902
675,95	23,453
676,13	19,641
676,32	19,759
676,50	20,144
676,69	18,509
676,88	20,738
677,06	18,355
677,25	19,748
677,43	21,439
677,62	19,801
677,80	18,965
677,99	20,411
678,18	21,949
678,36	22,212
678,55	18,885
678,73	20,073
678,92	21,916
679,10	19,828
679,29	19,832
679,48	17,679
679,66	20,025
679,85	21,322
680,03	20,629
680,22	18,102
680,40	20,123
680,59	20,118
680,77	18,471
680,96	19,890
681,15	19,720
681,33	22,221
681,52	18,966
681,70	20,203
681,89	22,855
682,07	21,973
682,26	19,735
682,44	20,725
682,63	21,062
682,81	21,026
683,00	20,854
683,18	18,807
683,37	21,359
683,55	19,234
683,74	20,587
683,92	25,434
684,11	21,785
684,29	20,484
684,48	18,722
684,67	20,493
684,85	20,125
685,04	21,013
685,22	21,016
685,41	19,798
685,59	21,221
685,78	20,905
685,96	20,385
686,15	19,506
686,33	20,102
686,52	20,014
686,70	20,588
686,89	20,373
687,07	21,810
687,26	21,875
687,44	23,197
687,62	20,102
687,81	22,001
687,99	21,742
688,18	20,339
688,36	21,346
688,55	22,589
688,73	20,385
688,92	19,729
689,10	20,657
689,29	22,393
689,47	23,467
689,66	20,155
689,84	19,351
690,03	23,529
690,21	21,275
690,40	20,770
690,58	19,236
690,76	20,851
690,95	20,599
691,13	19,281
691,32	21,766
691,50	22,151
691,69	23,289
691,87	20,489
692,06	20,139
692,24	19,845
692,43	22,573
692,61	19,455
692,79	18,853
692,98	19,896
693,16	25,131
693,35	18,954
693,53	21,764
693,72	21,266
693,90	24,120
694,08	20,151
694,27	20,781
694,45	23,812
694,64	24,164
694,82	19,751
695,01	20,412
695,19	21,381
695,37	21,842
695,56	19,068
695,74	21,231
695,93	22,316
696,11	20,429
696,29	22,062
696,48	22,202
696,66	23,472
696,85	20,755
697,03	20,313
697,21	21,726
697,40	23,138
697,58	21,421
697,77	21,891
697,95	21,712
698,13	22,931
698,32	21,191
698,50	21,141
698,69	20,785
698,87	23,503
699,05	21,667
699,24	19,086
699,42	23,232
699,60	19,155
699,79	20,439
699,97	21,985
700,16	20,509
700,34	24,057
700,52	22,855
700,71	21,600
700,89	20,716
701,07	21,304
701,26	21,651
701,44	20,567
701,63	18,898
701,81	22,767
701,99	23,890
702,18	21,373
702,36	20,636
702,54	21,958
702,73	20,836
702,91	20,901
703,09	19,870
703,28	21,718
703,46	23,056
703,64	21,077
703,83	21,948
704,01	24,231
704,19	21,973
704,38	19,743
704,56	20,117
704,74	23,542
704,93	22,694
705,11	22,371
705,29	22,188
705,48	28,125
705,66	23,811
705,84	21,894
706,03	17,263
706,21	21,433
706,39	20,673
706,58	22,739
706,76	21,287
706,94	23,222
707,12	22,250
707,31	22,988
707,49	20,044
707,67	22,394
707,86	24,410
708,04	21,657
708,22	20,786
708,41	23,843
708,59	22,185
708,77	20,123
708,95	21,122
709,14	26,704
709,32	22,501
709,50	20,270
709,69	21,835
709,87	22,010
710,05	21,964
710,23	20,748
710,42	20,113
710,60	22,762
710,78	25,348
710,97	22,468
711,15	22,551
711,33	23,161
711,51	21,251
711,70	19,995
711,88	20,303
712,06	23,318
712,24	23,018
712,43	20,761
712,61	20,920
712,79	21,882
712,97	19,656
713,16	22,234
713,34	19,782
713,52	22,879
713,70	22,774
713,89	21,194
714,07	21,997
714,25	23,453
714,43	24,208
714,62	19,771
714,80	20,444
714,98	19,738
715,16	20,791
715,35	18,850
715,53	20,832
715,71	22,425
715,89	23,353
716,07	21,674
716,26	23,425
716,44	23,333
716,62	23,302
716,80	22,787
716,99	20,668
717,17	23,611
717,35	23,027
717,53	19,796
717,71	21,869
717,90	20,673
718,08	22,829
718,26	18,423
718,44	22,099
718,62	22,508
718,81	24,039
718,99	22,002
719,17	20,655
719,35	21,904
719,53	21,587
719,72	21,262
719,90	22,462
720,08	21,395
720,26	24,446
720,44	20,320
720,62	21,082
720,81	25,163
720,99	24,651
721,17	19,882
721,35	21,733
721,53	22,755
721,72	25,083
721,90	21,771
722,08	20,352
722,26	24,537
722,44	21,693
722,62	21,276
722,81	18,681
722,99	20,211
723,17	22,347
723,35	21,459
723,53	20,471
723,71	24,247
723,89	26,318
724,08	18,772
724,26	22,214
724,44	22,885
724,62	23,588
724,80	18,980
724,98	20,793
725,16	27,107
725,35	23,259
725,53	19,982
725,71	21,022
725,89	22,230
726,07	23,234
726,25	24,935
726,43	19,596
726,61	22,992
726,80	24,932
726,98	21,865
727,16	20,306
727,34	22,672
727,52	21,775
727,70	21,169
727,88	20,048
728,06	20,030
728,25	21,026
728,43	21,426
728,61	21,489
728,79	21,720
728,97	23,686
729,15	21,939
729,33	21,632
729,51	23,290
729,69	23,705
729,87	21,869
730,06	21,372
730,24	21,157
730,42	24,818
730,60	19,196
730,78	20,748
730,96	20,983
731,14	21,488
731,32	23,714
731,50	20,317
731,68	21,319
731,86	24,045
732,04	22,389
732,22	21,815
732,41	27,002
732,59	21,354
732,77	21,541
732,95	21,229
733,13	24,202
733,31	22,321
733,49	18,889
733,67	21,456
733,85	22,606
734,03	22,515
734,21	20,604
734,39	22,077
734,57	23,975
734,75	23,377
734,93	20,229
735,11	23,012
735,29	20,088
735,47	25,870
735,65	19,708
735,84	20,644
736,02	23,072
736,20	25,955
736,38	21,378
736,56	21,688
736,74	22,528
736,92	21,143
737,10	23,451
737,28	23,218
737,46	22,327
737,64	21,118
737,82	20,693
738,00	21,733
738,18	22,757
738,36	23,855
738,54	21,082
738,72	20,698
738,90	22,545
739,08	23,738
739,26	19,768
739,44	21,819
739,62	23,936
739,80	23,282
739,98	19,513
740,16	19,875
740,34	23,594
740,52	24,450
740,70	19,919
740,88	19,710
741,06	22,583
741,24	23,636
741,42	23,506
741,60	18,547
741,78	24,475
741,96	22,198
742,14	19,081
742,32	19,554
742,50	22,793
742,68	22,422
742,86	21,372
743,04	19,458
743,21	23,923
743,39	24,766
743,57	21,859
743,75	21,152
743,93	20,691
744,11	17,834
744,29	18,695
744,47	21,537
744,65	21,378
744,83	22,723
745,01	19,429
745,19	22,414
745,37	25,599
745,55	23,508
745,73	21,896
745,91	19,279
746,09	22,101
746,27	20,398
746,45	18,813
746,62	21,120
746,80	18,897
746,98	21,088
747,16	19,203
747,34	21,160
747,52	22,569
747,70	22,598
747,88	21,030
748,06	21,678
748,24	23,583
748,42	24,628
748,60	20,606
748,78	20,007
748,95	23,937
749,13	25,577
749,31	21,450
749,49	21,051
749,67	22,272
749,85	24,831
750,03	21,958
750,21	20,567
750,39	22,876
750,57	23,697
750,74	22,984
750,92	21,325
751,10	23,922
751,28	19,751
751,46	20,222
751,64	22,437
751,82	22,762
752,00	23,220
752,17	23,151
752,35	22,290
752,53	21,340
752,71	21,686
752,89	21,428
753,07	20,488
753,25	23,198
753,43	19,326
753,60	23,159
753,78	22,135
753,96	22,985
754,14	22,568
754,32	22,356
754,50	22,237
754,68	22,273
754,85	24,641
755,03	21,058
755,21	20,260
755,39	26,174
755,57	21,970
755,75	23,674
755,92	21,132
756,10	24,213
756,28	22,952
756,46	20,115
756,64	21,575
756,82	24,289
756,99	21,999
757,17	20,557
757,35	20,074
757,53	24,582
757,71	25,714
757,89	20,496
758,06	21,785
758,24	24,617
758,42	23,484
758,60	21,384
758,78	20,627
758,95	24,362
759,13	23,898
759,31	20,422
759,49	20,530
759,67	22,258
759,84	21,779
760,02	20,909
760,20	20,146
760,38	22,542
760,56	20,030
760,73	22,595
760,91	20,726
761,09	25,214
761,27	22,395
761,45	20,953
761,62	20,214
761,80	22,196
761,98	22,192
762,16	21,609
762,33	21,978
762,51	24,607
762,69	20,811
762,87	21,147
763,05	21,932
763,22	22,444
763,40	22,501
763,58	20,249
763,76	21,778
763,93	23,426
764,11	25,050
764,29	19,940
764,47	22,368
764,64	24,591
764,82	25,675
765,00	20,589
765,18	18,260
765,35	20,199
765,53	20,928
765,71	21,348
765,89	20,593
766,06	20,970
766,24	23,137
766,42	21,762
766,60	19,336
766,77	22,817
766,95	21,076
767,13	21,313
767,30	20,811
767,48	21,786
767,66	21,236
767,84	20,091
768,01	19,837
768,19	22,951
768,37	22,296
768,54	20,887
768,72	22,737
768,90	20,863
769,08	22,743
769,25	23,140
769,43	21,306
769,61	19,169
769,78	24,214
769,96	21,757
770,14	22,989
770,31	24,502
770,49	26,403
770,67	20,645
770,85	21,442
771,02	22,278
771,20	20,258
771,38	22,478
771,55	22,427
771,73	19,560
771,91	22,580
772,08	24,581
772,26	22,907
772,44	19,898
772,61	21,631
772,79	21,190
772,97	21,369
773,14	20,346
773,32	23,454
773,50	21,643
773,67	22,630
773,85	23,716
774,03	21,880
774,20	20,141
774,38	21,763
774,56	21,393
774,73	20,065
774,91	20,646
775,09	20,743
775,26	22,932
775,44	22,717
775,61	23,295
775,79	21,639
775,97	24,337
776,14	20,947
776,32	21,367
776,50	23,375
776,67	21,224
776,85	22,666
777,03	19,542
777,20	21,219
777,38	24,481
777,55	23,500
777,73	19,211
777,91	19,773
778,08	22,054
778,26	22,302
778,43	21,985
778,61	17,989
778,79	22,040
778,96	23,331
779,14	20,884
779,32	23,513
779,49	22,758
779,67	27,692
779,84	21,034
780,02	23,034
780,20	18,043
780,37	25,006
780,55	16,499
780,72	23,946
780,90	23,265
781,07	23,557
781,25	22,230
781,43	22,939
781,60	22,264
781,78	21,875
781,95	21,354
782,13	23,044
782,30	24,984
782,48	24,601
782,66	18,464
782,83	17,024
783,01	28,201
783,18	23,442
783,36	22,399
783,53	22,637
783,71	21,382
783,89	22,223
784,06	22,928
784,24	22,263
784,41	24,684
784,59	20,545
784,76	24,020
784,94	21,106
785,11	23,066
785,29	18,981
785,46	22,696
785,64	21,408
785,82	23,495
785,99	26,521
786,17	21,747
786,34	20,907
786,52	26,416
786,69	25,158
786,87	23,658
787,04	21,382
787,22	22,638
787,39	24,014
787,57	26,096
787,74	22,375
787,92	25,296
788,09	22,360
788,27	20,776
788,44	21,604
788,62	23,407
788,79	21,539
788,97	26,942
789,14	23,502
789,32	21,008
789,49	22,182
789,67	21,454
789,84	21,607
790,02	23,740
790,19	21,803
790,37	21,082
790,54	21,902
790,72	28,700
790,89	26,746
791,07	21,055
791,24	19,636
791,42	26,257
791,59	24,242
791,77	22,035
791,94	20,401
792,12	22,844
792,29	25,603
792,47	24,320
792,64	24,802
792,81	26,046
792,99	23,900
793,16	26,246
793,34	25,062
793,51	24,215
793,69	26,780
793,86	20,433
794,04	21,159
794,21	26,094
794,39	20,530
794,56	20,733
794,73	23,068
794,91	28,011
795,08	22,325
795,26	19,288
795,43	21,809
795,61	26,929
795,78	26,363
795,95	22,068
796,13	22,513
796,30	23,452
796,48	20,680
796,65	23,675
796,83	23,732
797,00	26,216
797,17	19,979
797,35	22,083
797,52	23,983
797,70	28,172
797,87	23,801
798,04	21,537
798,22	21,891
798,39	26,411
798,57	25,713
798,74	23,452
798,91	17,485
799,09	22,736
799,26	24,592
799,44	26,355
799,61	20,884
799,78	25,197
799,96	28,279
800,13	23,893
800,31	21,142
800,48	28,440
800,65	28,662
800,83	23,305
801,00	22,826
801,17	24,269
801,35	28,415
801,52	22,890
801,70	25,241
801,87	24,012
802,04	26,775
802,22	19,574
802,39	22,989
802,56	30,480
802,74	26,276
802,91	24,504
803,08	20,321
803,26	23,008
803,43	26,745
803,61	22,456
803,78	18,825
803,95	24,725
804,13	24,530
804,30	21,546
804,47	27,382
804,65	28,379
804,82	25,166
804,99	22,245
805,17	24,426
805,34	31,331
805,51	29,610
805,69	24,363
805,86	24,618
806,03	29,841
806,21	25,614
806,38	24,436
806,55	26,011
806,72	26,018
806,90	29,593
807,07	22,499
807,24	20,801
807,42	27,676
807,59	26,623
807,76	18,908
807,94	21,317
808,11	26,254
808,28	31,940
808,45	22,075
808,63	27,584
808,80	29,040
808,97	26,582
809,15	24,631
809,32	28,019
809,49	23,192
809,67	27,061
809,84	24,493
810,01	29,803
810,18	35,994
810,36	29,780
810,53	24,238
810,70	24,165
810,87	27,131
811,05	24,379
811,22	24,662
811,39	24,779
811,57	32,407
811,74	26,270
811,91	21,126
812,08	25,491
812,26	27,861
812,43	23,476
812,60	24,772
812,77	24,962
812,95	27,052
813,12	27,710
813,29	21,022
813,46	23,898
813,64	26,003
813,81	27,478
813,98	23,315
814,15	28,187
814,32	29,220
814,50	27,079
814,67	27,200
814,84	25,637
815,01	26,732
815,19	19,201
815,36	16,908
815,53	24,354
815,70	25,742
815,87	29,298
816,05	19,958
816,22	22,606
816,39	32,006
816,56	28,076
816,74	25,994
816,91	21,797
817,08	33,718
817,25	30,833
817,42	26,582
817,60	27,754
817,77	29,733
817,94	27,523
818,11	26,184
818,28	25,557
818,45	26,142
818,63	25,022
818,80	30,951
818,97	20,755
819,14	29,388
819,31	33,823
819,49	27,186
819,66	24,751
819,83	29,486
820,00	27,351
820,17	25,293
820,34	27,584
820,52	31,543
820,69	32,057
820,86	21,997
821,03	25,498
821,20	30,601
821,37	28,162
821,55	16,494
821,72	26,584
821,89	28,825
822,06	30,280
822,23	19,585
822,40	20,989
822,57	26,710
822,75	31,550
822,92	20,547
823,09	28,598
823,26	35,036
823,43	35,304
823,60	24,778
823,77	24,555
823,94	27,943
824,12	37,346
824,29	25,963
824,46	25,646
824,63	31,161
824,80	30,067
824,97	24,736
825,14	22,597
825,31	29,837
825,49	24,129
825,66	18,065
825,83	25,563
826,00	29,772
826,17	32,442
826,34	25,087
826,51	19,533
826,68	22,869
826,85	32,688
827,02	24,504
827,20	22,192
827,37	26,197
827,54	24,516
827,71	25,150
827,88	29,138
828,05	32,532
828,22	29,344
828,39	33,156
828,56	29,417
828,73	27,725
828,90	30,258
829,07	25,192
829,25	27,179
829,42	28,618
829,59	19,868
829,76	23,246
829,93	19,804
830,10	28,154
830,27	25,545
830,44	28,467
830,61	22,406
830,78	39,700
830,95	30,257
831,12	22,794
831,29	25,337
831,46	20,115
831,63	25,292
831,80	25,778
831,97	24,101
832,14	33,810
832,31	45,206
832,48	22,644
832,65	34,479
832,83	33,634
833,00	34,763
833,17	21,791
833,34	29,798
833,51	30,974
833,68	34,770
833,85	29,580
834,02	20,657
834,19	30,840
834,36	32,793
834,53	16,137
834,70	30,326
834,87	35,008
835,04	26,284
835,21	22,035
835,38	19,777
835,55	28,357
835,72	42,786
835,89	26,319
836,06	25,297
836,23	47,331
836,40	22,349
836,57	20,789
836,74	36,955
836,91	28,187
837,08	40,379
837,25	25,965
837,42	23,079
837,59	30,126
837,76	26,289
837,93	25,124
838,09	19,235
838,26	29,088
838,43	44,660
838,60	28,800
838,77	30,731
838,94	35,694
839,11	24,652
839,28	26,386
839,45	18,187
839,62	30,910
839,79	32,514
839,96	37,172
840,13	33,988
840,30	27,671
840,47	23,351
840,64	36,985
840,81	36,522
840,98	18,760
841,15	44,964
841,32	19,975
841,48	38,230
841,65	30,314
841,82	30,945
841,99	29,134
842,16	21,465
842,33	27,245
842,50	34,253
842,67	28,449
842,84	30,150
843,01	29,493
843,18	36,703
843,35	26,277
843,52	27,614
843,68	35,504
843,85	35,963
844,02	26,494
844,19	21,498
844,36	43,351
844,53	43,131
844,70	27,754
844,87	38,991
845,04	35,739
845,21	16,418
845,37	31,792
845,54	30,713
845,71	27,306
845,88	53,371
846,05	12,766
846,22	23,719
846,39	33,275
846,56	38,504
846,72	14,335
846,89	31,629
847,06	54,904
847,23	44,114
847,40	19,332
847,57	27,289
847,74	33,914
847,90	50,784
848,07	31,252
848,24	31,338
848,41	29,556
848,58	47,361
848,75	33,388
848,92	25,679
849,08	29,351
849,25	29,420
849,42	28,421
849,59	33,615
849,76	27,420
849,93	37,442
850,09	30,372
850,26	23,148
850,43	54,113
850,60	32,254
850,77	18,060
850,94	28,425
851,10	36,787
851,27	29,797
851,44	21,823
851,61	21,333
851,78	45,302
851,95	34,378
852,11	27,367
852,28	23,380
852,45	44,013
852,62	41,216
852,79	26,946
852,95	22,902
853,12	38,832
853,29	38,843
853,46	24,649
853,63	31,203
853,79	36,540
853,96	23,131
854,13	51,217
854,30	26,323
854,46	58,989
854,63	32,585
854,80	29,202
854,97	20,653
855,14	54,568
855,30	41,369
855,47	20,445
855,64	33,451
855,81	34,479
855,97	50,748
856,14	37,924
856,31	23,790
856,48	47,657
856,65	46,854
856,81	26,896
856,98	19,568
857,15	33,668
857,32	43,360
857,48	31,759
857,65	33,044
857,82	46,715
857,99	42,736
858,15	32,837
858,32	19,307
858,49	47,768
858,65	58,765
858,82	24,892
858,99	33,004
859,16	52,580
859,32	47,051
859,49	27,055
859,66	24,390
859,83	35,894
859,99	27,960
860,16	36,716
860,33	29,113
860,49	44,643
860,66	44,963
860,83	33,877
861,00	32,639
861,16	57,274
861,33	45,734
861,50	30,241
861,66	27,606
861,83	50,746
862,00	30,613
862,16	27,491
862,33	29,545
862,50	76,456
862,67	38,723
862,83	32,182
863,00	37,322
863,17	69,139
863,33	42,749
863,50	-6,104
863,67	33,220
863,83	48,753
864,00	64,560
864,17	18,035
864,33	25,884
864,50	49,392
864,67	53,833
864,83	12,456
865,00	30,605
865,17	25,961
865,33	62,901
865,50	6,315
865,67	16,740
865,83	55,131
866,00	77,799
866,17	38,249
866,33	65,963
866,50	75,447
866,66	50,052
866,83	37,540
867,00	46,178
867,16	55,151
867,33	41,922
867,50	0,968
867,66	13,709
867,83	50,906
868,00	67,735
868,16	30,312
868,33	35,700
868,49	39,884
868,66	63,157
868,83	47,766
868,99	51,420
869,16	71,297
869,32	65,343
869,49	42,268
869,66	10,762
869,82	71,328
869,99	92,950
870,15	-1,626
870,32	42,006
870,49	86,097
870,65	99,609
870,82	58,839
870,98	28,714
871,15	101,119
871,32	44,218
871,48	0,361
871,65	22,534
871,81	54,429
871,98	24,847
872,15	36,991
872,31	25,771
872,48	89,706
872,64	59,923
872,81	19,641
872,97	50,199
873,14	76,719
873,31	71,324
873,47	41,606
873,64	47,282
873,80	118,825
873,97	109,959
874,13	2,797
874,30	53,583
874,46	105,844
874,63	50,981
874,80	36,541
874,96	13,261
875,13	108,686
875,29	60,906
875,46	63,985
875,62	7,465
875,79	99,264
875,95	56,384
876,12	66,758
876,28	1,941
876,45	83,134
876,61	42,807
876,78	21,778
876,94	44,582
877,11	93,808
877,27	108,504
877,44	58,796
877,60	33,827
877,77	111,726
877,94	97,065
878,10	44,938
878,27	82,736
878,43	137,067
878,60	40,871
878,76	51,684
878,93	44,074
879,09	97,602
879,26	101,612
879,42	38,207
879,58	35,403
879,75	141,596
879,91	123,697
880,08	-80,669
880,24	28,225
880,41	53,267
880,57	86,986
880,74	11,165
880,90	22,862
881,07	33,042
881,23	161,768
881,40	90,930
881,56	82,905
881,73	142,196
881,89	56,397
882,06	-41,050
882,22	209,041
882,38	165,055
882,55	188,004
882,71	34,578
882,88	30,175
883,04	252,039
883,21	219,915
883,37	54,153
883,54	38,270
883,70	230,060
883,86	201,057
884,03	56,120
884,19	34,023
884,36	177,292
884,52	254,844
884,69	-1,842
884,85	24,718
885,01	215,568
885,18	125,246
885,34	13,857
885,51	-15,859
885,67	127,312
>>>>> Data<<<<< Espectral Procesado Extremo
