Fichero De Datos De SpectraSuite
++++++++++++++++++++++++++++++++++++
Fecha: Wed Apr 22 13:11:02 CEST 2009
Usuario: evoflor
Presente Oscuro Del Espectro: Sí
La Referencia de Presente Del Espectro De: Sí
Muestreados de los componentes de Número de espectros: 1
Espectrómetros: USB4F02353
Tiempo de integración (usec): 500000 (USB4F02353)
Promedio de Espectros Hechos un: 5 (USB4F02353)
El Alisar Del Furgón: 0 (USB4F02353)
Párrafo de de Corregir del la del del de Eléctrica del obscuridad: Sí (USB4F02353)
Estrobo/Lámpara Permitido: No (USB4F02353)
Correct for Detector Non-linearity: No (USB4F02353)
Párrafo de de Corregir del la del del de Externa del luz: No (USB4F02353)
Procesado del espectro de Número de pixeles en: 3648
>>>>> Comienza Data<<<<< Espectral Procesado Del EL
177,79	260,135
178,00	260,135
178,22	260,135
178,44	1420,220
178,66	-490,822
178,88	303,713
179,09	-219,830
179,31	429,496
179,53	954,056
179,75	356,205
179,96	569,483
180,18	-546,646
180,40	488,408
180,62	492,732
180,83	-173,306
181,05	-2210,488
181,27	-98460,000
181,49	-104,478
181,70	593,308
181,92	627,716
182,14	917,349
182,36	93,958
182,58	779,400
182,79	973,929
183,01	-78,537
183,23	240,890
183,45	-206,031
183,66	-41,416
183,88	473,294
184,10	-3590,182
184,32	294,950
184,53	364,682
184,75	-311,377
184,97	6,075
185,18	-154,624
185,40	-957,981
185,62	140,878
185,84	-5,109
186,05	256,693
186,27	-151,369
186,49	5240,769
186,71	12,019
186,92	226,796
187,14	-257,291
187,36	137,741
187,58	36,963
187,79	-53,891
188,01	342,751
188,23	-72,614
188,45	-25,177
188,66	363,214
188,88	-3050,182
189,10	-2424,600
189,31	-43,618
189,53	64,708
189,75	338,318
189,97	610,615
190,18	-404,034
190,40	568,588
190,62	-316,020
190,83	-303,619
191,05	250,970
191,27	137,314
191,49	413,020
191,70	-443,077
191,92	-712,373
192,14	-90,639
192,35	698,037
192,57	6001,714
192,79	-49,336
193,01	167,318
193,22	157,146
193,44	-164,949
193,66	112,846
193,87	89,422
194,09	-118,890
194,31	234,746
194,53	1072,448
194,74	78,968
194,96	128,210
195,18	185,458
195,39	-537,625
195,61	-163,817
195,83	-347,087
196,04	127,870
196,26	-716,382
196,48	-2,693
196,70	261,948
196,91	73,698
197,13	128,506
197,35	70,422
197,56	745,077
197,78	2319,851
198,00	808,112
198,21	508,544
198,43	-1346,860
198,65	158,762
198,86	509,568
199,08	119,213
199,30	144,656
199,51	-646,124
199,73	180,257
199,95	370,693
200,16	870,231
200,38	192,722
200,60	175,121
200,81	494,133
201,03	113,478
201,25	-1695,600
201,46	218,107
201,68	67,352
201,90	3996,818
202,11	-650,611
202,33	186,463
202,55	1467,000
202,76	-117,803
202,98	67,108
203,20	6,923
203,41	17,053
203,63	167,559
203,85	-239760,000
204,06	13,364
204,28	-146,169
204,50	249,717
204,71	266,184
204,93	269,280
205,15	49,880
205,36	-257,094
205,58	304,722
205,80	-206,726
206,01	99,626
206,23	98,007
206,45	284,238
206,66	205,651
206,88	-47,496
207,10	303,545
207,31	423,656
207,53	173,314
207,75	54,258
207,96	1238,507
208,18	-326,212
208,39	77,821
208,61	4664,571
208,83	-429,299
209,04	378,501
209,26	-652,811
209,48	317,416
209,69	290,903
209,91	1035,000
210,13	30,956
210,34	155,593
210,56	271,309
210,77	-1781,575
210,99	238,093
211,21	6744,706
211,42	-275,124
211,64	-112,069
211,86	168,511
212,07	278,844
212,29	272,482
212,50	160,423
212,72	67,154
212,94	221,769
213,15	139,532
213,37	141,712
213,58	-104,568
213,80	-2037,857
214,02	15215,294
214,23	383,321
214,45	499,869
214,67	-1738,537
214,88	-106,913
215,10	-406,268
215,31	-38,515
215,53	-81,000
215,75	362,191
215,96	2003,478
216,18	-20,282
216,39	156,968
216,61	837,904
216,83	700,714
217,04	1156,854
217,26	68,806
217,47	94,608
217,69	341,780
217,91	198,557
218,12	-160560,000
218,34	171,743
218,55	581,061
218,77	59,314
218,99	125,711
219,20	-179,759
219,42	488,963
219,63	56,802
219,85	-190,236
220,06	226,385
220,28	253,968
220,50	92,617
220,71	96,212
220,93	3352,075
221,14	-1920,600
221,36	-38,547
221,58	20,618
221,79	218,789
222,01	763,448
222,22	505,658
222,44	-410,562
222,65	127,711
222,87	329,790
223,09	125,180
223,30	146,533
223,52	178,595
223,73	307,001
223,95	-28,648
224,16	112,082
224,38	546,825
224,60	109,456
224,81	92,715
225,03	195,661
225,24	179,736
225,46	49,934
225,67	-8,118
225,89	126,518
226,10	716,747
226,32	1392,480
226,54	56,222
226,75	27,248
226,97	138,569
227,18	175,750
227,40	39,617
227,61	59,926
227,83	67,905
228,04	187,768
228,26	25,654
228,47	67,139
228,69	176,735
228,91	175,531
229,12	104,849
229,34	32,145
229,55	78,096
229,77	23,445
229,98	40,993
230,20	36,460
230,41	30,020
230,63	116,594
230,84	71,103
231,06	57,616
231,27	55,317
231,49	67,937
231,71	46,825
231,92	26,726
232,14	31,451
232,35	118,541
232,57	70,408
232,78	9,078
233,00	72,376
233,21	81,265
233,43	43,845
233,64	14,568
233,86	21,164
234,07	45,380
234,29	17,697
234,50	48,237
234,72	63,340
234,93	18,361
235,15	26,165
235,36	36,497
235,58	46,272
235,79	46,762
236,01	10,072
236,22	25,468
236,44	55,841
236,65	28,595
236,87	35,780
237,08	11,488
237,30	9,099
237,51	33,297
237,73	-6,094
237,94	14,074
238,16	38,969
238,37	19,768
238,59	11,211
238,80	8,853
239,02	16,433
239,23	23,775
239,45	-2,149
239,66	18,954
239,88	39,479
240,09	13,070
240,31	1,644
240,52	14,599
240,74	22,208
240,95	17,303
241,17	8,888
241,38	6,982
241,60	10,855
241,81	28,059
242,03	9,491
242,24	9,695
242,46	22,634
242,67	6,154
242,89	9,067
243,10	20,495
243,32	15,233
243,53	16,277
243,75	8,627
243,96	8,277
244,18	12,985
244,39	10,375
244,60	8,642
244,82	1,872
245,03	24,247
245,25	15,603
245,46	28,161
245,68	6,508
245,89	24,942
246,11	18,094
246,32	10,962
246,54	11,866
246,75	12,905
246,97	17,334
247,18	25,555
247,39	3,942
247,61	15,605
247,82	13,396
248,04	10,407
248,25	7,126
248,47	14,655
248,68	14,901
248,90	3,886
249,11	8,786
249,33	19,453
249,54	13,862
249,75	12,966
249,97	6,979
250,18	19,346
250,40	16,132
250,61	-5,346
250,83	10,313
251,04	5,499
251,25	12,727
251,47	2,988
251,68	10,887
251,90	16,898
252,11	16,942
252,33	5,415
252,54	8,442
252,76	9,005
252,97	4,591
253,18	1,915
253,40	7,971
253,61	3,677
253,83	17,096
254,04	12,846
254,25	9,155
254,47	7,035
254,68	8,535
254,90	2,814
255,11	9,035
255,33	12,302
255,54	11,422
255,75	7,625
255,97	8,167
256,18	10,146
256,40	10,880
256,61	8,988
256,82	2,356
257,04	12,915
257,25	5,139
257,47	8,083
257,68	3,171
257,89	11,047
258,11	13,873
258,32	10,218
258,54	8,312
258,75	13,876
258,96	15,285
259,18	5,013
259,39	5,258
259,61	11,374
259,82	8,357
260,03	9,885
260,25	7,422
260,46	9,889
260,68	5,855
260,89	1,416
261,10	7,587
261,32	9,250
261,53	7,276
261,75	5,330
261,96	-0,067
262,17	12,210
262,39	15,956
262,60	0,464
262,81	-1,478
263,03	13,915
263,24	7,667
263,46	4,035
263,67	2,426
263,88	10,928
264,10	11,203
264,31	1,925
264,52	8,002
264,74	13,303
264,95	8,627
265,17	6,891
265,38	8,525
265,59	10,752
265,81	7,245
266,02	3,162
266,23	4,312
266,45	13,966
266,66	16,408
266,87	10,252
267,09	5,505
267,30	11,835
267,52	9,578
267,73	1,906
267,94	4,773
268,16	9,717
268,37	6,608
268,58	11,147
268,80	4,462
269,01	9,924
269,22	11,573
269,44	7,469
269,65	8,981
269,86	9,255
270,08	12,097
270,29	2,740
270,50	6,362
270,72	8,619
270,93	7,274
271,14	0,636
271,36	1,702
271,57	9,329
271,78	4,995
272,00	12,071
272,21	10,302
272,42	9,492
272,64	12,529
272,85	2,727
273,06	7,123
273,28	7,125
273,49	8,447
273,70	7,390
273,92	8,907
274,13	12,097
274,34	4,037
274,56	5,018
274,77	3,752
274,98	12,997
275,20	6,574
275,41	12,772
275,62	6,827
275,84	7,383
276,05	17,083
276,26	3,047
276,47	1,712
276,69	9,161
276,90	9,102
277,11	9,058
277,33	5,529
277,54	9,586
277,75	8,224
277,97	3,993
278,18	2,325
278,39	9,677
278,61	8,499
278,82	8,129
279,03	8,811
279,24	8,912
279,46	9,089
279,67	8,183
279,88	8,190
280,10	10,552
280,31	4,806
280,52	9,937
280,73	7,693
280,95	7,386
281,16	8,844
281,37	9,049
281,59	9,903
281,80	14,370
282,01	5,271
282,22	5,807
282,44	4,285
282,65	14,575
282,86	11,661
283,08	3,937
283,29	8,726
283,50	4,208
283,71	6,125
283,93	4,502
284,14	7,204
284,35	5,150
284,56	8,411
284,78	3,407
284,99	6,409
285,20	10,412
285,42	8,733
285,63	5,702
285,84	2,351
286,05	5,884
286,27	7,222
286,48	3,076
286,69	4,864
286,90	4,689
287,12	4,771
287,33	5,416
287,54	4,668
287,75	12,438
287,97	5,851
288,18	8,837
288,39	2,761
288,60	5,995
288,82	5,735
289,03	4,813
289,24	7,381
289,45	7,837
289,67	8,781
289,88	4,556
290,09	9,422
290,30	7,703
290,52	3,613
290,73	2,918
290,94	0,643
291,15	5,882
291,37	7,977
291,58	5,872
291,79	6,016
292,00	9,710
292,21	7,423
292,43	4,604
292,64	5,481
292,85	6,760
293,06	9,294
293,28	2,192
293,49	3,204
293,70	11,222
293,91	4,430
294,12	4,969
294,34	5,967
294,55	6,433
294,76	4,670
294,97	8,950
295,19	3,097
295,40	7,561
295,61	6,752
295,82	2,845
296,03	5,954
296,25	7,055
296,46	4,509
296,67	1,799
296,88	0,972
297,09	9,838
297,31	6,614
297,52	7,104
297,73	2,538
297,94	8,474
298,15	6,471
298,37	4,855
298,58	7,997
298,79	8,372
299,00	3,514
299,21	3,238
299,43	4,338
299,64	10,435
299,85	8,190
300,06	4,302
300,27	2,411
300,49	13,208
300,70	6,094
300,91	5,353
301,12	3,739
301,33	8,557
301,54	4,701
301,76	7,284
301,97	3,304
302,18	3,766
302,39	7,709
302,60	14,251
302,82	3,423
303,03	10,658
303,24	7,702
303,45	5,875
303,66	5,922
303,87	5,424
304,09	8,907
304,30	2,221
304,51	6,252
304,72	4,286
304,93	9,640
305,14	6,421
305,36	2,035
305,57	3,625
305,78	6,188
305,99	5,297
306,20	5,156
306,41	3,036
306,62	3,642
306,84	4,295
307,05	0,964
307,26	7,278
307,47	9,929
307,68	4,966
307,89	5,773
308,11	7,396
308,32	3,929
308,53	5,598
308,74	4,146
308,95	5,199
309,16	7,774
309,37	6,305
309,59	2,813
309,80	8,397
310,01	4,182
310,22	8,808
310,43	4,934
310,64	6,312
310,85	6,652
311,06	4,041
311,28	2,989
311,49	8,652
311,70	10,165
311,91	2,631
312,12	4,535
312,33	8,016
312,54	8,242
312,75	5,175
312,97	5,056
313,18	7,901
313,39	4,392
313,60	4,495
313,81	4,591
314,02	8,319
314,23	8,389
314,44	2,516
314,65	4,772
314,87	2,894
315,08	5,924
315,29	9,193
315,50	5,943
315,71	8,525
315,92	8,625
316,13	5,828
316,34	5,780
316,55	8,099
316,77	0,918
316,98	5,154
317,19	1,822
317,40	7,964
317,61	10,271
317,82	4,084
318,03	5,054
318,24	5,646
318,45	9,693
318,66	6,717
318,87	3,015
319,09	6,216
319,30	7,403
319,51	6,179
319,72	6,424
319,93	6,070
320,14	4,445
320,35	9,239
320,56	3,535
320,77	6,743
320,98	11,254
321,19	3,742
321,40	5,910
321,62	8,201
321,83	7,496
322,04	7,249
322,25	4,575
322,46	10,451
322,67	10,047
322,88	6,471
323,09	6,148
323,30	8,093
323,51	9,521
323,72	8,480
323,93	4,244
324,14	6,113
324,35	3,152
324,56	2,361
324,77	6,127
324,99	7,137
325,20	2,743
325,41	6,512
325,62	6,228
325,83	1,951
326,04	3,791
326,25	6,853
326,46	3,299
326,67	5,354
326,88	6,631
327,09	5,854
327,30	4,604
327,51	7,332
327,72	6,071
327,93	6,461
328,14	2,686
328,35	3,915
328,56	8,314
328,77	4,880
328,98	7,588
329,19	6,682
329,40	7,448
329,61	4,195
329,82	1,946
330,04	8,841
330,25	5,582
330,46	7,083
330,67	3,814
330,88	5,281
331,09	5,412
331,30	5,342
331,51	3,055
331,72	4,818
331,93	6,502
332,14	2,505
332,35	8,047
332,56	5,068
332,77	5,769
332,98	1,770
333,19	4,452
333,40	7,652
333,61	3,904
333,82	9,544
334,03	10,526
334,24	11,503
334,45	5,963
334,66	6,662
334,87	5,605
335,08	1,547
335,29	4,941
335,50	4,777
335,71	3,603
335,92	8,371
336,13	9,149
336,34	1,836
336,55	6,426
336,76	10,995
336,97	6,130
337,18	5,310
337,39	5,836
337,60	7,959
337,81	6,930
338,02	3,899
338,23	5,669
338,44	7,022
338,65	6,331
338,86	5,747
339,07	4,802
339,28	7,973
339,49	6,078
339,70	3,621
339,91	4,231
340,11	12,286
340,32	3,539
340,53	3,280
340,74	4,556
340,95	3,618
341,16	8,367
341,37	6,042
341,58	3,028
341,79	5,999
342,00	5,956
342,21	1,741
342,42	3,140
342,63	9,112
342,84	3,634
343,05	7,712
343,26	5,881
343,47	10,429
343,68	4,044
343,89	3,301
344,10	7,091
344,31	7,262
344,52	5,359
344,73	2,007
344,94	5,920
345,14	5,415
345,35	7,131
345,56	3,630
345,77	4,641
345,98	5,827
346,19	8,813
346,40	4,996
346,61	5,138
346,82	7,052
347,03	6,008
347,24	8,564
347,45	5,668
347,66	10,723
347,87	5,416
348,08	7,088
348,28	0,667
348,49	6,712
348,70	9,049
348,91	6,049
349,12	2,151
349,33	21,695
349,54	7,780
349,75	6,625
349,96	2,933
350,17	6,844
350,38	3,373
350,59	9,832
350,80	8,048
351,00	9,056
351,21	8,905
351,42	7,171
351,63	0,349
351,84	8,005
352,05	10,466
352,26	5,167
352,47	4,158
352,68	10,351
352,89	8,566
353,09	6,970
353,30	1,788
353,51	5,225
353,72	11,907
353,93	8,428
354,14	2,848
354,35	5,932
354,56	8,824
354,77	5,225
354,98	3,780
355,18	6,829
355,39	12,395
355,60	4,053
355,81	3,561
356,02	9,820
356,23	9,195
356,44	5,679
356,65	9,253
356,85	15,509
357,06	8,589
357,27	8,316
357,48	2,081
357,69	8,412
357,90	9,418
358,11	1,114
358,32	5,830
358,52	8,964
358,73	4,089
358,94	3,842
359,15	7,864
359,36	10,813
359,57	3,562
359,78	8,412
359,98	5,956
360,19	1,187
360,40	5,946
360,61	11,078
360,82	4,694
361,03	13,225
361,24	12,464
361,44	4,398
361,65	6,733
361,86	3,543
362,07	4,562
362,28	4,716
362,49	3,115
362,70	8,010
362,90	8,357
363,11	0,932
363,32	5,344
363,53	7,813
363,74	9,954
363,95	6,992
364,15	5,905
364,36	9,568
364,57	8,038
364,78	6,045
364,99	6,927
365,20	5,968
365,40	8,462
365,61	4,378
365,82	7,935
366,03	5,813
366,24	5,362
366,45	3,087
366,65	3,394
366,86	7,110
367,07	5,340
367,28	4,593
367,49	4,911
367,69	9,341
367,90	9,606
368,11	7,173
368,32	8,257
368,53	7,231
368,73	6,989
368,94	3,222
369,15	5,104
369,36	11,120
369,57	6,724
369,78	5,195
369,98	10,410
370,19	12,816
370,40	7,398
370,61	4,363
370,82	5,727
371,02	7,067
371,23	10,698
371,44	4,811
371,65	8,505
371,85	10,741
372,06	6,169
372,27	6,694
372,48	8,019
372,69	6,394
372,89	6,693
373,10	2,722
373,31	4,447
373,52	6,685
373,73	10,449
373,93	6,427
374,14	5,399
374,35	8,010
374,56	9,474
374,76	4,786
374,97	6,335
375,18	8,058
375,39	5,242
375,60	10,338
375,80	8,035
376,01	4,972
376,22	10,010
376,43	3,706
376,63	6,612
376,84	6,296
377,05	8,831
377,26	1,068
377,46	3,036
377,67	6,075
377,88	8,034
378,09	7,835
378,29	1,281
378,50	10,006
378,71	11,235
378,92	5,414
379,12	4,740
379,33	6,081
379,54	7,889
379,75	9,172
379,95	4,331
380,16	9,841
380,37	8,773
380,58	7,693
380,78	10,539
380,99	3,980
381,20	2,816
381,41	5,863
381,61	8,814
381,82	7,459
382,03	7,173
382,24	6,710
382,44	7,172
382,65	10,579
382,86	8,167
383,06	5,018
383,27	3,000
383,48	4,158
383,69	9,779
383,89	5,866
384,10	5,398
384,31	8,435
384,51	9,895
384,72	5,464
384,93	6,294
385,14	7,288
385,34	7,777
385,55	6,658
385,76	2,718
385,96	7,368
386,17	7,769
386,38	5,731
386,59	11,769
386,79	6,934
387,00	10,787
387,21	9,593
387,41	5,688
387,62	4,929
387,83	10,081
388,03	6,647
388,24	2,079
388,45	7,396
388,66	8,723
388,86	7,363
389,07	3,499
389,28	14,212
389,48	5,295
389,69	6,222
389,90	6,274
390,10	5,583
390,31	10,422
390,52	1,640
390,72	3,700
390,93	6,875
391,14	8,125
391,34	8,405
391,55	11,664
391,76	11,883
391,96	7,710
392,17	5,863
392,38	8,556
392,58	8,293
392,79	8,770
393,00	1,015
393,20	7,218
393,41	7,349
393,62	7,940
393,82	7,116
394,03	4,720
394,24	7,663
394,44	10,937
394,65	8,495
394,86	5,266
395,06	12,183
395,27	6,310
395,48	5,545
395,68	11,967
395,89	9,866
396,10	14,606
396,30	7,074
396,51	4,015
396,72	8,182
396,92	4,231
397,13	10,500
397,34	4,411
397,54	11,181
397,75	7,030
397,95	7,217
398,16	9,254
398,37	9,916
398,57	6,038
398,78	11,410
398,99	7,123
399,19	10,830
399,40	11,838
399,60	7,416
399,81	8,556
400,02	10,021
400,22	11,486
400,43	6,753
400,64	8,602
400,84	7,251
401,05	10,497
401,25	14,759
401,46	12,086
401,67	11,575
401,87	10,004
402,08	7,135
402,29	9,142
402,49	19,157
402,70	11,515
402,90	7,131
403,11	7,818
403,32	11,236
403,52	12,860
403,73	11,912
403,93	13,162
404,14	19,037
404,35	15,101
404,55	9,083
404,76	10,981
404,96	12,050
405,17	18,067
405,38	18,178
405,58	11,676
405,79	14,765
405,99	17,440
406,20	12,433
406,40	7,987
406,61	17,615
406,82	12,760
407,02	14,718
407,23	13,418
407,43	14,074
407,64	8,336
407,85	14,061
408,05	5,985
408,26	22,739
408,46	17,253
408,67	11,650
408,87	15,232
409,08	15,055
409,29	23,270
409,49	18,063
409,70	16,799
409,90	16,037
410,11	17,327
410,31	19,479
410,52	15,292
410,72	14,819
410,93	23,842
411,14	16,961
411,34	13,245
411,55	20,634
411,75	20,491
411,96	19,465
412,16	19,736
412,37	16,319
412,57	20,616
412,78	20,993
412,99	21,889
413,19	20,550
413,40	20,411
413,60	16,743
413,81	18,124
414,01	19,839
414,22	21,322
414,42	20,520
414,63	18,174
414,83	23,470
415,04	24,359
415,24	20,570
415,45	22,132
415,65	21,916
415,86	20,695
416,07	20,938
416,27	20,102
416,48	26,793
416,68	29,865
416,89	17,647
417,09	22,151
417,30	28,864
417,50	22,531
417,71	26,914
417,91	26,170
418,12	23,882
418,32	23,449
418,53	22,966
418,73	22,542
418,94	23,224
419,14	24,829
419,35	22,060
419,55	23,282
419,76	28,906
419,96	25,997
420,17	23,997
420,37	27,204
420,58	30,538
420,78	27,335
420,99	24,989
421,19	28,971
421,40	29,022
421,60	32,030
421,81	23,277
422,01	28,364
422,22	28,044
422,42	30,923
422,63	28,109
422,83	25,922
423,04	35,084
423,24	35,302
423,45	24,218
423,65	31,854
423,86	34,971
424,06	32,091
424,27	25,668
424,47	27,980
424,67	30,713
424,88	31,839
425,08	25,642
425,29	34,477
425,49	28,646
425,70	19,816
425,90	30,696
426,11	31,016
426,31	31,043
426,52	30,463
426,72	25,995
426,93	26,234
427,13	32,149
427,33	28,786
427,54	31,880
427,74	30,744
427,95	38,160
428,15	27,028
428,36	30,334
428,56	26,475
428,77	30,101
428,97	30,971
429,18	31,649
429,38	26,512
429,58	34,057
429,79	31,983
429,99	26,596
430,20	26,154
430,40	34,297
430,61	31,629
430,81	26,270
431,01	31,263
431,22	33,807
431,42	37,213
431,63	27,024
431,83	29,799
432,04	33,832
432,24	34,987
432,44	30,910
432,65	29,637
432,85	31,350
433,06	31,864
433,26	25,420
433,47	28,300
433,67	27,702
433,87	29,929
434,08	25,382
434,28	30,087
434,49	29,670
434,69	37,165
434,89	28,854
435,10	29,885
435,30	35,251
435,51	29,600
435,71	27,933
435,91	27,438
436,12	29,337
436,32	31,390
436,53	31,451
436,73	30,250
436,93	32,559
437,14	30,843
437,34	33,876
437,55	29,119
437,75	30,461
437,95	37,384
438,16	27,401
438,36	32,207
438,57	27,712
438,77	28,996
438,97	33,712
439,18	37,632
439,38	32,038
439,58	29,588
439,79	35,054
439,99	30,285
440,20	38,537
440,40	36,829
440,60	29,951
440,81	34,158
441,01	38,297
441,21	40,116
441,42	36,852
441,62	34,250
441,83	37,638
442,03	36,938
442,23	35,200
442,44	33,460
442,64	32,946
442,84	31,548
443,05	32,735
443,25	29,223
443,45	34,913
443,66	33,721
443,86	30,947
444,06	34,239
444,27	32,817
444,47	33,561
444,67	32,720
444,88	38,041
445,08	33,253
445,28	33,185
445,49	31,642
445,69	31,150
445,90	34,833
446,10	38,567
446,30	34,839
446,51	30,111
446,71	38,735
446,91	39,805
447,12	39,368
447,32	35,344
447,52	36,654
447,72	34,264
447,93	35,984
448,13	27,327
448,33	39,966
448,54	38,562
448,74	31,440
448,94	33,206
449,15	41,361
449,35	38,874
449,55	34,594
449,76	39,728
449,96	33,691
450,16	37,961
450,37	29,918
450,57	34,592
450,77	30,450
450,98	35,336
451,18	35,280
451,38	35,712
451,58	40,190
451,79	31,001
451,99	36,859
452,19	35,295
452,40	36,108
452,60	32,076
452,80	29,742
453,00	37,665
453,21	34,964
453,41	37,881
453,61	35,238
453,82	33,941
454,02	31,492
454,22	39,330
454,42	34,546
454,63	33,247
454,83	30,443
455,03	35,742
455,24	31,704
455,44	34,769
455,64	31,715
455,84	34,162
456,05	31,683
456,25	30,508
456,45	33,375
456,65	33,981
456,86	30,968
457,06	36,618
457,26	35,767
457,47	39,785
457,67	35,347
457,87	31,857
458,07	35,099
458,28	39,324
458,48	39,083
458,68	29,614
458,88	37,365
459,09	35,077
459,29	42,180
459,49	32,758
459,69	36,377
459,90	31,934
460,10	32,561
460,30	34,420
460,50	32,047
460,71	35,812
460,91	26,598
461,11	31,247
461,31	30,668
461,52	39,019
461,72	36,656
461,92	33,475
462,12	40,276
462,32	31,543
462,53	30,602
462,73	33,071
462,93	34,710
463,13	37,278
463,34	34,269
463,54	34,037
463,74	36,330
463,94	36,228
464,14	34,740
464,35	32,256
464,55	39,582
464,75	40,423
464,95	33,066
465,16	28,079
465,36	36,117
465,56	31,426
465,76	33,362
465,96	32,556
466,17	35,133
466,37	30,326
466,57	36,615
466,77	33,204
466,97	31,358
467,18	38,210
467,38	31,458
467,58	32,255
467,78	38,508
467,98	37,105
468,19	33,502
468,39	39,244
468,59	37,962
468,79	33,832
468,99	35,191
469,19	31,261
469,40	36,123
469,60	32,323
469,80	32,185
470,00	31,778
470,20	33,388
470,41	34,447
470,61	36,043
470,81	31,704
471,01	32,567
471,21	36,049
471,41	30,891
471,62	31,188
471,82	31,690
472,02	33,065
472,22	31,456
472,42	30,536
472,62	33,067
472,83	30,439
473,03	36,534
473,23	29,710
473,43	38,055
473,63	35,483
473,83	34,508
474,03	30,973
474,24	40,674
474,44	33,205
474,64	33,293
474,84	31,636
475,04	37,855
475,24	34,660
475,45	28,354
475,65	31,684
475,85	35,014
476,05	26,765
476,25	30,855
476,45	30,584
476,65	40,738
476,85	33,357
477,06	33,651
477,26	30,927
477,46	33,604
477,66	31,619
477,86	33,597
478,06	28,008
478,26	40,203
478,46	32,665
478,67	33,698
478,87	31,830
479,07	32,518
479,27	33,289
479,47	30,747
479,67	24,580
479,87	31,849
480,07	31,761
480,28	34,018
480,48	30,431
480,68	33,935
480,88	35,462
481,08	32,564
481,28	32,333
481,48	32,689
481,68	32,452
481,88	28,962
482,08	30,381
482,29	35,717
482,49	27,749
482,69	28,942
482,89	29,223
483,09	34,490
483,29	30,482
483,49	29,139
483,69	31,586
483,89	28,069
484,09	28,764
484,29	27,021
484,50	30,255
484,70	30,610
484,90	32,100
485,10	29,211
485,30	31,658
485,50	34,372
485,70	30,061
485,90	28,285
486,10	25,555
486,30	27,708
486,50	29,183
486,70	27,546
486,90	27,576
487,10	31,369
487,30	26,889
487,51	28,664
487,71	25,546
487,91	29,399
488,11	31,170
488,31	25,900
488,51	30,283
488,71	27,355
488,91	29,354
489,11	27,144
489,31	29,612
489,51	28,353
489,71	29,467
489,91	26,673
490,11	26,301
490,31	29,732
490,51	29,842
490,71	28,496
490,91	28,259
491,11	31,356
491,31	28,616
491,51	24,867
491,72	27,635
491,92	30,243
492,12	32,510
492,32	31,086
492,52	30,891
492,72	28,224
492,92	28,522
493,12	30,517
493,32	24,981
493,52	25,780
493,72	26,849
493,92	27,859
494,12	29,113
494,32	30,600
494,52	27,665
494,72	27,403
494,92	26,434
495,12	31,369
495,32	33,002
495,52	27,192
495,72	27,260
495,92	32,536
496,12	31,572
496,32	24,109
496,52	27,740
496,72	27,031
496,92	28,289
497,12	27,158
497,32	27,451
497,52	31,133
497,72	30,949
497,92	29,228
498,12	27,038
498,32	29,157
498,52	28,513
498,72	25,376
498,92	27,209
499,12	28,386
499,32	26,641
499,52	28,851
499,72	29,672
499,92	30,701
500,12	30,012
500,32	29,284
500,52	27,975
500,72	37,636
500,91	29,189
501,11	28,054
501,31	20,610
501,51	31,412
501,71	33,115
501,91	29,985
502,11	27,496
502,31	29,772
502,51	31,637
502,71	26,096
502,91	26,450
503,11	29,320
503,31	29,465
503,51	23,883
503,71	25,249
503,91	31,382
504,11	28,928
504,31	27,231
504,51	27,755
504,71	32,015
504,91	27,020
505,10	26,267
505,30	25,773
505,50	28,061
505,70	25,523
505,90	28,915
506,10	24,682
506,30	27,110
506,50	31,793
506,70	29,775
506,90	25,530
507,10	28,838
507,30	26,116
507,50	27,977
507,70	28,300
507,89	28,020
508,09	26,998
508,29	25,385
508,49	26,911
508,69	25,010
508,89	25,702
509,09	23,160
509,29	25,636
509,49	29,781
509,69	31,451
509,89	25,996
510,09	25,195
510,28	25,284
510,48	25,985
510,68	26,792
510,88	21,748
511,08	25,108
511,28	25,542
511,48	27,332
511,68	24,589
511,88	22,112
512,07	27,028
512,27	26,826
512,47	25,400
512,67	21,775
512,87	23,037
513,07	28,074
513,27	23,389
513,47	23,597
513,67	21,409
513,86	25,789
514,06	24,939
514,26	24,467
514,46	27,215
514,66	24,194
514,86	22,633
515,06	27,185
515,26	27,711
515,45	24,452
515,65	21,320
515,85	26,789
516,05	22,342
516,25	23,271
516,45	24,879
516,65	23,425
516,84	22,917
517,04	26,859
517,24	21,995
517,44	24,769
517,64	26,816
517,84	29,151
518,04	24,326
518,23	27,906
518,43	26,525
518,63	22,541
518,83	21,077
519,03	24,442
519,23	26,606
519,42	23,230
519,62	22,549
519,82	21,892
520,02	24,191
520,22	22,449
520,42	23,059
520,61	27,079
520,81	25,171
521,01	25,420
521,21	21,015
521,41	23,675
521,61	24,411
521,80	21,589
522,00	25,217
522,20	26,317
522,40	25,270
522,60	21,256
522,79	21,995
522,99	23,639
523,19	21,979
523,39	22,369
523,59	24,438
523,78	25,776
523,98	19,835
524,18	21,675
524,38	21,278
524,58	24,576
524,77	24,502
524,97	22,425
525,17	23,215
525,37	24,054
525,57	25,585
525,76	19,754
525,96	22,873
526,16	19,259
526,36	19,739
526,56	22,958
526,75	18,310
526,95	23,166
527,15	24,219
527,35	21,852
527,55	20,698
527,74	25,011
527,94	19,947
528,14	20,777
528,34	22,184
528,53	21,318
528,73	22,565
528,93	20,837
529,13	20,301
529,32	25,465
529,52	23,747
529,72	19,084
529,92	20,240
530,12	19,769
530,31	18,523
530,51	23,485
530,71	21,409
530,91	24,206
531,10	15,085
531,30	19,095
531,50	17,860
531,70	19,938
531,89	18,739
532,09	20,333
532,29	19,118
532,49	20,301
532,68	21,999
532,88	16,825
533,08	17,966
533,28	19,361
533,47	17,463
533,67	22,572
533,87	17,029
534,06	26,696
534,26	20,274
534,46	19,480
534,66	18,271
534,85	22,437
535,05	15,130
535,25	18,284
535,45	15,252
535,64	20,345
535,84	19,890
536,04	18,344
536,23	18,907
536,43	21,352
536,63	17,761
536,83	20,387
537,02	18,895
537,22	16,383
537,42	18,217
537,61	18,403
537,81	19,653
538,01	21,734
538,20	18,973
538,40	15,235
538,60	17,688
538,80	17,807
538,99	18,851
539,19	16,747
539,39	17,037
539,58	18,664
539,78	15,587
539,98	17,653
540,17	12,841
540,37	17,417
540,57	15,620
540,76	15,509
540,96	11,841
541,16	17,053
541,36	14,601
541,55	10,824
541,75	11,536
541,95	13,149
542,14	13,409
542,34	11,649
542,54	11,409
542,73	13,858
542,93	13,724
543,13	12,406
543,32	12,407
543,52	14,027
543,72	11,561
543,91	12,991
544,11	11,789
544,31	10,552
544,50	13,133
544,70	11,632
544,89	11,290
545,09	13,772
545,29	12,219
545,48	13,193
545,68	12,141
545,88	13,903
546,07	11,995
546,27	12,936
546,47	13,069
546,66	15,370
546,86	15,424
547,06	14,553
547,25	11,858
547,45	16,465
547,64	16,007
547,84	18,908
548,04	15,293
548,23	18,610
548,43	18,528
548,63	18,698
548,82	16,630
549,02	14,495
549,21	14,633
549,41	15,384
549,61	16,898
549,80	16,222
550,00	17,062
550,20	12,755
550,39	16,824
550,59	15,464
550,78	17,449
550,98	12,996
551,18	18,530
551,37	17,952
551,57	15,829
551,76	17,018
551,96	14,330
552,16	16,218
552,35	16,258
552,55	16,558
552,74	16,377
552,94	19,198
553,14	16,471
553,33	14,888
553,53	14,817
553,72	14,799
553,92	18,906
554,12	15,360
554,31	15,550
554,51	16,406
554,70	14,390
554,90	16,706
555,09	18,133
555,29	19,357
555,49	18,473
555,68	18,929
555,88	15,458
556,07	13,190
556,27	20,347
556,46	16,233
556,66	14,699
556,86	19,177
557,05	17,749
557,25	16,392
557,44	15,235
557,64	14,677
557,83	15,897
558,03	17,737
558,22	14,148
558,42	17,906
558,62	19,640
558,81	15,794
559,01	15,806
559,20	16,776
559,40	17,356
559,59	17,405
559,79	14,693
559,98	17,375
560,18	18,077
560,37	16,081
560,57	17,647
560,76	14,831
560,96	15,098
561,16	18,949
561,35	15,841
561,55	20,498
561,74	18,605
561,94	17,813
562,13	16,685
562,33	19,710
562,52	18,332
562,72	16,269
562,91	14,660
563,11	17,187
563,30	20,216
563,50	14,942
563,69	15,523
563,89	14,476
564,08	18,241
564,28	15,432
564,47	17,258
564,67	17,453
564,86	16,510
565,06	13,279
565,25	17,501
565,45	15,759
565,64	21,738
565,84	15,420
566,03	14,058
566,23	18,165
566,42	16,646
566,62	16,013
566,81	16,202
567,01	16,455
567,20	18,892
567,40	15,921
567,59	15,476
567,79	20,034
567,98	20,888
568,18	16,596
568,37	18,579
568,57	17,313
568,76	18,192
568,96	16,759
569,15	16,483
569,35	16,961
569,54	18,466
569,73	18,559
569,93	15,495
570,12	15,793
570,32	19,394
570,51	16,917
570,71	18,190
570,90	19,486
571,10	16,132
571,29	14,852
571,49	15,659
571,68	16,726
571,87	18,705
572,07	16,600
572,26	14,851
572,46	17,004
572,65	18,335
572,85	13,934
573,04	18,139
573,24	16,252
573,43	18,636
573,62	17,664
573,82	16,743
574,01	17,009
574,21	15,937
574,40	15,124
574,60	15,495
574,79	21,087
574,98	16,508
575,18	18,445
575,37	14,514
575,57	18,249
575,76	18,671
575,96	17,964
576,15	16,158
576,34	16,793
576,54	17,322
576,73	18,438
576,93	17,065
577,12	18,485
577,31	18,105
577,51	16,522
577,70	16,507
577,90	18,063
578,09	16,578
578,28	17,770
578,48	17,019
578,67	19,179
578,87	18,442
579,06	17,371
579,25	18,790
579,45	18,797
579,64	15,778
579,84	16,689
580,03	17,248
580,22	19,931
580,42	17,198
580,61	19,468
580,81	18,195
581,00	19,953
581,19	20,094
581,39	16,503
581,58	16,324
581,77	18,092
581,97	20,703
582,16	17,831
582,35	17,107
582,55	18,765
582,74	20,419
582,94	18,441
583,13	15,191
583,32	19,481
583,52	19,607
583,71	19,276
583,90	18,908
584,10	19,679
584,29	21,300
584,48	16,830
584,68	19,226
584,87	22,067
585,06	20,777
585,26	19,631
585,45	19,297
585,65	23,200
585,84	19,737
586,03	19,385
586,23	19,055
586,42	18,974
586,61	22,935
586,81	19,506
587,00	20,335
587,19	18,459
587,39	24,012
587,58	21,100
587,77	21,368
587,97	19,926
588,16	20,793
588,35	20,803
588,54	22,286
588,74	21,167
588,93	24,546
589,12	22,420
589,32	22,097
589,51	20,885
589,70	21,356
589,90	21,796
590,09	21,812
590,28	26,767
590,48	21,650
590,67	23,023
590,86	23,143
591,06	23,052
591,25	26,809
591,44	24,792
591,63	22,332
591,83	24,344
592,02	24,692
592,21	23,061
592,41	22,021
592,60	24,695
592,79	25,476
592,98	25,260
593,18	22,850
593,37	25,381
593,56	26,160
593,76	26,807
593,95	24,324
594,14	23,945
594,33	27,570
594,53	24,924
594,72	24,970
594,91	28,607
595,10	26,516
595,30	24,025
595,49	24,328
595,68	28,018
595,88	25,910
596,07	27,424
596,26	27,720
596,45	26,843
596,65	25,235
596,84	27,133
597,03	27,967
597,22	28,806
597,42	29,780
597,61	27,313
597,80	26,541
597,99	28,258
598,19	29,322
598,38	28,472
598,57	27,061
598,76	28,831
598,95	30,899
599,15	29,574
599,34	28,886
599,53	30,434
599,72	28,433
599,92	31,238
600,11	29,449
600,30	29,584
600,49	30,879
600,69	28,181
600,88	30,372
601,07	29,128
601,26	31,012
601,45	30,246
601,65	29,912
601,84	31,146
602,03	31,403
602,22	32,845
602,42	31,391
602,61	31,154
602,80	31,125
602,99	32,526
603,18	29,826
603,38	33,921
603,57	30,454
603,76	32,560
603,95	29,066
604,14	32,631
604,34	33,525
604,53	30,020
604,72	32,039
604,91	32,180
605,10	33,595
605,29	33,637
605,49	30,783
605,68	32,936
605,87	34,932
606,06	34,122
606,25	29,821
606,45	32,725
606,64	32,062
606,83	34,398
607,02	31,898
607,21	35,230
607,40	33,719
607,60	32,648
607,79	30,443
607,98	29,827
608,17	32,708
608,36	32,041
608,55	31,850
608,75	33,130
608,94	32,832
609,13	28,718
609,32	28,194
609,51	31,160
609,70	27,234
609,89	30,207
610,09	28,684
610,28	31,894
610,47	28,367
610,66	28,060
610,85	27,778
611,04	30,612
611,23	28,146
611,43	28,236
611,62	28,243
611,81	28,893
612,00	30,660
612,19	28,914
612,38	29,254
612,57	30,910
612,77	30,158
612,96	30,617
613,15	31,048
613,34	32,297
613,53	33,507
613,72	33,455
613,91	32,737
614,10	33,355
614,29	35,847
614,49	32,134
614,68	33,140
614,87	35,548
615,06	39,101
615,25	32,981
615,44	34,994
615,63	35,283
615,82	35,692
616,01	34,701
616,21	34,771
616,40	37,885
616,59	39,513
616,78	36,850
616,97	36,913
617,16	37,178
617,35	39,397
617,54	37,132
617,73	39,757
617,92	37,068
618,11	39,051
618,31	36,518
618,50	38,270
618,69	38,029
618,88	37,492
619,07	35,987
619,26	35,791
619,45	37,506
619,64	36,740
619,83	36,894
620,02	36,049
620,21	40,956
620,40	40,654
620,59	38,011
620,78	37,134
620,97	39,624
621,17	41,595
621,36	38,264
621,55	38,580
621,74	39,861
621,93	40,073
622,12	38,715
622,31	38,832
622,50	39,917
622,69	41,553
622,88	40,756
623,07	41,292
623,26	41,548
623,45	43,718
623,64	40,114
623,83	39,365
624,02	41,720
624,21	41,472
624,40	40,718
624,59	38,372
624,78	40,984
624,97	41,885
625,16	39,330
625,35	37,670
625,54	39,208
625,73	39,259
625,92	41,766
626,12	41,523
626,31	43,764
626,50	41,819
626,69	41,918
626,88	41,087
627,07	42,244
627,26	42,803
627,45	39,704
627,64	40,312
627,83	41,984
628,02	42,590
628,21	41,126
628,40	39,902
628,59	43,376
628,78	41,860
628,97	39,096
629,16	40,689
629,35	42,735
629,54	44,671
629,73	41,317
629,92	39,356
630,10	41,217
630,29	42,740
630,48	41,497
630,67	39,893
630,86	43,233
631,05	42,634
631,24	42,282
631,43	40,699
631,62	43,462
631,81	42,169
632,00	42,749
632,19	38,697
632,38	44,352
632,57	40,940
632,76	42,528
632,95	43,141
633,14	45,617
633,33	43,555
633,52	43,628
633,71	45,186
633,90	41,278
634,09	43,004
634,28	45,583
634,47	42,407
634,66	44,261
634,85	44,998
635,04	44,810
635,22	43,309
635,41	44,512
635,60	47,234
635,79	44,559
635,98	43,088
636,17	46,191
636,36	45,050
636,55	43,057
636,74	42,876
636,93	45,144
637,12	45,012
637,31	44,824
637,50	43,088
637,69	44,809
637,87	46,413
638,06	44,918
638,25	44,001
638,44	44,898
638,63	42,387
638,82	45,271
639,01	43,653
639,20	45,189
639,39	47,068
639,58	45,409
639,77	45,650
639,95	44,630
640,14	46,569
640,33	43,209
640,52	43,487
640,71	47,710
640,90	45,188
641,09	47,439
641,28	44,693
641,47	45,802
641,66	46,021
641,84	45,963
642,03	44,893
642,22	46,023
642,41	48,172
642,60	44,751
642,79	45,623
642,98	46,777
643,17	44,991
643,35	43,655
643,54	46,062
643,73	47,238
643,92	46,074
644,11	45,531
644,30	44,419
644,49	46,739
644,67	44,103
644,86	43,587
645,05	48,134
645,24	45,086
645,43	45,709
645,62	47,267
645,81	45,279
645,99	48,927
646,18	47,692
646,37	44,446
646,56	46,183
646,75	47,320
646,94	47,256
647,13	47,068
647,31	44,360
647,50	45,669
647,69	48,561
647,88	46,121
648,07	46,677
648,26	51,592
648,44	46,795
648,63	44,726
648,82	45,487
649,01	49,118
649,20	44,225
649,38	45,699
649,57	45,332
649,76	43,116
649,95	47,843
650,14	44,210
650,33	46,269
650,51	44,565
650,70	47,033
650,89	45,267
651,08	45,620
651,27	48,466
651,45	45,743
651,64	44,560
651,83	47,494
652,02	46,813
652,21	48,343
652,39	47,029
652,58	47,516
652,77	47,527
652,96	48,566
653,15	45,399
653,33	46,562
653,52	46,674
653,71	49,400
653,90	45,801
654,09	46,383
654,27	45,637
654,46	48,647
654,65	46,563
654,84	48,502
655,02	48,770
655,21	47,592
655,40	48,804
655,59	47,121
655,77	47,979
655,96	47,134
656,15	46,900
656,34	47,774
656,53	46,777
656,71	46,482
656,90	45,968
657,09	48,920
657,28	48,505
657,46	46,990
657,65	47,515
657,84	45,880
658,03	48,146
658,21	47,698
658,40	44,832
658,59	46,895
658,78	47,109
658,96	45,419
659,15	46,796
659,34	47,171
659,52	47,338
659,71	46,442
659,90	45,801
660,09	47,178
660,27	46,245
660,46	49,617
660,65	46,754
660,84	46,053
661,02	48,025
661,21	49,425
661,40	46,355
661,58	47,622
661,77	47,302
661,96	43,969
662,15	46,656
662,33	45,457
662,52	46,464
662,71	47,550
662,89	45,095
663,08	47,324
663,27	47,420
663,45	46,668
663,64	46,192
663,83	44,017
664,02	46,716
664,20	47,943
664,39	46,896
664,58	48,267
664,76	46,553
664,95	48,542
665,14	45,989
665,32	46,218
665,51	46,830
665,70	48,282
665,88	48,558
666,07	47,240
666,26	48,721
666,44	48,528
666,63	45,715
666,82	47,629
667,00	49,153
667,19	46,033
667,38	47,504
667,56	48,666
667,75	48,214
667,94	48,596
668,12	47,482
668,31	47,775
668,50	47,203
668,68	49,868
668,87	47,497
669,06	46,761
669,24	49,324
669,43	47,016
669,62	44,674
669,80	44,807
669,99	45,350
670,18	47,500
670,36	45,904
670,55	46,978
670,74	48,168
670,92	43,472
671,11	47,984
671,29	45,142
671,48	47,240
671,67	46,749
671,85	46,422
672,04	46,270
672,23	45,699
672,41	47,285
672,60	47,660
672,78	45,962
672,97	46,893
673,16	48,286
673,34	47,479
673,53	47,034
673,71	48,300
673,90	47,860
674,09	46,898
674,27	44,913
674,46	48,411
674,64	47,798
674,83	46,719
675,02	44,690
675,20	47,271
675,39	45,741
675,57	47,448
675,76	46,217
675,95	48,208
676,13	48,589
676,32	47,898
676,50	47,508
676,69	45,981
676,88	47,247
677,06	46,586
677,25	47,131
677,43	49,797
677,62	47,598
677,80	47,038
677,99	46,796
678,18	48,428
678,36	48,865
678,55	44,003
678,73	48,453
678,92	49,771
679,10	48,437
679,29	47,037
679,48	44,297
679,66	46,841
679,85	46,871
680,03	45,706
680,22	46,799
680,40	47,088
680,59	46,238
680,77	46,728
680,96	47,284
681,15	45,859
681,33	49,510
681,52	45,528
681,70	46,613
681,89	48,854
682,07	49,460
682,26	45,974
682,44	47,532
682,63	48,754
682,81	47,296
683,00	47,773
683,18	46,423
683,37	48,123
683,55	45,175
683,74	48,066
683,92	53,310
684,11	48,486
684,29	47,330
684,48	46,072
684,67	47,763
684,85	47,958
685,04	48,313
685,22	45,800
685,41	46,465
685,59	50,232
685,78	46,702
685,96	47,298
686,15	46,658
686,33	45,792
686,52	46,966
686,70	46,604
686,89	48,385
687,07	48,536
687,26	49,885
687,44	48,948
687,62	46,215
687,81	47,802
687,99	49,350
688,18	48,148
688,36	48,628
688,55	49,184
688,73	48,585
688,92	45,061
689,10	47,183
689,29	47,870
689,47	51,088
689,66	46,924
689,84	46,965
690,03	48,920
690,21	47,265
690,40	48,192
690,58	47,202
690,76	45,602
690,95	47,494
691,13	46,077
691,32	45,672
691,50	49,816
691,69	50,107
691,87	45,901
692,06	46,497
692,24	46,326
692,43	48,188
692,61	44,581
692,79	46,070
692,98	45,966
693,16	48,627
693,35	45,792
693,53	47,950
693,72	49,466
693,90	48,345
694,08	45,074
694,27	46,379
694,45	51,151
694,64	50,487
694,82	47,804
695,01	45,976
695,19	47,758
695,37	49,670
695,56	47,020
695,74	46,559
695,93	47,570
696,11	46,787
696,29	48,650
696,48	47,362
696,66	48,325
696,85	46,586
697,03	44,461
697,21	48,893
697,40	48,009
697,58	49,212
697,77	46,528
697,95	48,462
698,13	48,560
698,32	48,532
698,50	47,576
698,69	46,563
698,87	48,852
699,05	48,916
699,24	46,452
699,42	47,231
699,60	43,888
699,79	48,217
699,97	47,426
700,16	45,028
700,34	48,613
700,52	46,348
700,71	46,439
700,89	46,053
701,07	47,304
701,26	47,808
701,44	46,292
701,63	47,053
701,81	48,691
701,99	48,951
702,18	45,910
702,36	45,359
702,54	48,987
702,73	45,873
702,91	47,230
703,09	46,269
703,28	46,676
703,46	49,225
703,64	46,584
703,83	47,617
704,01	47,829
704,19	46,814
704,38	46,180
704,56	47,451
704,74	49,421
704,93	47,362
705,11	48,711
705,29	46,341
705,48	53,725
705,66	48,342
705,84	47,002
706,03	44,287
706,21	46,268
706,39	47,604
706,58	44,863
706,76	47,076
706,94	49,178
707,12	47,319
707,31	46,042
707,49	45,444
707,67	46,693
707,86	48,442
708,04	48,008
708,22	47,509
708,41	47,441
708,59	47,506
708,77	43,819
708,95	46,618
709,14	50,133
709,32	48,323
709,50	45,691
709,69	46,512
709,87	48,154
710,05	48,194
710,23	46,434
710,42	44,937
710,60	47,512
710,78	48,678
710,97	47,200
711,15	47,378
711,33	46,724
711,51	44,966
711,70	45,624
711,88	45,187
712,06	49,769
712,24	47,392
712,43	47,798
712,61	46,848
712,79	48,637
712,97	45,651
713,16	47,598
713,34	46,762
713,52	46,659
713,70	47,496
713,89	46,035
714,07	46,694
714,25	47,255
714,43	50,036
714,62	45,181
714,80	47,600
714,98	44,680
715,16	47,670
715,35	47,062
715,53	45,878
715,71	50,774
715,89	50,341
716,07	48,167
716,26	49,970
716,44	48,192
716,62	48,179
716,80	47,565
716,99	45,839
717,17	48,212
717,35	48,232
717,53	46,629
717,71	46,217
717,90	48,431
718,08	46,330
718,26	44,915
718,44	47,247
718,62	48,108
718,81	47,541
718,99	45,319
719,17	47,025
719,35	45,649
719,53	46,111
719,72	45,692
719,90	48,456
720,08	45,757
720,26	48,629
720,44	45,315
720,62	45,325
720,81	48,885
720,99	51,325
721,17	45,836
721,35	48,016
721,53	47,818
721,72	48,947
721,90	48,318
722,08	47,393
722,26	49,856
722,44	46,199
722,62	46,786
722,81	46,383
722,99	47,890
723,17	46,458
723,35	48,090
723,53	46,893
723,71	48,765
723,89	52,537
724,08	43,410
724,26	47,127
724,44	47,766
724,62	48,417
724,80	47,380
724,98	49,050
725,16	52,550
725,35	47,935
725,53	46,259
725,71	46,057
725,89	46,902
726,07	52,221
726,25	49,361
726,43	47,613
726,61	48,877
726,80	49,219
726,98	45,246
727,16	46,956
727,34	49,690
727,52	47,628
727,70	45,493
727,88	46,332
728,06	44,778
728,25	46,240
728,43	46,372
728,61	46,448
728,79	47,516
728,97	49,043
729,15	47,525
729,33	45,647
729,51	48,920
729,69	47,426
729,87	47,433
730,06	46,108
730,24	48,323
730,42	51,045
730,60	44,437
730,78	47,059
730,96	45,922
731,14	47,616
731,32	47,903
731,50	45,160
731,68	46,681
731,86	47,995
732,04	47,221
732,22	46,702
732,41	51,722
732,59	46,722
732,77	48,433
732,95	49,773
733,13	46,352
733,31	48,026
733,49	46,977
733,67	47,713
733,85	49,146
734,03	47,558
734,21	46,459
734,39	47,433
734,57	49,182
734,75	49,479
734,93	45,223
735,11	45,532
735,29	44,437
735,47	49,550
735,65	46,904
735,84	45,995
736,02	46,730
736,20	51,575
736,38	47,413
736,56	47,356
736,74	45,530
736,92	46,806
737,10	48,154
737,28	45,572
737,46	49,269
737,64	47,788
737,82	48,269
738,00	48,995
738,18	48,493
738,36	48,012
738,54	45,147
738,72	45,232
738,90	48,210
739,08	47,904
739,26	43,268
739,44	42,662
739,62	47,128
739,80	48,164
739,98	47,957
740,16	45,699
740,34	47,086
740,52	50,605
740,70	45,545
740,88	44,039
741,06	45,606
741,24	47,220
741,42	48,436
741,60	44,828
741,78	48,397
741,96	47,360
742,14	47,666
742,32	46,545
742,50	47,587
742,68	47,911
742,86	49,327
743,04	44,941
743,21	49,753
743,39	47,740
743,57	46,550
743,75	47,666
743,93	46,071
744,11	44,725
744,29	44,155
744,47	46,647
744,65	47,590
744,83	47,830
745,01	47,188
745,19	47,131
745,37	51,381
745,55	48,571
745,73	48,785
745,91	43,512
746,09	45,650
746,27	47,725
746,45	43,630
746,62	47,335
746,80	47,500
746,98	47,267
747,16	45,903
747,34	46,684
747,52	48,579
747,70	48,376
747,88	46,099
748,06	46,853
748,24	47,930
748,42	49,692
748,60	47,404
748,78	47,445
748,95	50,757
749,13	52,415
749,31	45,995
749,49	46,099
749,67	48,980
749,85	50,739
750,03	45,738
750,21	47,960
750,39	48,599
750,57	49,975
750,74	48,649
750,92	45,055
751,10	47,762
751,28	45,617
751,46	47,406
751,64	47,896
751,82	49,280
752,00	47,596
752,17	47,441
752,35	45,011
752,53	48,321
752,71	46,729
752,89	46,753
753,07	45,959
753,25	48,469
753,43	47,555
753,60	51,314
753,78	46,617
753,96	49,575
754,14	47,563
754,32	47,383
754,50	48,551
754,68	49,640
754,85	47,589
755,03	46,238
755,21	46,594
755,39	49,850
755,57	48,402
755,75	45,982
755,92	45,688
756,10	49,590
756,28	48,655
756,46	47,028
756,64	46,407
756,82	48,701
756,99	48,030
757,17	46,006
757,35	45,777
757,53	49,433
757,71	51,208
757,89	46,876
758,06	46,385
758,24	49,264
758,42	48,747
758,60	45,960
758,78	47,493
758,95	49,504
759,13	46,812
759,31	47,055
759,49	47,014
759,67	47,597
759,84	47,170
760,02	47,261
760,20	46,677
760,38	48,727
760,56	46,337
760,73	47,968
760,91	48,277
761,09	50,201
761,27	46,112
761,45	45,090
761,62	46,959
761,80	49,344
761,98	47,211
762,16	46,717
762,33	46,515
762,51	49,115
762,69	47,975
762,87	44,243
763,05	48,072
763,22	47,879
763,40	46,291
763,58	45,517
763,76	48,468
763,93	49,918
764,11	51,293
764,29	47,080
764,47	48,526
764,64	51,576
764,82	48,547
765,00	45,750
765,18	45,044
765,35	47,163
765,53	46,353
765,71	48,320
765,89	45,022
766,06	45,901
766,24	47,303
766,42	47,759
766,60	45,549
766,77	47,872
766,95	48,148
767,13	47,564
767,30	46,411
767,48	45,289
767,66	47,662
767,84	46,198
768,01	47,646
768,19	48,739
768,37	48,716
768,54	46,593
768,72	47,301
768,90	47,696
769,08	49,506
769,25	47,509
769,43	45,309
769,61	44,232
769,78	48,713
769,96	46,792
770,14	49,607
770,31	49,523
770,49	46,465
770,67	46,674
770,85	46,523
771,02	48,943
771,20	46,410
771,38	47,159
771,55	47,611
771,73	48,528
771,91	49,367
772,08	48,437
772,26	46,979
772,44	46,400
772,61	48,431
772,79	46,471
772,97	45,463
773,14	46,817
773,32	48,627
773,50	48,137
773,67	48,844
773,85	51,169
774,03	52,255
774,20	49,037
774,38	47,802
774,56	49,540
774,73	45,769
774,91	47,802
775,09	49,023
775,26	50,208
775,44	48,224
775,61	47,529
775,79	48,889
775,97	48,473
776,14	49,654
776,32	47,920
776,50	44,712
776,67	48,981
776,85	48,018
777,03	47,336
777,20	48,503
777,38	50,159
777,55	49,979
777,73	44,863
777,91	44,813
778,08	46,910
778,26	47,025
778,43	48,291
778,61	45,243
778,79	46,039
778,96	44,620
779,14	48,243
779,32	45,568
779,49	46,949
779,67	51,185
779,84	47,599
780,02	48,945
780,20	43,253
780,37	49,508
780,55	40,445
780,72	48,797
780,90	48,325
781,07	49,439
781,25	46,334
781,43	50,333
781,60	48,024
781,78	49,798
781,95	48,629
782,13	49,354
782,30	51,092
782,48	48,221
782,66	45,847
782,83	47,299
783,01	54,521
783,18	48,232
783,36	47,937
783,53	50,443
783,71	46,343
783,89	48,812
784,06	48,971
784,24	47,037
784,41	49,877
784,59	46,368
784,76	49,616
784,94	46,233
785,11	48,454
785,29	46,254
785,46	47,848
785,64	47,948
785,82	49,442
785,99	50,202
786,17	47,060
786,34	49,197
786,52	50,912
786,69	50,409
786,87	48,384
787,04	47,992
787,22	46,130
787,39	49,614
787,57	50,136
787,74	48,169
787,92	52,632
788,09	51,696
788,27	45,745
788,44	46,521
788,62	51,053
788,79	50,357
788,97	49,155
789,14	45,523
789,32	47,963
789,49	47,818
789,67	46,620
789,84	48,958
790,02	50,831
790,19	48,012
790,37	48,144
790,54	49,170
790,72	54,429
790,89	52,733
791,07	50,047
791,24	46,390
791,42	52,934
791,59	53,553
791,77	47,177
791,94	44,154
792,12	47,206
792,29	51,179
792,47	49,251
792,64	54,115
792,81	49,625
792,99	46,953
793,16	49,177
793,34	51,610
793,51	51,392
793,69	49,462
793,86	45,284
794,04	48,508
794,21	50,965
794,39	45,310
794,56	46,990
794,73	47,345
794,91	51,997
795,08	48,504
795,26	49,748
795,43	48,256
795,61	49,761
795,78	49,205
795,95	48,017
796,13	50,561
796,30	51,229
796,48	48,960
796,65	47,611
796,83	46,529
797,00	53,111
797,17	48,024
797,35	50,069
797,52	47,854
797,70	50,726
797,87	51,105
798,04	48,207
798,22	48,230
798,39	50,863
798,57	49,105
798,74	50,831
798,91	45,931
799,09	51,732
799,26	51,102
799,44	47,928
799,61	47,134
799,78	48,502
799,96	53,928
800,13	47,442
800,31	49,450
800,48	54,732
800,65	56,191
800,83	46,493
801,00	48,448
801,17	50,998
801,35	54,059
801,52	49,656
801,70	49,788
801,87	49,519
802,04	52,289
802,22	48,823
802,39	47,490
802,56	56,958
802,74	54,229
802,91	49,246
803,08	46,086
803,26	52,629
803,43	53,333
803,61	49,634
803,78	49,263
803,95	54,328
804,13	52,566
804,30	49,532
804,47	48,278
804,65	48,867
804,82	51,557
804,99	48,353
805,17	49,133
805,34	55,370
805,51	54,873
805,69	47,318
805,86	50,503
806,03	57,338
806,21	52,696
806,38	49,492
806,55	52,112
806,72	54,264
806,90	56,831
807,07	48,295
807,24	47,276
807,42	49,840
807,59	50,258
807,76	44,135
807,94	50,332
808,11	53,060
808,28	55,292
808,45	48,733
808,63	49,075
808,80	55,431
808,97	48,409
809,15	46,035
809,32	51,060
809,49	50,193
809,67	52,435
809,84	55,390
810,01	52,297
810,18	60,285
810,36	55,946
810,53	52,038
810,70	45,658
810,87	54,861
811,05	48,171
811,22	54,925
811,39	51,396
811,57	54,518
811,74	54,279
811,91	44,673
812,08	49,417
812,26	50,382
812,43	48,539
812,60	51,809
812,77	48,661
812,95	54,756
813,12	54,119
813,29	46,445
813,46	48,944
813,64	54,472
813,81	57,107
813,98	47,694
814,15	55,938
814,32	57,215
814,50	54,310
814,67	52,749
814,84	52,812
815,01	54,510
815,19	43,648
815,36	42,764
815,53	52,586
815,70	49,267
815,87	51,461
816,05	41,060
816,22	51,308
816,39	56,181
816,56	57,734
816,74	52,605
816,91	51,023
817,08	59,786
817,25	54,968
817,42	47,651
817,60	51,365
817,77	46,664
817,94	51,072
818,11	51,912
818,28	53,130
818,45	48,687
818,63	53,694
818,80	51,868
818,97	50,873
819,14	58,946
819,31	61,993
819,49	54,585
819,66	50,237
819,83	52,389
820,00	57,906
820,17	50,106
820,34	53,090
820,52	57,506
820,69	54,943
820,86	50,176
821,03	52,494
821,20	54,943
821,37	56,043
821,55	42,220
821,72	49,312
821,89	55,541
822,06	61,689
822,23	49,158
822,40	46,523
822,57	60,548
822,75	59,566
822,92	45,685
823,09	51,129
823,26	61,975
823,43	58,393
823,60	49,132
823,77	53,266
823,94	60,579
824,12	60,339
824,29	50,745
824,46	48,254
824,63	63,228
824,80	57,047
824,97	52,403
825,14	48,638
825,31	58,103
825,49	54,845
825,66	49,238
825,83	54,395
826,00	52,341
826,17	60,621
826,34	57,046
826,51	44,617
826,68	55,055
826,85	54,793
827,02	50,197
827,20	47,946
827,37	58,060
827,54	60,616
827,71	52,890
827,88	58,122
828,05	53,776
828,22	54,597
828,39	57,644
828,56	56,855
828,73	54,409
828,90	57,041
829,07	47,327
829,25	55,761
829,42	51,356
829,59	50,054
829,76	50,514
829,93	48,030
830,10	52,807
830,27	52,937
830,44	57,710
830,61	51,873
830,78	68,375
830,95	55,870
831,12	46,412
831,29	52,911
831,46	48,055
831,63	47,842
831,80	52,885
831,97	55,395
832,14	61,553
832,31	67,496
832,48	54,043
832,65	59,762
832,83	53,888
833,00	58,191
833,17	50,123
833,34	56,413
833,51	61,568
833,68	65,640
833,85	60,569
834,02	50,430
834,19	59,969
834,36	66,200
834,53	44,802
834,70	58,248
834,87	69,327
835,04	57,206
835,21	54,408
835,38	47,756
835,55	58,608
835,72	72,345
835,89	50,120
836,06	53,421
836,23	71,134
836,40	52,138
836,57	52,264
836,74	57,717
836,91	61,668
837,08	67,278
837,25	57,981
837,42	44,883
837,59	50,972
837,76	61,798
837,93	52,276
838,09	40,387
838,26	61,318
838,43	67,943
838,60	50,384
838,77	51,351
838,94	61,523
839,11	49,857
839,28	52,487
839,45	53,355
839,62	59,885
839,79	60,480
839,96	59,946
840,13	60,414
840,30	48,732
840,47	49,830
840,64	53,756
840,81	52,791
840,98	55,719
841,15	62,353
841,32	46,130
841,48	60,189
841,65	57,104
841,82	61,476
841,99	54,091
842,16	54,027
842,33	60,720
842,50	53,364
842,67	49,342
842,84	54,043
843,01	58,832
843,18	59,168
843,35	54,030
843,52	47,402
843,68	65,944
843,85	61,694
844,02	54,317
844,19	44,530
844,36	66,598
844,53	64,201
844,70	55,419
844,87	63,877
845,04	62,006
845,21	47,851
845,37	60,889
845,54	48,804
845,71	62,440
845,88	84,491
846,05	52,325
846,22	39,120
846,39	60,841
846,56	66,970
846,72	49,540
846,89	57,919
847,06	74,679
847,23	65,946
847,40	50,970
847,57	45,955
847,74	62,266
847,90	71,710
848,07	58,657
848,24	55,414
848,41	63,132
848,58	80,428
848,75	58,918
848,92	52,319
849,08	62,156
849,25	62,039
849,42	44,813
849,59	57,939
849,76	47,936
849,93	60,379
850,09	59,553
850,26	46,730
850,43	68,026
850,60	57,706
850,77	50,185
850,94	55,824
851,10	57,259
851,27	55,865
851,44	47,384
851,61	50,398
851,78	73,083
851,95	68,409
852,11	50,047
852,28	47,051
852,45	74,324
852,62	71,632
852,79	53,286
852,95	55,933
853,12	73,011
853,29	54,054
853,46	55,649
853,63	64,091
853,79	51,973
853,96	54,931
854,13	66,232
854,30	59,914
854,46	88,197
854,63	57,207
854,80	57,941
854,97	50,776
855,14	82,130
855,30	70,557
855,47	44,919
855,64	61,031
855,81	63,874
855,97	77,831
856,14	61,931
856,31	48,661
856,48	76,639
856,65	83,178
856,81	61,357
856,98	53,579
857,15	49,352
857,32	70,325
857,48	50,582
857,65	73,093
857,82	72,521
857,99	77,918
858,15	59,329
858,32	54,125
858,49	66,405
858,65	91,352
858,82	79,214
858,99	53,167
859,16	73,460
859,32	71,246
859,49	62,010
859,66	56,727
859,83	64,075
859,99	67,466
860,16	57,068
860,33	56,585
860,49	68,283
860,66	74,231
860,83	64,089
861,00	57,996
861,16	83,397
861,33	68,937
861,50	45,431
861,66	57,399
861,83	91,058
862,00	56,026
862,16	73,111
862,33	63,116
862,50	108,577
862,67	70,686
862,83	53,745
863,00	69,660
863,17	103,889
863,33	81,838
863,50	29,937
863,67	62,202
863,83	84,384
864,00	85,883
864,17	38,924
864,33	57,337
864,50	65,651
864,67	64,679
864,83	60,336
865,00	52,207
865,17	55,899
865,33	87,068
865,50	46,769
865,67	36,946
865,83	86,803
866,00	108,000
866,17	68,554
866,33	83,278
866,50	87,019
866,66	87,764
866,83	58,518
867,00	100,266
867,16	102,739
867,33	108,834
867,50	28,181
867,66	48,205
867,83	92,300
868,00	90,982
868,16	62,334
868,33	49,078
868,49	69,234
868,66	93,787
868,83	54,477
868,99	80,599
869,16	86,003
869,32	103,630
869,49	81,030
869,66	45,308
869,82	105,320
869,99	91,827
870,15	51,793
870,32	83,994
870,49	109,166
870,65	131,172
870,82	77,958
870,98	71,222
871,15	116,589
871,32	95,131
871,48	33,947
871,65	61,023
871,81	71,919
871,98	54,054
872,15	35,422
872,31	41,928
872,48	117,593
872,64	90,158
872,81	25,741
872,97	55,253
873,14	116,720
873,31	88,786
873,47	79,234
873,64	79,566
873,80	142,503
873,97	144,048
874,13	78,977
874,30	82,928
874,46	113,308
874,63	80,249
874,80	60,626
874,96	49,140
875,13	123,236
875,29	79,038
875,46	129,489
875,62	6,512
875,79	132,652
875,95	105,194
876,12	76,750
876,28	48,111
876,45	140,344
876,61	82,737
876,78	48,814
876,94	60,161
877,11	120,645
877,27	107,709
877,44	58,313
877,60	80,211
877,77	130,995
877,94	130,178
878,10	72,215
878,27	75,615
878,43	159,419
878,60	73,559
878,76	51,459
878,93	52,290
879,09	120,894
879,26	149,098
879,42	74,795
879,58	106,478
879,75	147,743
879,91	141,528
880,08	-19,049
880,24	77,990
880,41	114,381
880,57	110,168
880,74	48,647
880,90	40,764
881,07	71,277
881,23	179,450
881,40	68,953
881,56	99,821
881,73	156,653
881,89	137,876
882,06	6,802
882,22	195,716
882,38	188,112
882,55	230,825
882,71	30,838
882,88	56,086
883,04	244,112
883,21	249,041
883,37	93,348
883,54	110,476
883,70	301,098
883,86	180,086
884,03	72,192
884,19	60,141
884,36	166,608
884,52	341,034
884,69	137,035
884,85	98,658
885,01	204,976
885,18	169,250
885,34	241,444
885,51	12,401
885,67	124,833
>>>>> Data<<<<< Espectral Procesado Extremo
