Fichero De Datos De SpectraSuite
++++++++++++++++++++++++++++++++++++
Fecha: Wed Apr 22 13:10:22 CEST 2009
Usuario: evoflor
Presente Oscuro Del Espectro: Sí
La Referencia de Presente Del Espectro De: Sí
Muestreados de los componentes de Número de espectros: 1
Espectrómetros: USB4F02353
Tiempo de integración (usec): 500000 (USB4F02353)
Promedio de Espectros Hechos un: 5 (USB4F02353)
El Alisar Del Furgón: 0 (USB4F02353)
Párrafo de de Corregir del la del del de Eléctrica del obscuridad: Sí (USB4F02353)
Estrobo/Lámpara Permitido: No (USB4F02353)
Correct for Detector Non-linearity: No (USB4F02353)
Párrafo de de Corregir del la del del de Externa del luz: No (USB4F02353)
Procesado del espectro de Número de pixeles en: 3648
>>>>> Comienza Data<<<<< Espectral Procesado Del EL
177,79	354,912
178,00	354,912
178,22	354,912
178,44	1705,275
178,66	-459,363
178,88	376,482
179,09	-140,085
179,31	154,296
179,53	801,300
179,75	383,795
179,96	229,483
180,18	-704,985
180,40	603,567
180,62	216,233
180,83	-83,388
181,05	-2124,634
181,27	-126520,000
181,49	-104,826
181,70	216,615
181,92	413,807
182,14	676,566
182,36	-0,994
182,58	-419,200
182,79	998,750
183,01	-159,225
183,23	203,739
183,45	-203,754
183,66	164,956
183,88	924,235
184,10	-3511,273
184,32	77,030
184,53	210,145
184,75	-438,855
184,97	47,496
185,18	-210,752
185,40	-846,250
185,62	198,898
185,84	-51,921
186,05	259,809
186,27	-110,506
186,49	5835,385
186,71	131,033
186,92	170,399
187,14	-216,023
187,36	136,293
187,58	18,845
187,79	-107,477
188,01	408,377
188,23	-471,932
188,45	145,305
188,66	287,589
188,88	-2807,636
189,10	-1562,200
189,31	-50,034
189,53	124,124
189,75	510,500
189,97	254,692
190,18	276,481
190,40	474,235
190,62	-144,131
190,83	-422,996
191,05	103,847
191,27	340,914
191,49	364,406
191,70	-681,827
191,92	-667,966
192,14	-111,563
192,35	686,525
192,57	4026,286
192,79	112,891
193,01	197,553
193,22	87,323
193,44	-308,055
193,66	126,130
193,87	136,017
194,09	-146,485
194,31	141,207
194,53	758,881
194,74	217,129
194,96	5,269
195,18	171,928
195,39	-421,689
195,61	-158,183
195,83	-349,391
196,04	109,401
196,26	-445,829
196,48	2,718
196,70	468,032
196,91	189,472
197,13	124,354
197,35	-103,845
197,56	806,873
197,78	2139,701
198,00	551,189
198,21	727,767
198,43	-1337,326
198,65	138,027
198,86	205,827
199,08	-39,607
199,30	381,822
199,51	-324,169
199,73	260,086
199,95	393,366
200,16	368,923
200,38	360,782
200,60	131,698
200,81	378,844
201,03	248,424
201,25	-1904,200
201,46	181,385
201,68	66,654
201,90	3550,455
202,11	-390,153
202,33	201,293
202,55	951,500
202,76	-97,391
202,98	246,411
203,20	-179,904
203,41	-244,316
203,63	185,227
203,85	-182320,000
204,06	166,172
204,28	-98,843
204,50	184,898
204,71	438,198
204,93	-435,040
205,15	69,337
205,36	-340,000
205,58	410,403
205,80	-126,512
206,01	111,222
206,23	123,772
206,45	287,843
206,66	119,044
206,88	41,479
207,10	265,045
207,31	361,881
207,53	40,057
207,75	39,378
207,96	1105,373
208,18	-295,768
208,39	73,876
208,61	4514,857
208,83	-492,692
209,04	290,193
209,26	39,078
209,48	208,588
209,69	253,419
209,91	865,270
210,13	70,437
210,34	151,622
210,56	239,880
210,77	-1697,795
210,99	125,641
211,21	8342,353
211,42	-203,095
211,64	-56,854
211,86	221,800
212,07	230,954
212,29	330,533
212,50	177,392
212,72	112,769
212,94	62,715
213,15	181,874
213,37	149,003
213,58	-59,024
213,80	-4004,286
214,02	11518,824
214,23	355,693
214,45	488,590
214,67	-94,146
214,88	-47,047
215,10	-303,556
215,31	-106,943
215,53	-176,773
215,75	423,513
215,96	1942,981
216,18	1059,437
216,39	199,750
216,61	429,520
216,83	681,339
217,04	2928,315
217,26	21,161
217,47	202,736
217,69	360,979
217,91	47,371
218,12	-86920,000
218,34	105,872
218,55	581,485
218,77	34,220
218,99	98,818
219,20	-231,711
219,42	435,701
219,63	-64,435
219,85	-219,168
220,06	-84,538
220,28	276,173
220,50	167,914
220,71	83,911
220,93	4306,038
221,14	-2687,200
221,36	85,048
221,58	-53,309
221,79	236,610
222,01	1827,759
222,22	1163,947
222,44	-155,955
222,65	125,940
222,87	588,951
223,09	135,235
223,30	78,645
223,52	176,117
223,73	155,794
223,95	61,577
224,16	125,402
224,38	378,720
224,60	121,477
224,81	212,111
225,03	104,648
225,24	207,643
225,46	98,040
225,67	12,302
225,89	44,267
226,10	513,916
226,32	666,560
226,54	-48,880
226,75	37,752
226,97	157,167
227,18	188,896
227,40	77,009
227,61	53,391
227,83	73,213
228,04	212,548
228,26	14,503
228,47	60,784
228,69	226,989
228,91	212,334
229,12	107,547
229,34	35,554
229,55	83,593
229,77	36,114
229,98	-4,091
230,20	31,387
230,41	46,208
230,63	100,889
230,84	77,296
231,06	23,536
231,27	14,557
231,49	43,137
231,71	48,292
231,92	44,865
232,14	14,824
232,35	120,854
232,57	49,008
232,78	10,922
233,00	68,106
233,21	44,402
233,43	10,956
233,64	-0,355
233,86	64,381
234,07	56,271
234,29	11,465
234,50	4,108
234,72	58,253
234,93	22,506
235,15	30,364
235,36	20,464
235,58	30,844
235,79	51,224
236,01	16,771
236,22	20,383
236,44	57,566
236,65	46,989
236,87	26,132
237,08	13,227
237,30	-12,998
237,51	43,184
237,73	-18,913
237,94	13,964
238,16	16,657
238,37	16,788
238,59	12,714
238,80	20,230
239,02	4,521
239,23	22,579
239,45	-11,531
239,66	17,944
239,88	46,728
240,09	20,359
240,31	-3,354
240,52	7,432
240,74	21,038
240,95	13,137
241,17	11,527
241,38	6,421
241,60	20,455
241,81	37,357
242,03	3,761
242,24	10,756
242,46	21,457
242,67	6,875
242,89	9,233
243,10	17,823
243,32	21,258
243,53	19,586
243,75	7,538
243,96	6,061
244,18	19,185
244,39	14,790
244,60	7,674
244,82	4,002
245,03	24,816
245,25	12,876
245,46	23,518
245,68	3,109
245,89	24,884
246,11	13,069
246,32	9,449
246,54	2,710
246,75	9,448
246,97	9,917
247,18	21,997
247,39	1,490
247,61	10,966
247,82	13,679
248,04	6,523
248,25	10,687
248,47	18,756
248,68	13,362
248,90	0,747
249,11	1,826
249,33	22,305
249,54	13,091
249,75	10,397
249,97	3,058
250,18	13,125
250,40	22,059
250,61	-1,795
250,83	4,722
251,04	1,763
251,25	13,228
251,47	1,136
251,68	8,101
251,90	11,248
252,11	13,091
252,33	7,157
252,54	3,818
252,76	8,184
252,97	8,647
253,18	3,332
253,40	7,590
253,61	0,883
253,83	14,598
254,04	9,015
254,25	5,182
254,47	3,762
254,68	9,602
254,90	5,485
255,11	9,982
255,33	12,767
255,54	7,395
255,75	5,574
255,97	2,240
256,18	-0,503
256,40	10,474
256,61	5,004
256,82	-0,249
257,04	12,235
257,25	2,423
257,47	9,242
257,68	2,337
257,89	13,704
258,11	11,320
258,32	7,006
258,54	7,021
258,75	9,629
258,96	15,045
259,18	7,137
259,39	1,872
259,61	10,087
259,82	7,364
260,03	2,916
260,25	5,406
260,46	6,248
260,68	10,408
260,89	3,823
261,10	7,392
261,32	5,024
261,53	2,638
261,75	10,531
261,96	2,145
262,17	9,809
262,39	11,433
262,60	5,068
262,81	-0,682
263,03	5,200
263,24	6,908
263,46	3,181
263,67	-1,508
263,88	9,464
264,10	9,427
264,31	3,881
264,52	7,554
264,74	13,997
264,95	4,195
265,17	6,345
265,38	5,669
265,59	10,260
265,81	10,907
266,02	1,019
266,23	1,480
266,45	12,778
266,66	8,592
266,87	9,002
267,09	2,131
267,30	10,201
267,52	13,091
267,73	5,807
267,94	6,490
268,16	5,395
268,37	5,919
268,58	10,337
268,80	3,517
269,01	8,630
269,22	10,153
269,44	6,749
269,65	6,191
269,86	5,536
270,08	10,197
270,29	2,785
270,50	4,301
270,72	12,126
270,93	2,858
271,14	-0,162
271,36	7,982
271,57	10,467
271,78	5,152
272,00	6,758
272,21	7,691
272,42	7,320
272,64	9,497
272,85	1,378
273,06	5,580
273,28	8,310
273,49	8,345
273,70	9,294
273,92	8,210
274,13	8,725
274,34	3,056
274,56	4,300
274,77	2,584
274,98	8,060
275,20	10,431
275,41	6,966
275,62	3,357
275,84	5,108
276,05	13,751
276,26	3,406
276,47	0,445
276,69	8,988
276,90	5,402
277,11	4,681
277,33	4,009
277,54	7,678
277,75	5,963
277,97	1,838
278,18	1,386
278,39	11,300
278,61	4,944
278,82	5,816
279,03	8,818
279,24	5,788
279,46	6,469
279,67	8,910
279,88	5,370
280,10	11,714
280,31	3,581
280,52	9,216
280,73	0,645
280,95	8,766
281,16	8,087
281,37	5,606
281,59	7,938
281,80	10,327
282,01	5,780
282,22	2,292
282,44	2,012
282,65	15,973
282,86	8,277
283,08	1,204
283,29	4,235
283,50	7,139
283,71	8,606
283,93	5,453
284,14	6,426
284,35	5,471
284,56	6,270
284,78	0,476
284,99	6,173
285,20	9,761
285,42	4,241
285,63	4,600
285,84	-0,936
286,05	5,190
286,27	6,540
286,48	3,319
286,69	3,057
286,90	1,528
287,12	5,120
287,33	3,242
287,54	2,301
287,75	9,374
287,97	6,663
288,18	4,053
288,39	-0,446
288,60	7,059
288,82	7,318
289,03	5,484
289,24	4,219
289,45	7,869
289,67	6,621
289,88	0,897
290,09	7,216
290,30	8,277
290,52	5,000
290,73	6,341
290,94	0,456
291,15	5,294
291,37	8,654
291,58	3,776
291,79	6,261
292,00	6,144
292,21	5,725
292,43	3,880
292,64	0,676
292,85	3,283
293,06	7,765
293,28	4,589
293,49	1,229
293,70	11,381
293,91	4,228
294,12	6,033
294,34	5,397
294,55	5,589
294,76	4,990
294,97	7,532
295,19	0,069
295,40	6,303
295,61	6,934
295,82	1,458
296,03	5,678
296,25	3,614
296,46	2,929
296,67	0,821
296,88	-0,542
297,09	5,911
297,31	3,876
297,52	3,473
297,73	2,960
297,94	6,859
298,15	8,141
298,37	4,313
298,58	8,302
298,79	5,071
299,00	2,309
299,21	3,041
299,43	3,953
299,64	9,711
299,85	6,480
300,06	3,622
300,27	2,926
300,49	8,529
300,70	5,581
300,91	4,965
301,12	2,500
301,33	8,903
301,54	5,276
301,76	6,385
301,97	3,480
302,18	3,373
302,39	9,141
302,60	12,412
302,82	4,337
303,03	9,578
303,24	6,375
303,45	7,538
303,66	7,099
303,87	3,592
304,09	7,596
304,30	2,590
304,51	2,439
304,72	4,813
304,93	7,619
305,14	5,185
305,36	0,526
305,57	3,217
305,78	6,852
305,99	3,891
306,20	4,404
306,41	3,383
306,62	2,228
306,84	3,386
307,05	-1,332
307,26	5,388
307,47	9,295
307,68	4,217
307,89	4,923
308,11	5,904
308,32	2,800
308,53	5,032
308,74	2,205
308,95	5,179
309,16	9,236
309,37	8,582
309,59	1,254
309,80	3,849
310,01	5,345
310,22	6,112
310,43	1,027
310,64	6,961
310,85	7,727
311,06	4,144
311,28	5,292
311,49	7,083
311,70	9,492
311,91	1,913
312,12	1,648
312,33	6,180
312,54	7,697
312,75	5,059
312,97	1,399
313,18	7,954
313,39	4,323
313,60	4,907
313,81	3,480
314,02	6,469
314,23	10,631
314,44	2,544
314,65	3,543
314,87	2,372
315,08	2,204
315,29	7,658
315,50	3,673
315,71	9,369
315,92	8,727
316,13	3,733
316,34	6,484
316,55	6,613
316,77	0,343
316,98	3,568
317,19	3,687
317,40	6,573
317,61	8,695
317,82	2,554
318,03	3,133
318,24	5,075
318,45	8,729
318,66	2,882
318,87	1,822
319,09	6,727
319,30	5,646
319,51	5,667
319,72	7,196
319,93	7,147
320,14	8,806
320,35	7,526
320,56	5,849
320,77	2,341
320,98	9,555
321,19	5,213
321,40	3,223
321,62	9,398
321,83	5,279
322,04	5,098
322,25	5,089
322,46	8,362
322,67	5,319
322,88	5,980
323,09	2,833
323,30	7,310
323,51	7,128
323,72	7,375
323,93	2,667
324,14	3,558
324,35	1,879
324,56	1,885
324,77	4,272
324,99	6,260
325,20	-0,947
325,41	5,638
325,62	4,200
325,83	3,429
326,04	3,082
326,25	6,331
326,46	0,366
326,67	4,303
326,88	4,366
327,09	2,792
327,30	1,521
327,51	4,408
327,72	5,548
327,93	6,343
328,14	0,761
328,35	3,466
328,56	7,518
328,77	4,241
328,98	6,654
329,19	3,195
329,40	8,248
329,61	3,745
329,82	-0,114
330,04	2,493
330,25	5,245
330,46	6,228
330,67	1,645
330,88	2,259
331,09	3,166
331,30	2,297
331,51	2,609
331,72	4,551
331,93	5,451
332,14	3,255
332,35	4,516
332,56	4,567
332,77	9,140
332,98	0,829
333,19	4,194
333,40	4,695
333,61	4,041
333,82	4,885
334,03	3,298
334,24	6,219
334,45	5,351
334,66	5,709
334,87	7,836
335,08	3,831
335,29	2,030
335,50	1,033
335,71	3,738
335,92	7,238
336,13	8,421
336,34	2,834
336,55	5,954
336,76	7,896
336,97	6,317
337,18	3,100
337,39	3,490
337,60	6,168
337,81	6,108
338,02	5,657
338,23	4,645
338,44	6,055
338,65	3,202
338,86	4,411
339,07	3,848
339,28	7,401
339,49	5,580
339,70	1,527
339,91	6,689
340,11	10,545
340,32	4,711
340,53	1,838
340,74	1,459
340,95	3,486
341,16	6,862
341,37	4,960
341,58	1,594
341,79	2,570
342,00	4,223
342,21	4,815
342,42	1,458
342,63	5,493
342,84	-1,144
343,05	6,713
343,26	6,713
343,47	6,538
343,68	1,737
343,89	3,196
344,10	3,368
344,31	5,242
344,52	3,749
344,73	3,564
344,94	5,065
345,14	5,558
345,35	7,266
345,56	2,226
345,77	2,766
345,98	4,790
346,19	3,662
346,40	3,998
346,61	2,802
346,82	6,043
347,03	6,323
347,24	7,392
347,45	1,248
347,66	10,836
347,87	5,421
348,08	8,650
348,28	1,585
348,49	7,594
348,70	8,778
348,91	5,424
349,12	2,441
349,33	13,783
349,54	6,232
349,75	7,832
349,96	4,167
350,17	5,648
350,38	3,232
350,59	6,216
350,80	7,113
351,00	6,987
351,21	8,376
351,42	3,795
351,63	-0,885
351,84	4,771
352,05	8,072
352,26	4,359
352,47	2,615
352,68	5,884
352,89	9,328
353,09	7,674
353,30	1,793
353,51	4,541
353,72	8,535
353,93	5,979
354,14	2,637
354,35	6,177
354,56	10,872
354,77	4,769
354,98	1,154
355,18	8,422
355,39	10,076
355,60	1,316
355,81	4,711
356,02	6,275
356,23	5,840
356,44	3,256
356,65	5,849
356,85	12,298
357,06	6,033
357,27	7,094
357,48	1,786
357,69	8,329
357,90	6,571
358,11	-0,622
358,32	6,640
358,52	7,472
358,73	5,335
358,94	3,189
359,15	6,215
359,36	6,486
359,57	2,354
359,78	6,104
359,98	0,618
360,19	4,325
360,40	7,185
360,61	6,829
360,82	1,548
361,03	7,644
361,24	8,713
361,44	2,619
361,65	3,832
361,86	4,685
362,07	5,305
362,28	3,500
362,49	2,969
362,70	4,816
362,90	6,829
363,11	1,589
363,32	3,161
363,53	4,973
363,74	7,853
363,95	8,096
364,15	5,556
364,36	9,719
364,57	6,528
364,78	4,297
364,99	4,881
365,20	6,595
365,40	11,194
365,61	4,991
365,82	6,397
366,03	7,201
366,24	6,148
366,45	0,887
366,65	4,900
366,86	6,749
367,07	7,182
367,28	4,007
367,49	2,452
367,69	7,728
367,90	4,081
368,11	4,285
368,32	4,927
368,53	8,006
368,73	7,698
368,94	3,498
369,15	5,018
369,36	8,850
369,57	5,178
369,78	4,514
369,98	7,341
370,19	8,485
370,40	5,596
370,61	3,001
370,82	6,431
371,02	6,917
371,23	6,678
371,44	2,954
371,65	4,733
371,85	9,307
372,06	3,706
372,27	3,158
372,48	2,605
372,69	6,868
372,89	3,147
373,10	4,469
373,31	3,482
373,52	7,294
373,73	10,765
373,93	5,394
374,14	5,186
374,35	7,466
374,56	11,305
374,76	5,571
374,97	4,212
375,18	6,964
375,39	6,732
375,60	8,967
375,80	5,273
376,01	4,362
376,22	6,549
376,43	6,005
376,63	4,823
376,84	4,332
377,05	5,643
377,26	1,841
377,46	4,018
377,67	4,188
377,88	9,009
378,09	4,742
378,29	2,360
378,50	5,771
378,71	9,026
378,92	2,522
379,12	3,138
379,33	3,874
379,54	3,474
379,75	8,049
379,95	0,360
380,16	7,366
380,37	10,293
380,58	4,077
380,78	7,679
380,99	3,541
381,20	7,106
381,41	2,721
381,61	5,608
381,82	4,800
382,03	6,950
382,24	6,010
382,44	6,005
382,65	5,225
382,86	5,720
383,06	3,599
383,27	5,598
383,48	5,006
383,69	7,033
383,89	6,310
384,10	3,029
384,31	5,480
384,51	9,506
384,72	8,179
384,93	2,748
385,14	4,306
385,34	6,820
385,55	4,733
385,76	0,887
385,96	8,508
386,17	2,989
386,38	8,403
386,59	8,192
386,79	3,430
387,00	12,001
387,21	10,033
387,41	7,496
387,62	6,492
387,83	9,684
388,03	3,745
388,24	0,719
388,45	5,096
388,66	6,139
388,86	6,261
389,07	1,035
389,28	12,720
389,48	3,686
389,69	4,431
389,90	5,984
390,10	8,039
390,31	11,937
390,52	-2,769
390,72	0,182
390,93	7,378
391,14	6,768
391,34	5,944
391,55	8,013
391,76	8,442
391,96	7,286
392,17	1,777
392,38	7,273
392,58	7,719
392,79	5,138
393,00	0,854
393,20	3,088
393,41	8,473
393,62	5,882
393,82	6,856
394,03	6,528
394,24	8,617
394,44	5,654
394,65	7,744
394,86	3,596
395,06	8,099
395,27	2,983
395,48	5,652
395,68	3,875
395,89	6,109
396,10	5,219
396,30	5,275
396,51	-1,897
396,72	5,486
396,92	3,056
397,13	5,636
397,34	2,451
397,54	5,267
397,75	1,370
397,95	-0,275
398,16	5,382
398,37	4,437
398,57	3,457
398,78	6,273
398,99	8,169
399,19	6,607
399,40	10,299
399,60	2,020
399,81	3,828
400,02	8,645
400,22	7,736
400,43	4,867
400,64	4,380
400,84	2,421
401,05	7,089
401,25	7,444
401,46	6,090
401,67	8,524
401,87	2,442
402,08	0,119
402,29	1,416
402,49	9,135
402,70	7,174
402,90	0,985
403,11	3,404
403,32	7,167
403,52	6,862
403,73	6,249
403,93	6,464
404,14	10,663
404,35	6,259
404,55	1,405
404,76	2,933
404,96	4,470
405,17	9,947
405,38	7,766
405,58	4,106
405,79	9,588
405,99	11,045
406,20	5,494
406,40	-1,669
406,61	6,556
406,82	5,904
407,02	9,263
407,23	3,915
407,43	1,778
407,64	1,251
407,85	2,617
408,05	0,653
408,26	12,331
408,46	8,279
408,67	1,369
408,87	4,012
409,08	1,007
409,29	8,417
409,49	7,855
409,70	8,209
409,90	7,091
410,11	9,193
410,31	8,328
410,52	3,229
410,72	4,049
410,93	9,882
411,14	2,900
411,34	4,718
411,55	5,770
411,75	9,855
411,96	6,481
412,16	5,979
412,37	3,071
412,57	8,925
412,78	5,230
412,99	4,912
413,19	8,897
413,40	-0,267
413,60	3,257
413,81	4,347
414,01	2,732
414,22	4,472
414,42	4,286
414,63	-0,280
414,83	7,464
415,04	9,993
415,24	6,232
415,45	4,291
415,65	3,836
415,86	7,748
416,07	3,991
416,27	4,916
416,48	10,512
416,68	9,291
416,89	0,718
417,09	7,845
417,30	6,770
417,50	2,221
417,71	9,146
417,91	7,091
418,12	4,594
418,32	4,259
418,53	5,630
418,73	4,402
418,94	4,320
419,14	10,674
419,35	-0,523
419,55	2,987
419,76	4,948
419,96	2,201
420,17	3,919
420,37	2,963
420,58	5,997
420,78	5,551
420,99	7,112
421,19	10,423
421,40	8,782
421,60	7,755
421,81	2,168
422,01	4,558
422,22	2,852
422,42	3,839
422,63	3,697
422,83	4,448
423,04	7,986
423,24	13,114
423,45	1,651
423,65	10,196
423,86	9,645
424,06	9,455
424,27	1,588
424,47	3,638
424,67	-0,167
424,88	6,219
425,08	1,997
425,29	7,892
425,49	3,418
425,70	-2,757
425,90	5,801
426,11	6,124
426,31	4,742
426,52	7,320
426,72	1,093
426,93	0,639
427,13	8,702
427,33	2,290
427,54	5,232
427,74	7,588
427,95	14,455
428,15	1,431
428,36	4,288
428,56	4,812
428,77	6,911
428,97	6,610
429,18	6,048
429,38	6,405
429,58	7,425
429,79	6,400
429,99	1,887
430,20	-0,981
430,40	10,545
430,61	3,582
430,81	1,163
431,01	7,617
431,22	10,092
431,42	8,293
431,63	2,166
431,83	4,892
432,04	10,056
432,24	11,116
432,44	4,616
432,65	4,529
432,85	7,138
433,06	8,625
433,26	3,365
433,47	3,178
433,67	8,486
433,87	6,943
434,08	2,965
434,28	6,866
434,49	4,299
434,69	10,559
434,89	2,313
435,10	4,717
435,30	9,915
435,51	4,098
435,71	4,779
435,91	3,373
436,12	6,564
436,32	4,318
436,53	7,928
436,73	2,469
436,93	6,440
437,14	4,061
437,34	6,269
437,55	4,090
437,75	5,197
437,95	9,000
438,16	4,116
438,36	2,369
438,57	3,702
438,77	3,093
438,97	6,339
439,18	8,015
439,38	4,201
439,58	2,603
439,79	3,602
439,99	5,734
440,20	11,007
440,40	10,716
440,60	6,164
440,81	8,144
441,01	12,300
441,21	8,548
441,42	6,016
441,62	5,906
441,83	3,120
442,03	4,848
442,23	3,878
442,44	5,087
442,64	9,640
442,84	3,609
443,05	8,130
443,25	3,928
443,45	2,717
443,66	5,260
443,86	2,919
444,06	6,237
444,27	6,262
444,47	8,195
444,67	1,043
444,88	7,040
445,08	5,043
445,28	6,612
445,49	0,657
445,69	1,556
445,90	8,681
446,10	6,028
446,30	8,473
446,51	5,108
446,71	8,365
446,91	9,960
447,12	8,128
447,32	4,275
447,52	6,957
447,72	4,914
447,93	3,973
448,13	-0,884
448,33	11,318
448,54	10,240
448,74	5,422
448,94	6,967
449,15	10,900
449,35	13,525
449,55	4,913
449,76	8,467
449,96	7,517
450,16	8,773
450,37	-0,373
450,57	7,118
450,77	4,036
450,98	7,824
451,18	11,639
451,38	5,356
451,58	7,100
451,79	10,790
451,99	7,141
452,19	7,116
452,40	10,301
452,60	4,203
452,80	5,584
453,00	8,153
453,21	11,093
453,41	7,515
453,61	5,557
453,82	10,200
454,02	4,064
454,22	9,052
454,42	7,934
454,63	4,676
454,83	6,284
455,03	10,517
455,24	6,528
455,44	7,754
455,64	5,903
455,84	5,310
456,05	6,074
456,25	2,962
456,45	8,923
456,65	8,238
456,86	10,778
457,06	7,866
457,26	5,439
457,47	20,486
457,67	5,322
457,87	3,658
458,07	8,919
458,28	14,366
458,48	13,615
458,68	-1,146
458,88	10,927
459,09	7,549
459,29	6,405
459,49	5,164
459,69	12,248
459,90	8,484
460,10	3,645
460,30	7,897
460,50	6,593
460,71	14,833
460,91	5,184
461,11	6,485
461,31	3,763
461,52	15,762
461,72	6,162
461,92	8,377
462,12	17,238
462,32	0,805
462,53	8,951
462,73	5,084
462,93	12,381
463,13	14,498
463,34	5,951
463,54	8,637
463,74	12,568
463,94	7,990
464,14	10,303
464,35	7,082
464,55	13,294
464,75	17,956
464,95	12,287
465,16	6,054
465,36	13,884
465,56	8,351
465,76	6,126
465,96	11,700
466,17	11,192
466,37	8,946
466,57	11,482
466,77	12,103
466,97	12,778
467,18	15,328
467,38	10,851
467,58	11,365
467,78	16,513
467,98	12,436
468,19	14,880
468,39	15,244
468,59	16,323
468,79	14,151
468,99	9,099
469,19	7,354
469,40	16,847
469,60	8,138
469,80	10,667
470,00	17,082
470,20	15,707
470,41	15,280
470,61	12,368
470,81	14,271
471,01	9,149
471,21	16,595
471,41	10,525
471,62	12,255
471,82	10,701
472,02	11,595
472,22	14,181
472,42	13,703
472,62	15,262
472,83	11,645
473,03	17,424
473,23	10,626
473,43	18,162
473,63	14,569
473,83	17,397
474,03	11,638
474,24	21,290
474,44	17,748
474,64	12,270
474,84	13,529
475,04	15,574
475,24	20,160
475,45	14,871
475,65	10,511
475,85	17,909
476,05	7,524
476,25	15,350
476,45	14,813
476,65	22,961
476,85	18,491
477,06	16,091
477,26	16,825
477,46	16,197
477,66	17,039
477,86	21,539
478,06	15,351
478,26	25,256
478,46	16,084
478,67	20,657
478,87	18,186
479,07	18,930
479,27	20,400
479,47	17,234
479,67	14,694
479,87	19,640
480,07	21,755
480,28	17,960
480,48	15,531
480,68	23,178
480,88	27,090
481,08	20,568
481,28	21,045
481,48	21,524
481,68	21,643
481,88	20,479
482,08	17,467
482,29	24,080
482,49	16,776
482,69	20,176
482,89	21,447
483,09	26,988
483,29	21,546
483,49	21,652
483,69	25,134
483,89	22,845
484,09	21,504
484,29	19,465
484,50	24,764
484,70	23,983
484,90	25,025
485,10	21,887
485,30	25,129
485,50	30,991
485,70	27,810
485,90	23,714
486,10	20,559
486,30	21,024
486,50	24,659
486,70	25,129
486,90	22,809
487,10	27,841
487,30	24,828
487,51	25,606
487,71	22,985
487,91	24,088
488,11	28,543
488,31	24,543
488,51	30,309
488,71	26,056
488,91	29,103
489,11	25,258
489,31	25,870
489,51	29,156
489,71	30,782
489,91	28,082
490,11	27,145
490,31	28,010
490,51	27,502
490,71	30,315
490,91	29,699
491,11	32,017
491,31	29,676
491,51	25,633
491,72	29,463
491,92	31,519
492,12	34,506
492,32	32,380
492,52	33,300
492,72	33,094
492,92	34,091
493,12	34,340
493,32	30,795
493,52	28,566
493,72	32,133
493,92	35,699
494,12	34,096
494,32	36,260
494,52	33,570
494,72	34,577
494,92	34,614
495,12	40,167
495,32	39,665
495,52	35,069
495,72	35,450
495,92	39,268
496,12	42,250
496,32	33,410
496,52	37,812
496,72	36,829
496,92	39,996
497,12	37,838
497,32	40,043
497,52	40,437
497,72	43,960
497,92	39,612
498,12	35,531
498,32	40,613
498,52	41,878
498,72	37,262
498,92	36,472
499,12	44,020
499,32	37,260
499,52	43,591
499,72	43,841
499,92	42,098
500,12	41,335
500,32	42,023
500,52	41,823
500,72	46,004
500,91	46,776
501,11	40,324
501,31	35,486
501,51	44,746
501,71	47,544
501,91	45,414
502,11	43,207
502,31	44,557
502,51	44,563
502,71	43,269
502,91	41,420
503,11	43,072
503,31	45,275
503,51	41,861
503,71	40,994
503,91	47,870
504,11	47,340
504,31	44,916
504,51	46,606
504,71	50,422
504,91	44,185
505,10	46,550
505,30	47,424
505,50	47,053
505,70	43,583
505,90	45,456
506,10	42,619
506,30	46,393
506,50	49,746
506,70	45,400
506,90	46,041
507,10	47,543
507,30	46,358
507,50	47,192
507,70	48,338
507,89	46,421
508,09	49,910
508,29	47,378
508,49	49,072
508,69	50,541
508,89	47,011
509,09	47,219
509,29	50,830
509,49	50,623
509,69	51,399
509,89	47,108
510,09	48,027
510,28	50,800
510,48	51,847
510,68	48,277
510,88	49,212
511,08	48,143
511,28	49,471
511,48	48,514
511,68	48,293
511,88	46,770
512,07	54,970
512,27	50,496
512,47	49,991
512,67	49,893
512,87	48,780
513,07	48,670
513,27	47,619
513,47	49,759
513,67	47,132
513,86	51,475
514,06	50,493
514,26	50,209
514,46	54,593
514,66	50,062
514,86	50,947
515,06	53,079
515,26	54,978
515,45	52,274
515,65	49,182
515,85	52,579
516,05	50,968
516,25	52,870
516,45	52,831
516,65	52,455
516,84	54,804
517,04	55,063
517,24	48,799
517,44	49,701
517,64	54,454
517,84	53,328
518,04	53,730
518,23	53,515
518,43	56,318
518,63	51,178
518,83	51,589
519,03	53,843
519,23	54,707
519,42	51,557
519,62	52,340
519,82	52,104
520,02	52,840
520,22	51,344
520,42	50,559
520,61	55,289
520,81	55,360
521,01	55,149
521,21	49,940
521,41	54,294
521,61	56,982
521,80	50,151
522,00	54,346
522,20	55,179
522,40	56,244
522,60	52,587
522,79	51,073
522,99	57,867
523,19	52,020
523,39	52,269
523,59	55,215
523,78	57,375
523,98	53,702
524,18	54,214
524,38	54,092
524,58	54,934
524,77	56,739
524,97	55,360
525,17	51,994
525,37	53,518
525,57	57,360
525,76	52,964
525,96	55,359
526,16	52,385
526,36	51,942
526,56	53,415
526,75	54,010
526,95	57,693
527,15	54,450
527,35	57,201
527,55	52,454
527,74	56,160
527,94	52,590
528,14	51,355
528,34	52,787
528,53	54,665
528,73	56,352
528,93	53,819
529,13	53,575
529,32	56,722
529,52	56,359
529,72	51,842
529,92	52,675
530,12	54,974
530,31	49,627
530,51	52,472
530,71	57,119
530,91	56,934
531,10	51,022
531,30	54,367
531,50	51,881
531,70	58,095
531,89	55,659
532,09	52,898
532,29	51,423
532,49	53,085
532,68	56,132
532,88	49,477
533,08	52,031
533,28	51,649
533,47	54,035
533,67	54,451
533,87	52,594
534,06	61,208
534,26	54,031
534,46	50,332
534,66	55,080
534,85	55,368
535,05	51,404
535,25	51,622
535,45	51,772
535,64	56,457
535,84	54,459
536,04	50,638
536,23	55,820
536,43	54,435
536,63	51,749
536,83	51,994
537,02	51,590
537,22	51,375
537,42	52,064
537,61	49,697
537,81	53,323
538,01	50,943
538,20	53,185
538,40	51,850
538,60	53,323
538,80	52,630
538,99	50,618
539,19	49,089
539,39	49,178
539,58	49,074
539,78	46,251
539,98	47,697
540,17	45,395
540,37	48,646
540,57	46,078
540,76	44,649
540,96	41,080
541,16	46,729
541,36	44,343
541,55	41,322
541,75	41,850
541,95	43,678
542,14	41,496
542,34	41,734
542,54	40,495
542,73	42,677
542,93	43,151
543,13	40,979
543,32	41,834
543,52	42,656
543,72	41,124
543,91	42,322
544,11	41,400
544,31	40,474
544,50	42,641
544,70	44,073
544,89	41,773
545,09	44,620
545,29	42,342
545,48	43,147
545,68	43,677
545,88	43,743
546,07	42,806
546,27	44,675
546,47	44,717
546,66	45,768
546,86	45,658
547,06	44,659
547,25	46,023
547,45	50,659
547,64	47,172
547,84	52,771
548,04	49,119
548,23	50,332
548,43	49,655
548,63	53,153
548,82	49,006
549,02	48,739
549,21	49,826
549,41	49,165
549,61	48,302
549,80	48,653
550,00	50,996
550,20	48,319
550,39	50,383
550,59	49,776
550,78	52,275
550,98	47,433
551,18	51,384
551,37	50,807
551,57	51,436
551,76	49,829
551,96	48,755
552,16	50,780
552,35	48,723
552,55	50,123
552,74	50,439
552,94	52,119
553,14	50,313
553,33	50,448
553,53	51,210
553,72	51,333
553,92	53,930
554,12	50,568
554,31	51,322
554,51	54,218
554,70	50,716
554,90	50,512
555,09	54,449
555,29	52,702
555,49	52,990
555,68	52,907
555,88	51,005
556,07	49,749
556,27	54,767
556,46	51,678
556,66	49,726
556,86	55,835
557,05	51,420
557,25	51,095
557,44	52,234
557,64	49,312
557,83	53,364
558,03	50,783
558,22	51,605
558,42	51,968
558,62	55,340
558,81	51,457
559,01	51,185
559,20	51,869
559,40	53,418
559,59	52,644
559,79	51,285
559,98	53,152
560,18	54,177
560,37	52,535
560,57	51,024
560,76	51,368
560,96	50,299
561,16	51,914
561,35	50,353
561,55	55,968
561,74	54,294
561,94	54,224
562,13	51,373
562,33	54,247
562,52	51,122
562,72	50,856
562,91	50,134
563,11	52,259
563,30	56,307
563,50	51,085
563,69	51,078
563,89	48,045
564,08	52,688
564,28	50,505
564,47	53,542
564,67	52,865
564,86	51,179
565,06	52,181
565,25	49,505
565,45	54,281
565,64	56,030
565,84	50,050
566,03	51,232
566,23	52,926
566,42	52,149
566,62	54,118
566,81	52,271
567,01	50,380
567,20	53,103
567,40	53,094
567,59	49,683
567,79	55,999
567,98	55,417
568,18	55,096
568,37	52,540
568,57	52,462
568,76	57,771
568,96	52,803
569,15	51,560
569,35	53,880
569,54	56,117
569,73	55,128
569,93	51,200
570,12	50,751
570,32	55,586
570,51	53,940
570,71	55,519
570,90	53,524
571,10	53,299
571,29	51,930
571,49	50,819
571,68	54,818
571,87	52,405
572,07	51,326
572,26	52,028
572,46	52,852
572,65	53,070
572,85	49,238
573,04	52,260
573,24	54,392
573,43	56,302
573,62	56,071
573,82	54,128
574,01	53,282
574,21	52,071
574,40	52,089
574,60	50,745
574,79	55,405
574,98	52,962
575,18	52,440
575,37	50,725
575,57	52,604
575,76	53,848
575,96	53,137
576,15	52,488
576,34	53,897
576,54	53,225
576,73	53,718
576,93	52,334
577,12	53,049
577,31	54,415
577,51	50,748
577,70	52,783
577,90	55,062
578,09	52,505
578,28	52,230
578,48	52,488
578,67	55,595
578,87	53,936
579,06	52,515
579,25	52,356
579,45	54,289
579,64	51,729
579,84	53,861
580,03	51,494
580,22	56,610
580,42	50,878
580,61	52,502
580,81	51,798
581,00	53,264
581,19	52,710
581,39	52,365
581,58	51,859
581,77	53,571
581,97	56,158
582,16	51,943
582,35	52,114
582,55	51,972
582,74	55,594
582,94	51,996
583,13	50,645
583,32	53,543
583,52	54,941
583,71	52,182
583,90	53,170
584,10	53,041
584,29	53,771
584,48	51,032
584,68	53,201
584,87	54,950
585,06	53,160
585,26	51,992
585,45	52,058
585,65	55,367
585,84	51,868
586,03	51,700
586,23	52,326
586,42	52,575
586,61	55,334
586,81	52,864
587,00	53,997
587,19	53,868
587,39	55,257
587,58	54,209
587,77	54,194
587,97	54,337
588,16	54,153
588,35	52,797
588,54	53,278
588,74	52,666
588,93	55,645
589,12	54,462
589,32	54,177
589,51	53,687
589,70	52,134
589,90	52,964
590,09	53,860
590,28	57,864
590,48	52,554
590,67	54,251
590,86	55,049
591,06	54,206
591,25	56,983
591,44	56,478
591,63	54,283
591,83	56,598
592,02	55,214
592,21	54,901
592,41	54,891
592,60	54,899
592,79	56,566
592,98	54,843
593,18	54,115
593,37	56,213
593,56	56,713
593,76	56,073
593,95	55,431
594,14	55,549
594,33	58,972
594,53	54,320
594,72	54,635
594,91	61,213
595,10	56,896
595,30	55,783
595,49	55,364
595,68	60,282
595,88	56,731
596,07	56,503
596,26	55,536
596,45	58,016
596,65	52,616
596,84	54,632
597,03	57,405
597,22	57,161
597,42	60,206
597,61	57,503
597,80	55,779
597,99	56,868
598,19	57,972
598,38	57,492
598,57	55,754
598,76	57,476
598,95	59,231
599,15	59,807
599,34	57,212
599,53	58,796
599,72	57,027
599,92	56,313
600,11	57,047
600,30	58,312
600,49	60,583
600,69	56,567
600,88	58,410
601,07	58,199
601,26	58,476
601,45	58,973
601,65	58,072
601,84	59,618
602,03	58,242
602,22	58,961
602,42	58,366
602,61	59,289
602,80	58,243
602,99	59,345
603,18	54,434
603,38	57,806
603,57	57,923
603,76	56,390
603,95	56,677
604,14	60,133
604,34	58,339
604,53	57,975
604,72	58,922
604,91	58,517
605,10	58,459
605,29	59,881
605,49	55,885
605,68	59,125
605,87	60,105
606,06	58,280
606,25	56,981
606,45	58,776
606,64	58,927
606,83	58,059
607,02	58,154
607,21	58,802
607,40	59,927
607,60	56,249
607,79	55,936
607,98	55,412
608,17	56,451
608,36	55,930
608,55	55,892
608,75	56,645
608,94	56,503
609,13	52,667
609,32	51,393
609,51	52,621
609,70	51,022
609,89	53,023
610,09	52,327
610,28	54,425
610,47	52,033
610,66	52,747
610,85	49,784
611,04	54,323
611,23	51,017
611,43	51,251
611,62	51,845
611,81	53,282
612,00	52,951
612,19	51,620
612,38	52,546
612,57	54,723
612,77	54,260
612,96	52,082
613,15	54,755
613,34	57,408
613,53	54,951
613,72	56,161
613,91	55,878
614,10	55,509
614,29	56,866
614,49	53,727
614,68	56,070
614,87	56,318
615,06	59,702
615,25	55,493
615,44	59,079
615,63	57,871
615,82	57,877
616,01	57,332
616,21	55,621
616,40	59,086
616,59	59,817
616,78	58,354
616,97	60,070
617,16	59,501
617,35	60,690
617,54	56,169
617,73	58,854
617,92	57,999
618,11	59,952
618,31	56,833
618,50	59,120
618,69	58,229
618,88	58,762
619,07	55,257
619,26	56,139
619,45	57,028
619,64	56,774
619,83	55,546
620,02	56,854
620,21	60,470
620,40	59,347
620,59	56,911
620,78	57,226
620,97	59,443
621,17	61,059
621,36	57,103
621,55	57,120
621,74	59,454
621,93	59,580
622,12	59,063
622,31	57,526
622,50	59,080
622,69	59,992
622,88	58,524
623,07	60,725
623,26	60,866
623,45	60,871
623,64	57,345
623,83	56,527
624,02	60,526
624,21	60,418
624,40	58,977
624,59	57,140
624,78	59,933
624,97	61,768
625,16	58,163
625,35	54,563
625,54	56,329
625,73	59,364
625,92	58,538
626,12	60,421
626,31	59,544
626,50	61,737
626,69	59,696
626,88	58,313
627,07	58,461
627,26	59,383
627,45	58,644
627,64	58,175
627,83	60,517
628,02	57,688
628,21	56,792
628,40	58,039
628,59	61,678
628,78	57,415
628,97	56,842
629,16	57,396
629,35	58,025
629,54	62,818
629,73	56,379
629,92	57,281
630,10	57,954
630,29	59,686
630,48	58,463
630,67	56,834
630,86	60,241
631,05	60,511
631,24	59,417
631,43	56,660
631,62	59,414
631,81	58,172
632,00	59,244
632,19	55,966
632,38	60,729
632,57	61,855
632,76	59,856
632,95	60,385
633,14	60,571
633,33	58,527
633,52	58,127
633,71	61,637
633,90	59,731
634,09	59,618
634,28	59,388
634,47	57,866
634,66	60,887
634,85	58,869
635,04	61,933
635,22	58,519
635,41	58,924
635,60	62,332
635,79	58,934
635,98	56,869
636,17	57,852
636,36	58,777
636,55	57,651
636,74	56,506
636,93	58,974
637,12	61,467
637,31	58,087
637,50	58,113
637,69	60,487
637,87	60,819
638,06	59,522
638,25	58,722
638,44	60,096
638,63	57,094
638,82	60,421
639,01	59,414
639,20	59,543
639,39	59,357
639,58	58,881
639,77	60,095
639,95	59,346
640,14	58,988
640,33	58,312
640,52	59,057
640,71	62,111
640,90	59,675
641,09	60,902
641,28	57,460
641,47	60,967
641,66	60,404
641,84	58,802
642,03	57,854
642,22	61,346
642,41	62,502
642,60	58,136
642,79	60,544
642,98	60,403
643,17	58,029
643,35	57,022
643,54	59,062
643,73	59,181
643,92	61,201
644,11	60,273
644,30	57,516
644,49	61,703
644,67	58,360
644,86	58,050
645,05	61,091
645,24	59,687
645,43	60,026
645,62	59,356
645,81	59,594
645,99	58,943
646,18	60,412
646,37	59,926
646,56	57,405
646,75	61,809
646,94	60,414
647,13	57,448
647,31	58,562
647,50	58,351
647,69	61,622
647,88	59,706
648,07	59,403
648,26	64,137
648,44	59,075
648,63	59,220
648,82	60,316
649,01	61,847
649,20	57,353
649,38	58,547
649,57	58,854
649,76	57,187
649,95	60,797
650,14	58,540
650,33	58,190
650,51	59,452
650,70	60,954
650,89	60,085
651,08	58,069
651,27	60,020
651,45	58,172
651,64	58,096
651,83	60,037
652,02	59,634
652,21	60,075
652,39	60,457
652,58	60,387
652,77	57,963
652,96	61,750
653,15	59,339
653,33	59,312
653,52	61,117
653,71	62,939
653,90	61,108
654,09	58,556
654,27	61,086
654,46	62,858
654,65	60,846
654,84	60,482
655,02	63,414
655,21	61,401
655,40	61,856
655,59	61,734
655,77	62,744
655,96	59,861
656,15	62,362
656,34	62,358
656,53	60,928
656,71	61,374
656,90	61,229
657,09	60,514
657,28	62,013
657,46	62,250
657,65	61,017
657,84	59,424
658,03	61,382
658,21	60,387
658,40	59,954
658,59	59,959
658,78	60,759
658,96	58,570
659,15	60,626
659,34	59,263
659,52	60,127
659,71	62,101
659,90	58,909
660,09	59,707
660,27	59,248
660,46	61,595
660,65	57,594
660,84	59,243
661,02	59,000
661,21	58,338
661,40	58,764
661,58	60,902
661,77	60,117
661,96	56,824
662,15	57,751
662,33	59,094
662,52	57,464
662,71	62,093
662,89	57,944
663,08	58,627
663,27	58,829
663,45	59,593
663,64	59,253
663,83	57,972
664,02	57,523
664,20	60,405
664,39	58,182
664,58	59,157
664,76	59,064
664,95	60,745
665,14	57,953
665,32	57,805
665,51	59,609
665,70	60,868
665,88	60,297
666,07	58,222
666,26	61,023
666,44	60,764
666,63	58,013
666,82	57,879
667,00	60,680
667,19	58,863
667,38	59,214
667,56	60,854
667,75	60,926
667,94	59,061
668,12	58,756
668,31	60,006
668,50	60,247
668,68	60,426
668,87	58,772
669,06	60,072
669,24	60,738
669,43	60,643
669,62	57,396
669,80	57,750
669,99	59,624
670,18	60,765
670,36	58,335
670,55	58,654
670,74	58,524
670,92	56,145
671,11	58,258
671,29	58,315
671,48	58,967
671,67	59,089
671,85	59,507
672,04	57,825
672,23	57,613
672,41	58,197
672,60	59,971
672,78	57,009
672,97	59,963
673,16	59,600
673,34	58,265
673,53	59,172
673,71	59,761
673,90	59,007
674,09	60,289
674,27	57,655
674,46	60,853
674,64	57,127
674,83	59,049
675,02	57,239
675,20	60,279
675,39	58,345
675,57	58,143
675,76	58,742
675,95	60,600
676,13	59,139
676,32	60,239
676,50	60,182
676,69	57,326
676,88	60,316
677,06	57,342
677,25	59,403
677,43	62,750
677,62	60,950
677,80	59,908
677,99	57,689
678,18	61,554
678,36	61,626
678,55	58,150
678,73	57,856
678,92	59,523
679,10	60,696
679,29	57,494
679,48	58,115
679,66	58,502
679,85	58,030
680,03	60,396
680,22	58,636
680,40	58,032
680,59	58,325
680,77	58,775
680,96	57,365
681,15	57,608
681,33	60,805
681,52	59,317
681,70	58,748
681,89	61,475
682,07	60,374
682,26	58,974
682,44	59,822
682,63	61,496
682,81	60,734
683,00	59,509
683,18	56,839
683,37	59,913
683,55	57,647
683,74	60,728
683,92	65,794
684,11	59,654
684,29	60,030
684,48	56,913
684,67	57,924
684,85	59,780
685,04	59,742
685,22	59,667
685,41	58,350
685,59	61,090
685,78	59,136
685,96	57,387
686,15	58,789
686,33	57,594
686,52	59,665
686,70	58,078
686,89	59,841
687,07	59,758
687,26	61,484
687,44	59,747
687,62	58,082
687,81	60,328
687,99	58,979
688,18	58,962
688,36	58,496
688,55	60,745
688,73	59,579
688,92	57,657
689,10	59,528
689,29	60,583
689,47	61,023
689,66	58,776
689,84	57,946
690,03	61,255
690,21	59,553
690,40	59,820
690,58	56,079
690,76	56,663
690,95	60,645
691,13	56,667
691,32	58,002
691,50	59,573
691,69	60,618
691,87	59,420
692,06	58,030
692,24	58,165
692,43	59,246
692,61	55,860
692,79	56,966
692,98	56,463
693,16	60,919
693,35	58,053
693,53	59,170
693,72	59,196
693,90	59,913
694,08	56,755
694,27	58,640
694,45	60,972
694,64	61,825
694,82	58,421
695,01	56,243
695,19	58,680
695,37	59,643
695,56	57,984
695,74	58,574
695,93	60,139
696,11	58,555
696,29	58,984
696,48	58,634
696,66	59,743
696,85	57,657
697,03	57,531
697,21	59,497
697,40	58,884
697,58	61,546
697,77	57,627
697,95	58,784
698,13	60,874
698,32	58,919
698,50	58,928
698,69	56,582
698,87	60,373
699,05	58,956
699,24	58,634
699,42	58,347
699,60	55,349
699,79	59,053
699,97	57,610
700,16	56,090
700,34	59,581
700,52	58,354
700,71	59,041
700,89	57,895
701,07	58,961
701,26	59,636
701,44	58,375
701,63	57,738
701,81	60,020
701,99	60,070
702,18	58,236
702,36	56,574
702,54	57,975
702,73	59,839
702,91	57,992
703,09	56,594
703,28	57,831
703,46	60,455
703,64	58,386
703,83	58,759
704,01	58,119
704,19	58,785
704,38	56,313
704,56	55,997
704,74	59,079
704,93	57,572
705,11	59,772
705,29	58,316
705,48	65,144
705,66	59,501
705,84	57,475
706,03	56,587
706,21	59,869
706,39	58,125
706,58	59,640
706,76	56,832
706,94	59,497
707,12	58,969
707,31	56,647
707,49	57,417
707,67	59,468
707,86	61,052
708,04	57,114
708,22	56,651
708,41	59,248
708,59	58,167
708,77	56,210
708,95	59,509
709,14	63,134
709,32	59,702
709,50	56,346
709,69	57,942
709,87	57,939
710,05	58,751
710,23	58,381
710,42	57,891
710,60	58,809
710,78	58,974
710,97	59,653
711,15	56,942
711,33	59,525
711,51	56,748
711,70	57,422
711,88	56,579
712,06	59,687
712,24	57,098
712,43	59,966
712,61	56,739
712,79	59,780
712,97	59,242
713,16	58,581
713,34	56,924
713,52	59,537
713,70	58,739
713,89	58,233
714,07	58,056
714,25	58,501
714,43	59,475
714,62	57,692
714,80	57,693
714,98	54,621
715,16	57,182
715,35	55,177
715,53	57,921
715,71	60,811
715,89	59,368
716,07	59,180
716,26	60,880
716,44	59,536
716,62	58,026
716,80	57,499
716,99	58,202
717,17	59,178
717,35	59,559
717,53	57,753
717,71	54,325
717,90	57,920
718,08	58,910
718,26	55,706
718,44	57,817
718,62	59,504
718,81	58,665
718,99	56,413
719,17	56,741
719,35	56,361
719,53	57,258
719,72	56,724
719,90	58,720
720,08	56,244
720,26	59,930
720,44	58,501
720,62	57,303
720,81	60,029
720,99	62,173
721,17	58,517
721,35	60,788
721,53	59,412
721,72	59,583
721,90	59,888
722,08	57,868
722,26	60,400
722,44	57,730
722,62	57,531
722,81	55,787
722,99	57,964
723,17	57,983
723,35	56,991
723,53	57,219
723,71	62,252
723,89	60,021
724,08	53,936
724,26	56,047
724,44	58,715
724,62	58,251
724,80	57,629
724,98	58,056
725,16	60,726
725,35	58,485
725,53	57,751
725,71	56,770
725,89	60,315
726,07	61,941
726,25	61,224
726,43	55,443
726,61	60,026
726,80	59,869
726,98	55,882
727,16	56,908
727,34	61,890
727,52	57,493
727,70	56,907
727,88	58,876
728,06	55,678
728,25	57,546
728,43	58,199
728,61	57,841
728,79	56,657
728,97	59,689
729,15	57,748
729,33	56,519
729,51	60,080
729,69	59,287
729,87	59,136
730,06	57,545
730,24	60,393
730,42	59,800
730,60	56,356
730,78	57,712
730,96	58,006
731,14	58,027
731,32	59,674
731,50	56,862
731,68	57,414
731,86	57,927
732,04	58,766
732,22	55,857
732,41	62,441
732,59	57,687
732,77	59,286
732,95	59,591
733,13	60,636
733,31	58,939
733,49	57,883
733,67	59,057
733,85	60,778
734,03	59,384
734,21	57,462
734,39	58,854
734,57	62,171
734,75	60,153
734,93	56,200
735,11	56,548
735,29	57,981
735,47	62,477
735,65	56,293
735,84	57,726
736,02	58,686
736,20	62,886
736,38	56,647
736,56	56,711
736,74	58,285
736,92	58,129
737,10	58,227
737,28	57,845
737,46	60,018
737,64	59,167
737,82	57,700
738,00	58,255
738,18	60,431
738,36	60,984
738,54	58,090
738,72	55,088
738,90	58,237
739,08	60,993
739,26	55,146
739,44	58,740
739,62	59,714
739,80	59,642
739,98	58,011
740,16	57,897
740,34	57,941
740,52	61,858
740,70	59,426
740,88	57,620
741,06	56,618
741,24	59,770
741,42	59,829
741,60	56,865
741,78	61,531
741,96	59,000
742,14	56,676
742,32	55,248
742,50	57,564
742,68	58,381
742,86	57,410
743,04	57,370
743,21	56,681
743,39	59,117
743,57	57,122
743,75	57,173
743,93	55,203
744,11	55,818
744,29	58,164
744,47	57,374
744,65	58,557
744,83	56,063
745,01	56,988
745,19	60,307
745,37	61,652
745,55	60,446
745,73	58,881
745,91	55,723
746,09	56,351
746,27	56,792
746,45	54,414
746,62	57,499
746,80	57,566
746,98	57,584
747,16	56,300
747,34	58,615
747,52	59,247
747,70	58,735
747,88	56,970
748,06	57,627
748,24	59,078
748,42	58,075
748,60	58,857
748,78	57,009
748,95	61,333
749,13	63,428
749,31	56,940
749,49	59,039
749,67	59,880
749,85	58,685
750,03	57,717
750,21	56,371
750,39	59,431
750,57	58,790
750,74	58,905
750,92	54,572
751,10	59,381
751,28	58,708
751,46	59,164
751,64	59,156
751,82	60,197
752,00	60,621
752,17	56,347
752,35	55,342
752,53	58,441
752,71	57,962
752,89	57,581
753,07	56,559
753,25	61,591
753,43	55,573
753,60	60,380
753,78	59,240
753,96	59,449
754,14	58,675
754,32	57,866
754,50	59,355
754,68	59,180
754,85	59,097
755,03	57,980
755,21	59,978
755,39	62,087
755,57	59,965
755,75	56,982
755,92	57,392
756,10	59,972
756,28	58,384
756,46	56,920
756,64	58,880
756,82	59,072
756,99	57,371
757,17	56,637
757,35	56,403
757,53	60,865
757,71	62,810
757,89	55,520
758,06	58,279
758,24	59,068
758,42	59,065
758,60	55,559
758,78	57,297
758,95	59,835
759,13	58,818
759,31	56,522
759,49	54,214
759,67	57,478
759,84	57,788
760,02	60,496
760,20	58,183
760,38	57,998
760,56	55,904
760,73	57,527
760,91	59,341
761,09	59,337
761,27	57,678
761,45	57,078
761,62	56,768
761,80	58,476
761,98	58,595
762,16	56,591
762,33	56,841
762,51	58,613
762,69	57,525
762,87	56,684
763,05	58,506
763,22	58,403
763,40	55,531
763,58	57,419
763,76	57,591
763,93	59,283
764,11	58,677
764,29	55,983
764,47	55,741
764,64	59,677
764,82	60,233
765,00	58,433
765,18	56,392
765,35	56,273
765,53	60,855
765,71	60,077
765,89	56,757
766,06	56,878
766,24	58,297
766,42	57,839
766,60	56,212
766,77	55,821
766,95	58,794
767,13	57,680
767,30	57,409
767,48	58,414
767,66	56,961
767,84	58,289
768,01	58,231
768,19	59,603
768,37	58,472
768,54	57,375
768,72	56,770
768,90	57,226
769,08	60,367
769,25	58,336
769,43	56,456
769,61	56,920
769,78	60,365
769,96	58,818
770,14	60,099
770,31	59,710
770,49	62,537
770,67	58,461
770,85	56,754
771,02	58,073
771,20	57,405
771,38	61,581
771,55	57,224
771,73	57,534
771,91	60,280
772,08	61,700
772,26	57,470
772,44	58,487
772,61	57,437
772,79	56,096
772,97	56,186
773,14	56,377
773,32	61,157
773,50	57,478
773,67	59,700
773,85	60,369
774,03	60,638
774,20	60,622
774,38	57,462
774,56	59,380
774,73	56,653
774,91	56,791
775,09	57,716
775,26	61,357
775,44	60,156
775,61	58,962
775,79	56,566
775,97	61,059
776,14	56,888
776,32	57,506
776,50	59,834
776,67	58,000
776,85	59,272
777,03	57,057
777,20	58,910
777,38	61,063
777,55	57,943
777,73	55,612
777,91	54,649
778,08	59,229
778,26	54,848
778,43	59,820
778,61	55,186
778,79	56,061
778,96	58,336
779,14	56,952
779,32	57,736
779,49	58,519
779,67	63,574
779,84	57,792
780,02	59,591
780,20	55,882
780,37	62,002
780,55	50,864
780,72	60,613
780,90	58,437
781,07	58,745
781,25	59,272
781,43	57,916
781,60	59,340
781,78	59,468
781,95	57,063
782,13	58,536
782,30	60,209
782,48	63,089
782,66	59,498
782,83	59,523
783,01	65,671
783,18	61,539
783,36	58,668
783,53	57,716
783,71	55,438
783,89	59,925
784,06	58,966
784,24	60,481
784,41	61,187
784,59	55,929
784,76	59,780
784,94	57,301
785,11	59,506
785,29	58,986
785,46	60,301
785,64	57,829
785,82	59,715
785,99	60,907
786,17	58,843
786,34	59,581
786,52	60,208
786,69	62,591
786,87	58,789
787,04	58,937
787,22	57,462
787,39	61,201
787,57	59,339
787,74	58,724
787,92	63,472
788,09	61,240
788,27	58,499
788,44	59,451
788,62	63,755
788,79	58,908
788,97	59,094
789,14	59,625
789,32	55,654
789,49	62,108
789,67	59,171
789,84	61,621
790,02	59,849
790,19	58,397
790,37	61,273
790,54	58,032
790,72	66,717
790,89	61,886
791,07	62,167
791,24	56,124
791,42	61,309
791,59	58,361
791,77	59,091
791,94	56,366
792,12	61,048
792,29	61,093
792,47	59,167
792,64	62,079
792,81	62,725
792,99	59,787
793,16	60,521
793,34	62,147
793,51	62,235
793,69	62,728
793,86	58,778
794,04	59,853
794,21	61,649
794,39	58,179
794,56	59,420
794,73	58,764
794,91	64,579
795,08	62,042
795,26	58,073
795,43	60,945
795,61	64,112
795,78	62,282
795,95	60,562
796,13	60,489
796,30	61,267
796,48	57,414
796,65	59,780
796,83	60,330
797,00	64,345
797,17	60,992
797,35	58,356
797,52	63,834
797,70	65,512
797,87	62,059
798,04	58,370
798,22	58,906
798,39	60,514
798,57	57,129
798,74	58,970
798,91	58,404
799,09	60,683
799,26	62,082
799,44	60,913
799,61	59,647
799,78	62,308
799,96	63,077
800,13	57,133
800,31	58,483
800,48	66,105
800,65	63,853
800,83	59,664
801,00	61,970
801,17	58,733
801,35	61,972
801,52	57,388
801,70	59,538
801,87	60,073
802,04	67,475
802,22	56,637
802,39	55,987
802,56	63,411
802,74	64,803
802,91	58,701
803,08	59,676
803,26	59,945
803,43	63,682
803,61	58,835
803,78	57,513
803,95	62,111
804,13	63,445
804,30	58,719
804,47	61,925
804,65	61,347
804,82	62,363
804,99	61,970
805,17	59,083
805,34	69,279
805,51	68,779
805,69	63,016
805,86	58,940
806,03	64,589
806,21	65,096
806,38	63,886
806,55	59,829
806,72	67,743
806,90	67,859
807,07	61,142
807,24	60,780
807,42	60,578
807,59	64,546
807,76	55,082
807,94	61,521
808,11	64,495
808,28	68,397
808,45	58,797
808,63	62,390
808,80	66,654
808,97	61,668
809,15	55,413
809,32	64,114
809,49	62,302
809,67	59,679
809,84	62,550
810,01	66,132
810,18	69,871
810,36	64,342
810,53	58,075
810,70	62,919
810,87	65,016
811,05	59,432
811,22	63,907
811,39	61,452
811,57	71,085
811,74	61,431
811,91	58,782
812,08	58,329
812,26	66,508
812,43	60,260
812,60	63,630
812,77	65,252
812,95	64,470
813,12	62,787
813,29	55,374
813,46	63,867
813,64	66,319
813,81	65,392
813,98	62,096
814,15	65,535
814,32	65,852
814,50	66,460
814,67	63,881
814,84	58,753
815,01	59,691
815,19	55,875
815,36	55,542
815,53	60,786
815,70	62,713
815,87	65,531
816,05	54,058
816,22	59,407
816,39	67,670
816,56	73,464
816,74	59,522
816,91	59,959
817,08	70,883
817,25	69,165
817,42	64,067
817,60	59,406
817,77	63,595
817,94	65,464
818,11	62,208
818,28	61,131
818,45	67,004
818,63	68,056
818,80	60,291
818,97	64,230
819,14	66,839
819,31	74,817
819,49	67,289
819,66	59,550
819,83	65,029
820,00	64,153
820,17	60,028
820,34	63,348
820,52	69,054
820,69	68,788
820,86	58,373
821,03	60,806
821,20	66,865
821,37	67,451
821,55	53,232
821,72	57,380
821,89	63,361
822,06	68,448
822,23	60,111
822,40	57,857
822,57	66,897
822,75	68,957
822,92	51,038
823,09	59,704
823,26	66,402
823,43	68,347
823,60	57,989
823,77	64,152
823,94	69,174
824,12	72,776
824,29	58,317
824,46	55,826
824,63	73,046
824,80	69,342
824,97	61,647
825,14	62,586
825,31	69,474
825,49	66,411
825,66	61,551
825,83	62,122
826,00	66,167
826,17	74,621
826,34	69,419
826,51	59,291
826,68	65,575
826,85	66,369
827,02	61,781
827,20	60,901
827,37	63,740
827,54	68,946
827,71	65,116
827,88	62,105
828,05	72,733
828,22	66,819
828,39	67,623
828,56	64,865
828,73	64,382
828,90	67,460
829,07	62,106
829,25	66,594
829,42	67,553
829,59	63,940
829,76	65,596
829,93	59,459
830,10	64,740
830,27	58,827
830,44	62,285
830,61	58,350
830,78	75,823
830,95	68,388
831,12	60,984
831,29	61,325
831,46	60,521
831,63	65,210
831,80	62,612
831,97	62,022
832,14	72,909
832,31	79,190
832,48	65,490
832,65	70,415
832,83	66,362
833,00	68,487
833,17	65,365
833,34	64,782
833,51	72,461
833,68	76,060
833,85	65,115
834,02	64,824
834,19	67,862
834,36	73,275
834,53	59,360
834,70	63,584
834,87	78,910
835,04	71,329
835,21	67,132
835,38	67,907
835,55	60,722
835,72	79,433
835,89	61,965
836,06	62,715
836,23	91,578
836,40	61,241
836,57	65,470
836,74	64,291
836,91	70,399
837,08	74,446
837,25	68,455
837,42	51,246
837,59	68,928
837,76	72,625
837,93	62,247
838,09	52,956
838,26	72,959
838,43	73,925
838,60	60,054
838,77	66,622
838,94	74,799
839,11	61,943
839,28	63,860
839,45	55,737
839,62	69,751
839,79	74,540
839,96	67,155
840,13	67,560
840,30	62,633
840,47	59,843
840,64	64,597
840,81	72,689
840,98	63,183
841,15	83,141
841,32	66,911
841,48	75,757
841,65	70,183
841,82	63,873
841,99	69,117
842,16	56,855
842,33	73,282
842,50	77,628
842,67	65,073
842,84	70,004
843,01	75,105
843,18	64,585
843,35	62,358
843,52	57,417
843,68	74,022
843,85	78,285
844,02	59,752
844,19	57,632
844,36	70,873
844,53	73,864
844,70	70,998
844,87	75,189
845,04	76,488
845,21	52,769
845,37	76,743
845,54	67,819
845,71	72,227
845,88	89,981
846,05	54,709
846,22	66,282
846,39	71,458
846,56	82,032
846,72	61,408
846,89	66,404
847,06	84,774
847,23	79,713
847,40	63,388
847,57	68,886
847,74	77,654
847,90	84,795
848,07	62,513
848,24	67,461
848,41	77,245
848,58	78,444
848,75	65,535
848,92	70,151
849,08	69,732
849,25	68,650
849,42	57,809
849,59	78,820
849,76	71,998
849,93	76,265
850,09	64,596
850,26	55,220
850,43	90,862
850,60	62,077
850,77	60,306
850,94	67,405
851,10	70,124
851,27	72,009
851,44	68,746
851,61	58,155
851,78	88,027
851,95	87,914
852,11	52,769
852,28	63,737
852,45	76,210
852,62	82,343
852,79	66,366
852,95	59,715
853,12	75,817
853,29	78,217
853,46	67,686
853,63	71,878
853,79	63,757
853,96	71,438
854,13	75,497
854,30	68,387
854,46	104,616
854,63	73,559
854,80	73,401
854,97	67,074
855,14	92,971
855,30	86,368
855,47	59,359
855,64	72,027
855,81	71,669
855,97	85,663
856,14	72,150
856,31	56,441
856,48	91,366
856,65	88,749
856,81	78,185
856,98	54,525
857,15	71,458
857,32	86,854
857,48	65,228
857,65	74,929
857,82	81,230
857,99	89,863
858,15	66,590
858,32	60,031
858,49	77,048
858,65	104,897
858,82	84,567
858,99	74,850
859,16	93,540
859,32	92,919
859,49	69,501
859,66	78,662
859,83	72,305
859,99	81,385
860,16	68,912
860,33	57,968
860,49	91,926
860,66	92,887
860,83	62,223
861,00	58,987
861,16	86,780
861,33	80,618
861,50	70,907
861,66	66,225
861,83	91,241
862,00	85,789
862,16	73,782
862,33	78,985
862,50	103,513
862,67	77,611
862,83	61,443
863,00	75,828
863,17	102,192
863,33	84,297
863,50	63,763
863,67	74,125
863,83	84,089
864,00	86,068
864,17	58,064
864,33	55,013
864,50	73,879
864,67	83,566
864,83	53,892
865,00	61,915
865,17	59,301
865,33	104,811
865,50	58,474
865,67	54,198
865,83	82,897
866,00	118,767
866,17	88,590
866,33	87,346
866,50	99,171
866,66	72,299
866,83	76,140
867,00	100,826
867,16	123,342
867,33	92,000
867,50	70,698
867,66	64,842
867,83	116,394
868,00	96,372
868,16	74,126
868,33	65,018
868,49	86,504
868,66	122,890
868,83	73,027
868,99	83,000
869,16	115,387
869,32	124,113
869,49	69,787
869,66	58,193
869,82	116,177
869,99	108,981
870,15	50,633
870,32	99,048
870,49	124,034
870,65	144,251
870,82	93,790
870,98	77,663
871,15	173,977
871,32	99,067
871,48	39,248
871,65	42,358
871,81	100,825
871,98	55,342
872,15	48,998
872,31	50,602
872,48	150,381
872,64	92,305
872,81	56,093
872,97	100,173
873,14	131,447
873,31	104,141
873,47	103,020
873,64	81,134
873,80	171,708
873,97	142,309
874,13	42,195
874,30	92,174
874,46	141,325
874,63	88,967
874,80	76,979
874,96	48,524
875,13	160,579
875,29	78,538
875,46	92,803
875,62	64,312
875,79	149,651
875,95	127,899
876,12	73,292
876,28	49,768
876,45	154,985
876,61	98,821
876,78	72,334
876,94	59,187
877,11	113,273
877,27	117,005
877,44	123,974
877,60	123,225
877,77	166,218
877,94	153,925
878,10	106,397
878,27	96,883
878,43	122,202
878,60	86,911
878,76	84,672
878,93	79,669
879,09	167,920
879,26	159,539
879,42	90,348
879,58	122,633
879,75	166,830
879,91	164,000
880,08	16,361
880,24	82,835
880,41	127,842
880,57	135,350
880,74	86,517
880,90	91,828
881,07	102,688
881,23	197,141
881,40	65,337
881,56	94,389
881,73	132,431
881,89	122,556
882,06	57,282
882,22	197,179
882,38	209,374
882,55	214,937
882,71	112,953
882,88	106,900
883,04	252,382
883,21	287,607
883,37	82,931
883,54	106,836
883,70	252,442
883,86	159,122
884,03	88,671
884,19	43,220
884,36	184,016
884,52	289,385
884,69	115,804
884,85	67,559
885,01	355,885
885,18	212,476
885,34	175,368
885,51	56,639
885,67	128,522
>>>>> Data<<<<< Espectral Procesado Extremo
