Fichero De Datos De SpectraSuite
++++++++++++++++++++++++++++++++++++
Fecha: Wed Apr 22 13:12:12 CEST 2009
Usuario: evoflor
Presente Oscuro Del Espectro: Sí
La Referencia de Presente Del Espectro De: Sí
Muestreados de los componentes de Número de espectros: 1
Espectrómetros: USB4F02353
Tiempo de integración (usec): 500000 (USB4F02353)
Promedio de Espectros Hechos un: 5 (USB4F02353)
El Alisar Del Furgón: 0 (USB4F02353)
Párrafo de de Corregir del la del del de Eléctrica del obscuridad: Sí (USB4F02353)
Estrobo/Lámpara Permitido: No (USB4F02353)
Correct for Detector Non-linearity: No (USB4F02353)
Párrafo de de Corregir del la del del de Externa del luz: No (USB4F02353)
Procesado del espectro de Número de pixeles en: 3648
>>>>> Comienza Data<<<<< Espectral Procesado Del EL
177,79	332,307
178,00	332,307
178,22	332,307
178,44	1709,615
178,66	-142,905
178,88	465,717
179,09	-253,298
179,31	311,696
179,53	847,446
179,75	211,822
179,96	1095,043
180,18	-224,692
180,40	496,258
180,62	296,353
180,83	-226,343
181,05	-1307,622
181,27	-113525,000
181,49	-31,576
181,70	256,635
181,92	836,675
182,14	404,292
182,36	-10,564
182,58	7,750
182,79	1013,058
183,01	-23,343
183,23	183,123
183,45	-130,538
183,66	130,863
183,88	789,559
184,10	-3373,182
184,32	218,626
184,53	164,053
184,75	-306,127
184,97	51,044
185,18	-308,130
185,40	-394,351
185,62	159,005
185,84	69,050
186,05	270,628
186,27	-315,321
186,49	6166,346
186,71	88,911
186,92	134,008
187,14	-234,906
187,36	178,045
187,58	65,588
187,79	-78,153
188,01	372,991
188,23	-312,287
188,45	-34,928
188,66	113,058
188,88	-3160,455
189,10	-1729,250
189,31	-20,179
189,53	128,330
189,75	448,239
189,97	474,712
190,18	93,240
190,40	477,206
190,62	-256,486
190,83	-367,947
191,05	224,841
191,27	121,214
191,49	477,042
191,70	-281,851
191,92	-656,992
192,14	-96,825
192,35	766,645
192,57	7357,857
192,79	258,512
193,01	212,639
193,22	83,391
193,44	-212,159
193,66	112,015
193,87	-20,931
194,09	-91,213
194,31	302,633
194,53	693,182
194,74	13,266
194,96	27,781
195,18	170,343
195,39	-280,541
195,61	-194,977
195,83	-297,663
196,04	198,419
196,26	-308,166
196,48	-114,620
196,70	349,155
196,91	59,670
197,13	173,481
197,35	44,224
197,56	574,381
197,78	1982,276
198,00	605,070
198,21	446,238
198,43	-1000,145
198,65	118,496
198,86	259,442
199,08	363,361
199,30	386,488
199,51	-572,068
199,73	322,432
199,95	419,121
200,16	692,788
200,38	276,278
200,60	131,134
200,81	150,589
201,03	215,557
201,25	-2512,250
201,46	214,366
201,68	79,854
201,90	3234,659
202,11	-601,622
202,33	260,368
202,55	1149,062
202,76	-193,736
202,98	430,052
203,20	198,438
203,41	-460,132
203,63	191,604
203,85	-244025,000
204,06	75,464
204,28	-319,096
204,50	196,805
204,71	372,306
204,93	224,200
205,15	19,352
205,36	-353,011
205,58	133,253
205,80	-125,805
206,01	105,539
206,23	161,054
206,45	324,569
206,66	205,457
206,88	-31,975
207,10	143,466
207,31	418,576
207,53	388,643
207,75	117,494
207,96	1277,052
208,18	-298,166
208,39	84,776
208,61	6175,000
208,83	-541,966
209,04	339,454
209,26	-423,618
209,48	415,358
209,69	376,169
209,91	1085,895
210,13	86,824
210,34	-65,073
210,56	267,258
210,77	-1779,724
210,99	157,423
211,21	5830,882
211,42	-227,482
211,64	-50,050
211,86	290,385
212,07	60,007
212,29	311,144
212,50	146,884
212,72	80,096
212,94	201,861
213,15	83,402
213,37	167,718
213,58	-273,670
213,80	-3347,321
214,02	13877,941
214,23	341,834
214,45	407,623
214,67	-1461,280
214,88	-33,641
215,10	-453,389
215,31	65,120
215,53	-34,489
215,75	242,826
215,96	1778,416
216,18	356,690
216,39	306,850
216,61	623,199
216,83	518,862
217,04	1022,753
217,26	143,911
217,47	158,500
217,69	308,482
217,91	-7,281
218,12	-87425,000
218,34	93,033
218,55	594,761
218,77	64,683
218,99	166,057
219,20	-201,103
219,42	444,703
219,63	-36,727
219,85	-139,979
220,06	80,096
220,28	168,073
220,50	138,970
220,71	108,455
220,93	4043,868
221,14	-2305,250
221,36	15,249
221,58	19,409
221,79	224,758
222,01	1296,767
222,22	1380,428
222,44	203,652
222,65	81,776
222,87	403,671
223,09	152,987
223,30	122,871
223,52	316,220
223,73	249,288
223,95	30,599
224,16	287,887
224,38	369,254
224,60	130,968
224,81	165,255
225,03	104,213
225,24	159,627
225,46	-41,653
225,67	28,791
225,89	37,860
226,10	637,425
226,32	915,400
226,54	56,766
226,75	25,946
226,97	185,570
227,18	211,900
227,40	62,903
227,61	62,546
227,83	24,373
228,04	164,419
228,26	33,927
228,47	67,376
228,69	188,422
228,91	107,373
229,12	84,666
229,34	34,810
229,55	58,606
229,77	58,475
229,98	16,581
230,20	78,866
230,41	-36,846
230,63	107,504
230,84	32,910
231,06	24,565
231,27	26,532
231,49	74,915
231,71	24,620
231,92	25,625
232,14	35,865
232,35	81,799
232,57	47,471
232,78	15,868
233,00	23,525
233,21	73,583
233,43	32,721
233,64	24,979
233,86	71,373
234,07	51,002
234,29	29,847
234,50	9,614
234,72	41,533
234,93	15,638
235,15	20,319
235,36	6,978
235,58	38,000
235,79	55,757
236,01	32,662
236,22	16,798
236,44	47,321
236,65	17,895
236,87	35,592
237,08	5,164
237,30	-9,535
237,51	32,778
237,73	-5,173
237,94	7,630
238,16	25,817
238,37	21,562
238,59	17,629
238,80	20,684
239,02	8,210
239,23	18,511
239,45	2,093
239,66	28,589
239,88	32,659
240,09	15,784
240,31	12,503
240,52	18,119
240,74	24,559
240,95	3,781
241,17	11,370
241,38	5,993
241,60	21,078
241,81	23,219
242,03	11,043
242,24	9,915
242,46	20,161
242,67	6,291
242,89	15,479
243,10	21,202
243,32	25,927
243,53	12,655
243,75	7,138
243,96	11,898
244,18	18,498
244,39	20,041
244,60	10,795
244,82	5,133
245,03	24,646
245,25	10,898
245,46	25,610
245,68	4,989
245,89	24,782
246,11	20,494
246,32	10,414
246,54	4,847
246,75	10,659
246,97	10,711
247,18	21,970
247,39	6,326
247,61	14,864
247,82	16,985
248,04	4,805
248,25	13,425
248,47	17,405
248,68	22,078
248,90	3,158
249,11	7,400
249,33	20,163
249,54	10,388
249,75	11,663
249,97	1,388
250,18	17,485
250,40	18,556
250,61	-7,303
250,83	8,787
251,04	6,521
251,25	13,585
251,47	5,591
251,68	8,236
251,90	11,861
252,11	14,652
252,33	4,679
252,54	9,319
252,76	6,919
252,97	7,150
253,18	3,214
253,40	4,056
253,61	1,622
253,83	13,928
254,04	8,950
254,25	6,791
254,47	4,562
254,68	12,805
254,90	4,001
255,11	8,767
255,33	11,696
255,54	5,450
255,75	9,761
255,97	7,535
256,18	6,920
256,40	11,144
256,61	9,320
256,82	1,748
257,04	14,624
257,25	8,650
257,47	8,483
257,68	4,169
257,89	11,426
258,11	12,481
258,32	11,043
258,54	7,128
258,75	14,539
258,96	12,764
259,18	5,976
259,39	7,094
259,61	11,155
259,82	5,135
260,03	11,064
260,25	7,736
260,46	6,945
260,68	5,010
260,89	6,286
261,10	6,929
261,32	8,353
261,53	4,611
261,75	9,155
261,96	-1,283
262,17	13,521
262,39	13,763
262,60	2,976
262,81	1,833
263,03	15,299
263,24	6,509
263,46	1,851
263,67	4,826
263,88	10,018
264,10	9,297
264,31	2,826
264,52	5,948
264,74	12,262
264,95	7,479
265,17	5,340
265,38	6,089
265,59	8,786
265,81	11,452
266,02	2,196
266,23	5,644
266,45	11,489
266,66	12,470
266,87	9,244
267,09	4,620
267,30	11,862
267,52	8,731
267,73	6,055
267,94	12,087
268,16	9,035
268,37	5,573
268,58	9,022
268,80	2,785
269,01	4,902
269,22	11,088
269,44	7,714
269,65	6,174
269,86	5,671
270,08	9,822
270,29	6,591
270,50	5,627
270,72	12,929
270,93	4,656
271,14	6,360
271,36	6,205
271,57	7,057
271,78	5,852
272,00	7,842
272,21	6,948
272,42	8,212
272,64	10,494
272,85	4,001
273,06	4,013
273,28	8,815
273,49	9,155
273,70	7,417
273,92	4,258
274,13	12,018
274,34	6,075
274,56	7,801
274,77	4,562
274,98	11,704
275,20	7,314
275,41	10,081
275,62	5,358
275,84	7,093
276,05	15,628
276,26	4,060
276,47	1,490
276,69	8,504
276,90	8,915
277,11	1,709
277,33	3,890
277,54	5,818
277,75	9,796
277,97	3,092
278,18	2,805
278,39	7,138
278,61	6,220
278,82	6,994
279,03	5,066
279,24	9,359
279,46	7,618
279,67	8,732
279,88	5,355
280,10	11,072
280,31	2,595
280,52	8,854
280,73	2,213
280,95	8,349
281,16	7,946
281,37	6,805
281,59	7,535
281,80	12,867
282,01	5,799
282,22	2,933
282,44	2,220
282,65	15,516
282,86	10,297
283,08	4,902
283,29	5,772
283,50	8,220
283,71	8,593
283,93	6,592
284,14	8,792
284,35	2,179
284,56	5,199
284,78	2,053
284,99	5,436
285,20	13,086
285,42	7,145
285,63	4,706
285,84	3,112
286,05	5,298
286,27	8,931
286,48	4,644
286,69	2,080
286,90	7,297
287,12	7,487
287,33	6,399
287,54	3,532
287,75	8,092
287,97	8,454
288,18	5,823
288,39	2,841
288,60	5,673
288,82	6,770
289,03	3,751
289,24	7,719
289,45	9,587
289,67	10,528
289,88	4,179
290,09	7,572
290,30	7,019
290,52	5,150
290,73	4,068
290,94	0,663
291,15	7,491
291,37	8,804
291,58	3,626
291,79	5,635
292,00	8,770
292,21	7,468
292,43	4,516
292,64	1,846
292,85	6,994
293,06	7,145
293,28	5,367
293,49	2,089
293,70	8,303
293,91	10,601
294,12	6,899
294,34	6,456
294,55	7,435
294,76	5,426
294,97	7,931
295,19	2,607
295,40	8,471
295,61	8,424
295,82	3,432
296,03	5,667
296,25	5,900
296,46	4,273
296,67	2,573
296,88	1,598
297,09	10,569
297,31	6,735
297,52	6,315
297,73	3,661
297,94	8,492
298,15	6,465
298,37	2,637
298,58	5,236
298,79	11,030
299,00	3,810
299,21	3,459
299,43	3,334
299,64	8,655
299,85	7,302
300,06	3,942
300,27	3,323
300,49	12,031
300,70	5,984
300,91	4,489
301,12	6,292
301,33	8,331
301,54	4,024
301,76	7,228
301,97	5,240
302,18	4,929
302,39	9,037
302,60	13,048
302,82	5,529
303,03	12,266
303,24	6,439
303,45	7,239
303,66	7,362
303,87	4,147
304,09	7,968
304,30	4,839
304,51	5,118
304,72	7,012
304,93	9,683
305,14	5,342
305,36	2,467
305,57	1,362
305,78	7,159
305,99	3,529
306,20	5,516
306,41	2,859
306,62	4,680
306,84	1,830
307,05	2,965
307,26	7,248
307,47	11,248
307,68	4,085
307,89	4,497
308,11	7,203
308,32	4,391
308,53	4,855
308,74	2,687
308,95	6,386
309,16	8,622
309,37	10,725
309,59	3,104
309,80	5,174
310,01	7,408
310,22	8,779
310,43	3,420
310,64	6,258
310,85	6,573
311,06	5,790
311,28	5,305
311,49	6,830
311,70	10,207
311,91	3,442
312,12	5,737
312,33	4,927
312,54	4,871
312,75	5,796
312,97	4,035
313,18	8,428
313,39	4,726
313,60	5,664
313,81	4,051
314,02	6,193
314,23	8,656
314,44	1,979
314,65	4,306
314,87	3,991
315,08	4,181
315,29	5,508
315,50	7,816
315,71	9,334
315,92	10,444
316,13	4,963
316,34	7,174
316,55	8,337
316,77	0,609
316,98	3,035
317,19	4,982
317,40	8,349
317,61	6,577
317,82	3,981
318,03	1,660
318,24	6,241
318,45	8,500
318,66	4,281
318,87	2,935
319,09	9,542
319,30	6,851
319,51	6,934
319,72	6,393
319,93	7,660
320,14	7,067
320,35	8,668
320,56	5,118
320,77	3,572
320,98	10,383
321,19	7,080
321,40	4,971
321,62	8,402
321,83	6,087
322,04	6,710
322,25	4,460
322,46	11,000
322,67	7,836
322,88	5,552
323,09	4,579
323,30	10,237
323,51	10,410
323,72	7,667
323,93	7,068
324,14	6,960
324,35	2,277
324,56	2,683
324,77	6,292
324,99	10,658
325,20	1,370
325,41	5,367
325,62	7,069
325,83	3,091
326,04	5,592
326,25	8,020
326,46	1,907
326,67	7,762
326,88	7,748
327,09	2,111
327,30	3,904
327,51	7,277
327,72	5,897
327,93	6,138
328,14	4,274
328,35	7,890
328,56	7,708
328,77	6,110
328,98	7,809
329,19	7,458
329,40	6,441
329,61	4,944
329,82	2,275
330,04	6,435
330,25	3,736
330,46	7,026
330,67	3,600
330,88	7,387
331,09	6,411
331,30	4,858
331,51	3,895
331,72	9,347
331,93	7,471
332,14	5,378
332,35	7,227
332,56	8,841
332,77	7,472
332,98	2,184
333,19	5,943
333,40	4,181
333,61	4,897
333,82	9,331
334,03	7,023
334,24	6,417
334,45	5,419
334,66	9,579
334,87	4,431
335,08	4,667
335,29	3,476
335,50	5,091
335,71	1,970
335,92	7,914
336,13	6,655
336,34	4,004
336,55	8,461
336,76	9,396
336,97	7,712
337,18	5,198
337,39	3,818
337,60	6,764
337,81	5,544
338,02	4,933
338,23	5,066
338,44	6,385
338,65	8,142
338,86	4,882
339,07	4,449
339,28	6,578
339,49	9,286
339,70	4,145
339,91	3,987
340,11	9,996
340,32	4,047
340,53	3,085
340,74	3,319
340,95	1,998
341,16	6,042
341,37	6,741
341,58	1,720
341,79	6,815
342,00	6,139
342,21	2,731
342,42	6,916
342,63	8,151
342,84	4,703
343,05	7,433
343,26	8,168
343,47	6,469
343,68	7,816
343,89	5,240
344,10	5,582
344,31	7,802
344,52	7,107
344,73	4,882
344,94	5,025
345,14	6,042
345,35	4,993
345,56	5,170
345,77	6,738
345,98	4,695
346,19	6,555
346,40	5,934
346,61	4,072
346,82	6,200
347,03	6,958
347,24	9,258
347,45	4,877
347,66	10,688
347,87	5,989
348,08	10,024
348,28	1,344
348,49	7,807
348,70	11,613
348,91	3,151
349,12	3,455
349,33	20,988
349,54	5,323
349,75	4,928
349,96	8,251
350,17	4,235
350,38	5,675
350,59	8,289
350,80	4,977
351,00	9,019
351,21	10,699
351,42	5,998
351,63	0,962
351,84	8,815
352,05	9,630
352,26	5,468
352,47	5,085
352,68	9,660
352,89	8,966
353,09	7,079
353,30	3,194
353,51	6,355
353,72	10,823
353,93	9,034
354,14	5,120
354,35	4,271
354,56	13,515
354,77	6,283
354,98	4,161
355,18	8,908
355,39	9,695
355,60	4,248
355,81	3,730
356,02	5,510
356,23	8,550
356,44	7,081
356,65	8,378
356,85	11,700
357,06	8,641
357,27	7,938
357,48	2,193
357,69	7,726
357,90	7,802
358,11	2,239
358,32	5,315
358,52	10,512
358,73	7,774
358,94	2,937
359,15	6,683
359,36	7,121
359,57	4,798
359,78	9,378
359,98	3,277
360,19	1,631
360,40	8,553
360,61	10,208
360,82	6,033
361,03	11,444
361,24	9,765
361,44	2,091
361,65	4,848
361,86	2,952
362,07	4,154
362,28	7,358
362,49	3,260
362,70	7,972
362,90	7,980
363,11	5,136
363,32	1,853
363,53	7,453
363,74	8,747
363,95	8,825
364,15	7,547
364,36	10,145
364,57	5,702
364,78	7,582
364,99	5,190
365,20	8,804
365,40	12,041
365,61	4,082
365,82	8,847
366,03	7,098
366,24	6,858
366,45	1,629
366,65	5,328
366,86	6,249
367,07	9,095
367,28	6,974
367,49	5,052
367,69	11,070
367,90	6,787
368,11	6,134
368,32	7,714
368,53	7,282
368,73	9,914
368,94	5,495
369,15	5,462
369,36	10,154
369,57	8,140
369,78	6,061
369,98	7,147
370,19	11,197
370,40	4,724
370,61	5,505
370,82	4,047
371,02	12,777
371,23	9,503
371,44	5,497
371,65	7,248
371,85	10,763
372,06	6,880
372,27	2,283
372,48	9,228
372,69	6,073
372,89	4,175
373,10	6,003
373,31	6,024
373,52	6,556
373,73	11,278
373,93	6,419
374,14	6,832
374,35	7,392
374,56	9,801
374,76	5,798
374,97	4,637
375,18	8,993
375,39	8,204
375,60	7,358
375,80	5,881
376,01	6,197
376,22	8,887
376,43	7,958
376,63	6,239
376,84	8,414
377,05	7,798
377,26	6,209
377,46	5,737
377,67	7,253
377,88	9,202
378,09	7,366
378,29	4,135
378,50	7,359
378,71	9,225
378,92	2,237
379,12	5,520
379,33	6,958
379,54	4,955
379,75	8,380
379,95	3,142
380,16	11,150
380,37	10,053
380,58	7,373
380,78	7,977
380,99	5,400
381,20	8,413
381,41	6,110
381,61	9,486
381,82	8,670
382,03	9,387
382,24	8,592
382,44	9,127
382,65	8,213
382,86	8,291
383,06	6,501
383,27	8,538
383,48	6,708
383,69	10,777
383,89	9,019
384,10	6,226
384,31	7,932
384,51	11,665
384,72	8,197
384,93	4,444
385,14	9,553
385,34	8,699
385,55	5,275
385,76	5,347
385,96	12,514
386,17	10,104
386,38	11,891
386,59	10,230
386,79	6,630
387,00	15,154
387,21	12,388
387,41	8,183
387,62	8,669
387,83	15,173
388,03	7,488
388,24	3,369
388,45	9,101
388,66	11,269
388,86	7,287
389,07	4,573
389,28	15,123
389,48	8,952
389,69	10,887
389,90	7,642
390,10	13,404
390,31	16,955
390,52	6,410
390,72	9,140
390,93	12,700
391,14	10,420
391,34	9,326
391,55	12,090
391,76	15,161
391,96	13,866
392,17	10,778
392,38	14,860
392,58	11,248
392,79	12,239
393,00	8,450
393,20	10,441
393,41	14,281
393,62	14,843
393,82	12,816
394,03	12,889
394,24	12,656
394,44	14,523
394,65	11,511
394,86	10,607
395,06	14,856
395,27	11,655
395,48	7,661
395,68	13,308
395,89	12,919
396,10	16,547
396,30	10,201
396,51	12,076
396,72	13,737
396,92	9,418
397,13	14,421
397,34	9,832
397,54	13,628
397,75	11,817
397,95	12,880
398,16	12,477
398,37	14,420
398,57	12,742
398,78	15,624
398,99	17,779
399,19	16,721
399,40	18,245
399,60	10,675
399,81	14,516
400,02	18,840
400,22	18,476
400,43	13,485
400,64	15,418
400,84	15,260
401,05	18,178
401,25	19,848
401,46	18,147
401,67	15,055
401,87	15,106
402,08	12,327
402,29	15,332
402,49	20,026
402,70	20,935
402,90	12,920
403,11	16,684
403,32	17,808
403,52	15,079
403,73	18,792
403,93	17,118
404,14	21,519
404,35	16,842
404,55	11,255
404,76	15,427
404,96	20,403
405,17	21,270
405,38	21,708
405,58	17,254
405,79	19,640
405,99	21,520
406,20	16,735
406,40	16,942
406,61	23,138
406,82	16,491
407,02	18,887
407,23	19,128
407,43	17,088
407,64	16,467
407,85	19,828
408,05	13,388
408,26	29,178
408,46	21,787
408,67	16,869
408,87	18,573
409,08	21,563
409,29	25,563
409,49	22,461
409,70	22,239
409,90	18,849
410,11	21,904
410,31	24,726
410,52	20,654
410,72	17,676
410,93	25,489
411,14	18,337
411,34	19,403
411,55	23,415
411,75	24,376
411,96	23,846
412,16	20,040
412,37	19,396
412,57	23,080
412,78	23,730
412,99	20,329
413,19	22,286
413,40	21,121
413,60	16,801
413,81	19,964
414,01	22,259
414,22	21,166
414,42	18,397
414,63	16,654
414,83	25,146
415,04	25,237
415,24	21,041
415,45	17,998
415,65	20,586
415,86	24,197
416,07	22,788
416,27	22,522
416,48	26,464
416,68	29,176
416,89	21,780
417,09	23,291
417,30	27,793
417,50	22,998
417,71	25,371
417,91	22,936
418,12	23,352
418,32	24,816
418,53	19,829
418,73	21,255
418,94	21,152
419,14	25,157
419,35	17,301
419,55	24,845
419,76	27,053
419,96	21,590
420,17	21,089
420,37	21,133
420,58	27,138
420,78	26,780
420,99	21,417
421,19	25,108
421,40	27,088
421,60	29,754
421,81	21,892
422,01	23,309
422,22	22,981
422,42	25,294
422,63	25,698
422,83	21,972
423,04	28,558
423,24	31,525
423,45	22,832
423,65	27,671
423,86	26,339
424,06	25,408
424,27	19,805
424,47	21,967
424,67	21,889
424,88	29,292
425,08	22,667
425,29	29,098
425,49	22,627
425,70	16,177
425,90	26,760
426,11	22,708
426,31	28,150
426,52	26,553
426,72	22,844
426,93	19,969
427,13	27,989
427,33	23,784
427,54	27,498
427,74	32,143
427,95	28,597
428,15	19,689
428,36	26,695
428,56	25,285
428,77	26,613
428,97	25,183
429,18	25,791
429,38	21,664
429,58	27,260
429,79	27,403
429,99	21,817
430,20	19,757
430,40	30,482
430,61	22,717
430,81	20,165
431,01	29,707
431,22	29,432
431,42	30,103
431,63	20,782
431,83	22,483
432,04	27,639
432,24	33,152
432,44	27,825
432,65	24,598
432,85	26,368
433,06	29,679
433,26	23,722
433,47	18,138
433,67	23,476
433,87	25,936
434,08	21,151
434,28	23,108
434,49	25,181
434,69	28,535
434,89	22,727
435,10	24,451
435,30	28,364
435,51	21,945
435,71	26,252
435,91	21,055
436,12	22,366
436,32	24,259
436,53	24,526
436,73	21,617
436,93	26,748
437,14	25,557
437,34	28,983
437,55	23,364
437,75	26,030
437,95	29,959
438,16	23,012
438,36	24,783
438,57	23,257
438,77	23,854
438,97	29,127
439,18	29,592
439,38	23,137
439,58	22,609
439,79	23,280
439,99	18,494
440,20	29,226
440,40	30,708
440,60	21,028
440,81	28,672
441,01	27,886
441,21	28,226
441,42	25,141
441,62	25,765
441,83	25,447
442,03	23,867
442,23	25,817
442,44	25,116
442,64	28,898
442,84	24,396
443,05	24,333
443,25	21,637
443,45	23,751
443,66	22,115
443,86	19,817
444,06	23,699
444,27	25,006
444,47	25,484
444,67	23,787
444,88	26,705
445,08	24,247
445,28	26,303
445,49	21,202
445,69	21,018
445,90	28,354
446,10	31,204
446,30	25,294
446,51	24,944
446,71	29,813
446,91	28,000
447,12	33,278
447,32	23,798
447,52	28,910
447,72	29,065
447,93	24,512
448,13	18,339
448,33	33,648
448,54	29,147
448,74	20,013
448,94	26,214
449,15	30,003
449,35	31,499
449,55	25,137
449,76	28,534
449,96	22,602
450,16	28,627
450,37	20,719
450,57	26,762
450,77	21,937
450,98	28,216
451,18	25,194
451,38	23,435
451,58	28,470
451,79	27,117
451,99	27,496
452,19	25,521
452,40	26,542
452,60	21,615
452,80	23,080
453,00	27,592
453,21	27,279
453,41	28,456
453,61	26,654
453,82	28,418
454,02	21,138
454,22	32,436
454,42	27,871
454,63	24,745
454,83	23,364
455,03	30,832
455,24	26,030
455,44	25,817
455,64	25,941
455,84	23,792
456,05	23,787
456,25	20,945
456,45	24,312
456,65	27,153
456,86	24,790
457,06	31,610
457,26	30,097
457,47	28,850
457,67	26,811
457,87	22,701
458,07	27,357
458,28	29,440
458,48	23,949
458,68	17,022
458,88	27,631
459,09	23,872
459,29	29,205
459,49	21,745
459,69	28,387
459,90	31,723
460,10	25,600
460,30	24,701
460,50	25,153
460,71	28,121
460,91	20,573
461,11	22,143
461,31	20,616
461,52	29,181
461,72	25,430
461,92	23,198
462,12	31,188
462,32	24,462
462,53	22,955
462,73	21,002
462,93	26,858
463,13	25,992
463,34	24,855
463,54	22,686
463,74	26,018
463,94	26,910
464,14	25,765
464,35	21,295
464,55	31,905
464,75	31,196
464,95	24,750
465,16	19,377
465,36	27,884
465,56	23,699
465,76	24,309
465,96	25,894
466,17	26,023
466,37	23,640
466,57	29,611
466,77	23,587
466,97	21,340
467,18	27,137
467,38	28,087
467,58	24,335
467,78	28,676
467,98	25,064
468,19	26,102
468,39	25,224
468,59	29,688
468,79	23,502
468,99	22,623
469,19	20,087
469,40	29,039
469,60	20,334
469,80	22,905
470,00	28,850
470,20	31,601
470,41	23,497
470,61	28,551
470,81	25,201
471,01	22,257
471,21	28,465
471,41	19,373
471,62	26,167
471,82	26,014
472,02	23,930
472,22	25,733
472,42	21,816
472,62	24,715
472,83	22,496
473,03	27,824
473,23	22,996
473,43	27,472
473,63	24,503
473,83	23,435
474,03	21,377
474,24	28,769
474,44	23,315
474,64	26,045
474,84	19,385
475,04	25,307
475,24	23,700
475,45	24,283
475,65	22,889
475,85	26,337
476,05	18,410
476,25	23,822
476,45	24,836
476,65	27,529
476,85	25,713
477,06	23,841
477,26	20,796
477,46	21,515
477,66	25,177
477,86	22,336
478,06	22,538
478,26	29,315
478,46	23,249
478,67	24,455
478,87	22,901
479,07	23,448
479,27	25,562
479,47	24,023
479,67	14,883
479,87	21,029
480,07	27,311
480,28	21,182
480,48	22,014
480,68	24,383
480,88	27,516
481,08	21,794
481,28	26,392
481,48	21,013
481,68	22,827
481,88	20,858
482,08	21,787
482,29	23,152
482,49	20,756
482,69	22,333
482,89	21,907
483,09	25,573
483,29	23,433
483,49	18,888
483,69	21,427
483,89	19,180
484,09	19,683
484,29	19,133
484,50	20,074
484,70	23,884
484,90	21,531
485,10	21,658
485,30	23,332
485,50	23,104
485,70	22,553
485,90	19,419
486,10	16,526
486,30	19,955
486,50	20,999
486,70	19,572
486,90	19,361
487,10	22,444
487,30	20,421
487,51	20,630
487,71	16,409
487,91	19,150
488,11	23,522
488,31	16,802
488,51	22,831
488,71	19,599
488,91	22,644
489,11	19,649
489,31	21,631
489,51	21,364
489,71	18,903
489,91	20,612
490,11	17,435
490,31	19,741
490,51	22,206
490,71	20,518
490,91	21,664
491,11	21,887
491,31	21,938
491,51	17,344
491,72	19,574
491,92	21,548
492,12	26,087
492,32	23,339
492,52	21,837
492,72	21,633
492,92	21,779
493,12	21,713
493,32	18,873
493,52	15,544
493,72	20,525
493,92	21,396
494,12	22,431
494,32	21,898
494,52	19,331
494,72	19,289
494,92	18,762
495,12	22,789
495,32	22,844
495,52	21,073
495,72	20,696
495,92	22,872
496,12	23,297
496,32	16,295
496,52	17,344
496,72	19,613
496,92	21,185
497,12	19,248
497,32	21,536
497,52	21,525
497,72	23,461
497,92	22,871
498,12	20,316
498,32	20,142
498,52	21,525
498,72	19,051
498,92	20,041
499,12	24,951
499,32	18,077
499,52	21,314
499,72	21,796
499,92	23,877
500,12	21,895
500,32	23,131
500,52	19,824
500,72	24,660
500,91	24,975
501,11	20,341
501,31	15,311
501,51	20,549
501,71	24,643
501,91	23,397
502,11	19,381
502,31	23,409
502,51	22,657
502,71	18,735
502,91	20,072
503,11	20,398
503,31	24,546
503,51	17,932
503,71	15,197
503,91	22,999
504,11	21,407
504,31	20,646
504,51	19,560
504,71	25,581
504,91	21,160
505,10	20,908
505,30	18,866
505,50	22,020
505,70	16,320
505,90	21,111
506,10	17,055
506,30	19,583
506,50	23,491
506,70	23,954
506,90	18,381
507,10	19,254
507,30	20,078
507,50	18,999
507,70	19,847
507,89	18,700
508,09	20,199
508,29	19,344
508,49	20,570
508,69	17,786
508,89	18,328
509,09	17,658
509,29	17,315
509,49	20,654
509,69	22,973
509,89	19,289
510,09	19,785
510,28	18,662
510,48	19,343
510,68	15,269
510,88	14,999
511,08	18,778
511,28	19,484
511,48	18,132
511,68	14,988
511,88	13,309
512,07	20,545
512,27	18,907
512,47	17,270
512,67	16,622
512,87	18,593
513,07	20,090
513,27	17,647
513,47	17,890
513,67	15,832
513,86	17,173
514,06	18,055
514,26	16,872
514,46	20,785
514,66	17,829
514,86	16,156
515,06	24,162
515,26	23,535
515,45	16,778
515,65	15,196
515,85	19,337
516,05	16,627
516,25	17,530
516,45	20,820
516,65	16,589
516,84	21,732
517,04	19,601
517,24	15,544
517,44	17,823
517,64	21,443
517,84	19,258
518,04	17,110
518,23	18,755
518,43	20,290
518,63	16,457
518,83	15,417
519,03	18,101
519,23	18,768
519,42	17,917
519,62	16,021
519,82	15,623
520,02	15,536
520,22	14,423
520,42	15,444
520,61	19,688
520,81	22,592
521,01	19,667
521,21	14,590
521,41	18,253
521,61	21,012
521,80	14,381
522,00	17,049
522,20	18,610
522,40	18,442
522,60	16,637
522,79	15,871
522,99	19,632
523,19	15,651
523,39	14,901
523,59	17,765
523,78	22,512
523,98	17,186
524,18	17,213
524,38	15,102
524,58	16,720
524,77	19,034
524,97	17,198
525,17	16,443
525,37	16,298
525,57	20,376
525,76	15,978
525,96	17,996
526,16	15,030
526,36	13,905
526,56	16,687
526,75	15,127
526,95	18,249
527,15	18,700
527,35	18,594
527,55	15,033
527,74	19,133
527,94	15,691
528,14	14,504
528,34	16,178
528,53	15,433
528,73	19,322
528,93	17,233
529,13	13,805
529,32	16,177
529,52	17,647
529,72	14,395
529,92	15,353
530,12	16,481
530,31	13,876
530,51	16,257
530,71	17,681
530,91	19,461
531,10	12,921
531,30	14,182
531,50	11,367
531,70	17,987
531,89	15,307
532,09	14,654
532,29	14,628
532,49	18,863
532,68	16,914
532,88	13,474
533,08	13,435
533,28	15,944
533,47	15,086
533,67	18,883
533,87	12,649
534,06	21,944
534,26	17,785
534,46	15,838
534,66	15,421
534,85	16,628
535,05	9,424
535,25	13,813
535,45	12,967
535,64	16,894
535,84	16,120
536,04	12,461
536,23	13,318
536,43	17,575
536,63	15,170
536,83	12,779
537,02	14,517
537,22	15,104
537,42	11,560
537,61	12,942
537,81	15,659
538,01	13,707
538,20	15,892
538,40	12,872
538,60	13,304
538,80	13,747
538,99	15,191
539,19	12,852
539,39	11,892
539,58	15,076
539,78	12,644
539,98	11,742
540,17	11,493
540,37	13,441
540,57	11,348
540,76	11,770
540,96	8,575
541,16	14,291
541,36	11,710
541,55	9,433
541,75	8,259
541,95	9,827
542,14	10,042
542,34	8,163
542,54	7,246
542,73	11,011
542,93	11,326
543,13	9,461
543,32	9,142
543,52	11,920
543,72	9,457
543,91	10,251
544,11	8,171
544,31	8,210
544,50	10,224
544,70	9,930
544,89	9,335
545,09	11,215
545,29	10,342
545,48	10,319
545,68	9,607
545,88	10,793
546,07	9,697
546,27	8,768
546,47	10,590
546,66	12,482
546,86	13,544
547,06	10,363
547,25	10,359
547,45	12,487
547,64	13,581
547,84	14,558
548,04	14,423
548,23	14,496
548,43	14,278
548,63	15,494
548,82	13,935
549,02	12,040
549,21	12,354
549,41	13,666
549,61	13,452
549,80	14,133
550,00	15,739
550,20	10,224
550,39	16,546
550,59	9,892
550,78	13,720
550,98	11,595
551,18	14,546
551,37	14,691
551,57	12,800
551,76	13,395
551,96	11,418
552,16	13,608
552,35	15,043
552,55	13,427
552,74	14,821
552,94	15,423
553,14	15,068
553,33	12,389
553,53	13,912
553,72	14,496
553,92	15,837
554,12	13,499
554,31	12,805
554,51	13,913
554,70	10,474
554,90	14,254
555,09	14,359
555,29	13,699
555,49	13,596
555,68	14,526
555,88	14,946
556,07	13,226
556,27	14,616
556,46	12,582
556,66	10,329
556,86	16,571
557,05	14,658
557,25	12,186
557,44	11,266
557,64	13,542
557,83	13,492
558,03	15,297
558,22	13,263
558,42	14,218
558,62	17,385
558,81	15,259
559,01	14,145
559,20	15,439
559,40	10,793
559,59	13,462
559,79	9,827
559,98	13,945
560,18	14,479
560,37	12,959
560,57	11,650
560,76	13,164
560,96	13,335
561,16	15,297
561,35	12,653
561,55	17,081
561,74	14,798
561,94	14,255
562,13	13,900
562,33	15,413
562,52	15,851
562,72	12,361
562,91	13,808
563,11	14,823
563,30	15,428
563,50	11,476
563,69	13,209
563,89	13,437
564,08	14,383
564,28	12,048
564,47	12,642
564,67	12,698
564,86	13,975
565,06	11,543
565,25	13,197
565,45	12,985
565,64	17,940
565,84	12,742
566,03	12,931
566,23	14,748
566,42	14,647
566,62	15,148
566,81	13,881
567,01	14,145
567,20	14,251
567,40	10,406
567,59	12,042
567,79	15,642
567,98	17,509
568,18	12,047
568,37	14,497
568,57	15,262
568,76	16,289
568,96	11,068
569,15	12,302
569,35	15,363
569,54	14,949
569,73	14,353
569,93	11,553
570,12	13,453
570,32	14,772
570,51	13,572
570,71	12,921
570,90	15,773
571,10	13,851
571,29	10,647
571,49	12,281
571,68	13,781
571,87	13,926
572,07	12,655
572,26	11,083
572,46	14,015
572,65	13,414
572,85	11,631
573,04	13,591
573,24	12,709
573,43	17,629
573,62	15,434
573,82	13,543
574,01	13,639
574,21	13,112
574,40	11,316
574,60	10,314
574,79	15,594
574,98	13,226
575,18	13,911
575,37	12,476
575,57	13,523
575,76	13,572
575,96	13,731
576,15	12,609
576,34	13,464
576,54	14,398
576,73	14,515
576,93	12,864
577,12	15,739
577,31	13,891
577,51	13,377
577,70	13,248
577,90	13,065
578,09	13,228
578,28	12,071
578,48	13,469
578,67	16,513
578,87	14,384
579,06	12,939
579,25	14,140
579,45	16,362
579,64	13,393
579,84	12,400
580,03	13,626
580,22	16,957
580,42	12,048
580,61	15,167
580,81	13,944
581,00	14,762
581,19	15,132
581,39	12,673
581,58	14,399
581,77	14,355
581,97	16,277
582,16	13,907
582,35	12,092
582,55	14,471
582,74	15,694
582,94	14,797
583,13	12,230
583,32	15,325
583,52	15,615
583,71	14,951
583,90	14,747
584,10	16,798
584,29	17,341
584,48	15,264
584,68	15,613
584,87	17,179
585,06	15,609
585,26	12,124
585,45	14,242
585,65	18,288
585,84	15,504
586,03	14,639
586,23	13,314
586,42	15,595
586,61	17,307
586,81	15,457
587,00	15,794
587,19	14,465
587,39	19,109
587,58	18,154
587,77	16,622
587,97	16,067
588,16	16,894
588,35	15,977
588,54	17,463
588,74	15,498
588,93	20,594
589,12	16,803
589,32	16,176
589,51	16,671
589,70	15,455
589,90	15,641
590,09	16,303
590,28	19,832
590,48	16,907
590,67	16,750
590,86	17,902
591,06	16,970
591,25	20,249
591,44	18,567
591,63	17,015
591,83	18,556
592,02	18,267
592,21	17,623
592,41	15,675
592,60	19,579
592,79	19,288
592,98	19,686
593,18	17,190
593,37	18,014
593,56	21,042
593,76	19,213
593,95	16,827
594,14	17,414
594,33	21,090
594,53	18,407
594,72	18,143
594,91	21,525
595,10	20,924
595,30	18,926
595,49	17,583
595,68	21,867
595,88	20,353
596,07	19,719
596,26	20,943
596,45	20,694
596,65	17,464
596,84	20,682
597,03	19,594
597,22	21,894
597,42	23,231
597,61	21,548
597,80	20,786
597,99	20,909
598,19	21,237
598,38	21,457
598,57	20,931
598,76	22,412
598,95	22,424
599,15	22,261
599,34	21,691
599,53	20,712
599,72	20,833
599,92	21,062
600,11	22,187
600,30	22,518
600,49	22,429
600,69	21,503
600,88	22,970
601,07	23,060
601,26	21,737
601,45	22,549
601,65	20,338
601,84	23,973
602,03	21,259
602,22	22,865
602,42	24,080
602,61	23,578
602,80	23,725
602,99	24,099
603,18	22,014
603,38	23,994
603,57	21,489
603,76	23,109
603,95	22,794
604,14	24,036
604,34	24,720
604,53	22,709
604,72	24,064
604,91	24,106
605,10	23,316
605,29	25,189
605,49	20,538
605,68	23,928
605,87	25,487
606,06	21,846
606,25	21,896
606,45	23,426
606,64	23,033
606,83	23,950
607,02	22,969
607,21	27,473
607,40	23,836
607,60	21,592
607,79	21,869
607,98	22,274
608,17	21,432
608,36	21,542
608,55	22,766
608,75	24,129
608,94	23,164
609,13	19,571
609,32	19,116
609,51	22,732
609,70	19,420
609,89	21,687
610,09	19,652
610,28	23,167
610,47	21,768
610,66	20,128
610,85	18,941
611,04	22,982
611,23	20,422
611,43	19,660
611,62	19,298
611,81	20,044
612,00	22,224
612,19	19,372
612,38	20,156
612,57	22,767
612,77	19,973
612,96	22,621
613,15	22,047
613,34	24,315
613,53	24,450
613,72	23,186
613,91	23,312
614,10	22,802
614,29	25,304
614,49	21,830
614,68	22,295
614,87	25,433
615,06	27,995
615,25	20,958
615,44	25,339
615,63	24,488
615,82	25,741
616,01	24,201
616,21	24,668
616,40	27,640
616,59	28,674
616,78	27,195
616,97	25,705
617,16	26,761
617,35	27,033
617,54	27,722
617,73	28,758
617,92	27,645
618,11	27,620
618,31	24,526
618,50	26,890
618,69	26,699
618,88	25,060
619,07	26,043
619,26	26,901
619,45	25,814
619,64	25,682
619,83	25,477
620,02	25,334
620,21	29,297
620,40	27,106
620,59	27,387
620,78	24,495
620,97	27,476
621,17	30,088
621,36	26,154
621,55	26,708
621,74	27,618
621,93	27,075
622,12	27,073
622,31	25,139
622,50	28,088
622,69	29,946
622,88	28,163
623,07	29,444
623,26	29,273
623,45	29,464
623,64	26,405
623,83	27,047
624,02	29,266
624,21	29,983
624,40	27,338
624,59	25,636
624,78	28,344
624,97	30,228
625,16	24,949
625,35	25,359
625,54	26,021
625,73	27,634
625,92	28,222
626,12	27,978
626,31	29,609
626,50	29,167
626,69	28,485
626,88	26,023
627,07	27,562
627,26	29,196
627,45	27,419
627,64	27,684
627,83	29,398
628,02	29,140
628,21	27,993
628,40	27,211
628,59	30,235
628,78	25,983
628,97	26,498
629,16	27,087
629,35	28,107
629,54	31,629
629,73	29,200
629,92	26,822
630,10	29,123
630,29	28,926
630,48	27,359
630,67	26,833
630,86	30,040
631,05	28,348
631,24	30,080
631,43	27,394
631,62	28,654
631,81	30,019
632,00	28,846
632,19	26,562
632,38	28,679
632,57	25,814
632,76	27,802
632,95	30,550
633,14	32,948
633,33	31,154
633,52	29,039
633,71	29,728
633,90	28,055
634,09	29,155
634,28	30,421
634,47	28,652
634,66	30,602
634,85	30,648
635,04	31,093
635,22	29,721
635,41	30,275
635,60	32,643
635,79	31,745
635,98	27,413
636,17	32,391
636,36	29,540
636,55	28,968
636,74	28,712
636,93	30,338
637,12	29,809
637,31	29,562
637,50	28,919
637,69	31,932
637,87	31,463
638,06	30,910
638,25	29,352
638,44	31,754
638,63	27,736
638,82	30,870
639,01	29,669
639,20	30,688
639,39	31,760
639,58	29,042
639,77	31,736
639,95	28,872
640,14	30,870
640,33	29,523
640,52	30,414
640,71	32,661
640,90	31,090
641,09	33,448
641,28	29,335
641,47	31,701
641,66	31,287
641,84	30,975
642,03	29,477
642,22	31,226
642,41	34,000
642,60	31,704
642,79	30,336
642,98	33,077
643,17	30,522
643,35	28,347
643,54	30,176
643,73	31,427
643,92	31,897
644,11	31,339
644,30	29,591
644,49	32,154
644,67	29,463
644,86	28,255
645,05	33,140
645,24	31,020
645,43	31,134
645,62	31,389
645,81	30,415
645,99	32,476
646,18	32,931
646,37	29,095
646,56	30,230
646,75	31,200
646,94	34,284
647,13	30,653
647,31	29,696
647,50	31,315
647,69	32,889
647,88	31,283
648,07	32,067
648,26	34,954
648,44	30,440
648,63	29,527
648,82	30,532
649,01	32,879
649,20	29,103
649,38	31,005
649,57	30,542
649,76	29,593
649,95	32,731
650,14	29,865
650,33	29,189
650,51	29,306
650,70	33,097
650,89	31,080
651,08	29,691
651,27	32,066
651,45	31,157
651,64	29,378
651,83	32,971
652,02	30,618
652,21	32,080
652,39	32,419
652,58	33,314
652,77	31,924
652,96	31,587
653,15	31,125
653,33	30,893
653,52	30,833
653,71	32,536
653,90	30,168
654,09	30,525
654,27	30,553
654,46	33,321
654,65	31,288
654,84	31,542
655,02	32,415
655,21	32,881
655,40	33,295
655,59	31,861
655,77	31,948
655,96	31,902
656,15	32,759
656,34	31,300
656,53	31,168
656,71	32,112
656,90	30,243
657,09	32,115
657,28	32,529
657,46	29,952
657,65	32,031
657,84	30,119
658,03	33,158
658,21	31,932
658,40	30,732
658,59	31,894
658,78	33,131
658,96	31,910
659,15	31,645
659,34	30,891
659,52	31,829
659,71	31,938
659,90	31,147
660,09	32,109
660,27	32,304
660,46	33,605
660,65	30,954
660,84	32,553
661,02	33,211
661,21	33,400
661,40	31,289
661,58	33,076
661,77	33,128
661,96	29,126
662,15	30,594
662,33	30,428
662,52	29,904
662,71	32,519
662,89	29,318
663,08	30,043
663,27	31,909
663,45	32,399
663,64	29,171
663,83	29,757
664,02	30,997
664,20	33,227
664,39	31,212
664,58	30,779
664,76	32,132
664,95	33,438
665,14	31,778
665,32	28,942
665,51	32,882
665,70	32,515
665,88	32,765
666,07	31,417
666,26	34,524
666,44	32,843
666,63	29,703
666,82	31,844
667,00	33,583
667,19	30,412
667,38	31,357
667,56	31,116
667,75	32,520
667,94	33,144
668,12	28,905
668,31	33,000
668,50	31,963
668,68	32,991
668,87	30,776
669,06	31,947
669,24	32,489
669,43	31,626
669,62	30,515
669,80	30,044
669,99	32,090
670,18	31,498
670,36	30,239
670,55	31,418
670,74	29,936
670,92	30,303
671,11	31,564
671,29	30,106
671,48	30,651
671,67	30,974
671,85	31,118
672,04	30,703
672,23	30,298
672,41	31,889
672,60	31,619
672,78	29,782
672,97	31,948
673,16	31,064
673,34	31,678
673,53	30,684
673,71	30,927
673,90	31,621
674,09	30,519
674,27	30,787
674,46	31,562
674,64	31,357
674,83	30,999
675,02	28,644
675,20	31,919
675,39	32,184
675,57	32,792
675,76	30,124
675,95	32,585
676,13	32,736
676,32	31,609
676,50	31,578
676,69	29,595
676,88	31,164
677,06	31,928
677,25	32,326
677,43	34,320
677,62	32,353
677,80	30,463
677,99	31,222
678,18	31,726
678,36	33,727
678,55	30,628
678,73	31,073
678,92	32,321
679,10	32,191
679,29	31,049
679,48	31,169
679,66	31,551
679,85	32,154
680,03	31,329
680,22	30,685
680,40	30,228
680,59	32,269
680,77	29,793
680,96	31,961
681,15	32,180
681,33	30,795
681,52	31,207
681,70	31,917
681,89	34,348
682,07	31,990
682,26	29,223
682,44	31,605
682,63	32,822
682,81	32,854
683,00	32,375
683,18	30,285
683,37	32,948
683,55	31,952
683,74	31,739
683,92	37,394
684,11	32,675
684,29	32,357
684,48	29,895
684,67	30,131
684,85	31,660
685,04	32,556
685,22	31,002
685,41	29,819
685,59	31,515
685,78	29,852
685,96	29,620
686,15	29,744
686,33	29,956
686,52	30,965
686,70	31,614
686,89	31,732
687,07	31,512
687,26	31,893
687,44	31,241
687,62	30,489
687,81	33,362
687,99	32,232
688,18	31,337
688,36	32,222
688,55	34,146
688,73	32,322
688,92	30,845
689,10	30,583
689,29	32,940
689,47	33,650
689,66	30,914
689,84	31,579
690,03	33,675
690,21	31,095
690,40	31,830
690,58	30,360
690,76	30,705
690,95	33,015
691,13	29,960
691,32	32,406
691,50	32,115
691,69	31,649
691,87	30,757
692,06	30,626
692,24	30,575
692,43	32,658
692,61	29,439
692,79	28,994
692,98	30,377
693,16	33,751
693,35	29,766
693,53	31,673
693,72	32,571
693,90	33,949
694,08	29,368
694,27	30,643
694,45	32,300
694,64	34,143
694,82	30,119
695,01	29,547
695,19	31,905
695,37	29,833
695,56	29,030
695,74	31,851
695,93	32,086
696,11	29,744
696,29	31,415
696,48	31,233
696,66	32,811
696,85	32,173
697,03	29,559
697,21	32,007
697,40	31,576
697,58	31,185
697,77	30,239
697,95	32,779
698,13	31,041
698,32	31,573
698,50	31,797
698,69	31,467
698,87	33,295
699,05	31,178
699,24	29,956
699,42	31,211
699,60	29,521
699,79	28,909
699,97	30,505
700,16	29,940
700,34	33,561
700,52	31,894
700,71	30,513
700,89	30,553
701,07	32,347
701,26	32,946
701,44	31,416
701,63	29,914
701,81	30,766
701,99	31,888
702,18	29,046
702,36	29,104
702,54	32,574
702,73	31,320
702,91	29,132
703,09	29,302
703,28	30,177
703,46	32,652
703,64	29,784
703,83	29,641
704,01	32,869
704,19	28,807
704,38	28,722
704,56	30,673
704,74	33,222
704,93	30,801
705,11	32,245
705,29	29,422
705,48	37,925
705,66	32,140
705,84	30,560
706,03	28,578
706,21	31,436
706,39	31,816
706,58	31,795
706,76	29,859
706,94	31,746
707,12	32,458
707,31	29,693
707,49	29,902
707,67	31,008
707,86	34,347
708,04	29,976
708,22	28,748
708,41	30,867
708,59	32,445
708,77	29,577
708,95	30,593
709,14	33,675
709,32	32,413
709,50	29,406
709,69	30,474
709,87	31,250
710,05	30,343
710,23	30,080
710,42	30,083
710,60	31,589
710,78	32,260
710,97	29,048
711,15	30,014
711,33	31,845
711,51	30,175
711,70	27,749
711,88	28,105
712,06	32,520
712,24	31,546
712,43	31,311
712,61	31,306
712,79	31,587
712,97	30,784
713,16	29,813
713,34	29,669
713,52	30,517
713,70	31,907
713,89	30,852
714,07	30,782
714,25	30,519
714,43	31,291
714,62	29,857
714,80	31,722
714,98	28,588
715,16	30,461
715,35	30,406
715,53	31,116
715,71	32,666
715,89	32,376
716,07	30,873
716,26	34,540
716,44	31,779
716,62	32,349
716,80	31,893
716,99	31,186
717,17	33,776
717,35	30,409
717,53	29,951
717,71	32,183
717,90	30,279
718,08	31,283
718,26	28,803
718,44	31,598
718,62	32,852
718,81	30,303
718,99	28,602
719,17	30,072
719,35	31,025
719,53	31,336
719,72	30,121
719,90	30,172
720,08	29,956
720,26	33,418
720,44	29,655
720,62	30,245
720,81	34,012
720,99	33,165
721,17	29,976
721,35	31,545
721,53	30,714
721,72	32,803
721,90	31,419
722,08	30,998
722,26	33,799
722,44	32,265
722,62	29,274
722,81	30,091
722,99	31,283
723,17	31,018
723,35	31,333
723,53	31,934
723,71	33,625
723,89	34,803
724,08	26,326
724,26	30,218
724,44	32,335
724,62	32,271
724,80	30,443
724,98	30,859
725,16	33,537
725,35	32,369
725,53	29,636
725,71	29,065
725,89	31,562
726,07	31,009
726,25	34,143
726,43	29,575
726,61	30,928
726,80	32,586
726,98	30,871
727,16	31,243
727,34	31,789
727,52	31,304
727,70	30,400
727,88	30,658
728,06	28,055
728,25	30,210
728,43	30,366
728,61	30,974
728,79	31,128
728,97	31,562
729,15	30,583
729,33	30,618
729,51	30,870
729,69	30,317
729,87	31,075
730,06	30,460
730,24	30,081
730,42	34,995
730,60	26,987
730,78	30,761
730,96	29,737
731,14	32,007
731,32	32,082
731,50	29,259
731,68	30,559
731,86	32,141
732,04	31,611
732,22	29,551
732,41	34,766
732,59	31,577
732,77	30,481
732,95	31,597
733,13	31,903
733,31	32,026
733,49	29,106
733,67	33,221
733,85	32,379
734,03	32,471
734,21	30,251
734,39	31,447
734,57	32,058
734,75	31,635
734,93	28,206
735,11	31,062
735,29	27,704
735,47	31,652
735,65	29,542
735,84	30,762
736,02	32,207
736,20	32,741
736,38	29,374
736,56	30,886
736,74	31,530
736,92	29,904
737,10	29,996
737,28	32,187
737,46	31,373
737,64	31,277
737,82	31,174
738,00	33,268
738,18	33,099
738,36	31,349
738,54	30,135
738,72	29,577
738,90	31,550
739,08	33,062
739,26	28,635
739,44	30,170
739,62	33,409
739,80	31,567
739,98	30,139
740,16	29,713
740,34	32,574
740,52	33,035
740,70	30,665
740,88	29,871
741,06	30,707
741,24	31,438
741,42	30,032
741,60	31,029
741,78	33,382
741,96	31,108
742,14	29,425
742,32	27,570
742,50	30,867
742,68	31,762
742,86	31,399
743,04	30,219
743,21	32,064
743,39	31,637
743,57	30,752
743,75	28,839
743,93	30,070
744,11	28,990
744,29	29,265
744,47	31,660
744,65	30,325
744,83	30,803
745,01	29,207
745,19	32,523
745,37	34,810
745,55	32,914
745,73	30,695
745,91	30,345
746,09	30,948
746,27	29,143
746,45	29,908
746,62	30,766
746,80	30,596
746,98	33,006
747,16	28,934
747,34	31,620
747,52	31,350
747,70	31,118
747,88	31,319
748,06	31,026
748,24	31,305
748,42	32,587
748,60	30,823
748,78	30,320
748,95	33,385
749,13	34,842
749,31	30,559
749,49	29,679
749,67	32,124
749,85	33,433
750,03	31,998
750,21	29,640
750,39	31,809
750,57	33,105
750,74	32,190
750,92	29,780
751,10	33,539
751,28	30,371
751,46	30,362
751,64	31,227
751,82	32,922
752,00	32,173
752,17	31,403
752,35	31,450
752,53	32,287
752,71	31,924
752,89	30,045
753,07	28,777
753,25	32,332
753,43	28,986
753,60	32,237
753,78	29,295
753,96	33,432
754,14	30,667
754,32	30,339
754,50	30,124
754,68	33,198
754,85	32,636
755,03	32,245
755,21	30,251
755,39	34,587
755,57	31,650
755,75	30,916
755,92	28,978
756,10	31,803
756,28	32,456
756,46	28,275
756,64	31,058
756,82	32,466
756,99	31,764
757,17	30,606
757,35	29,917
757,53	33,203
757,71	32,996
757,89	29,996
758,06	30,405
758,24	33,278
758,42	32,774
758,60	29,637
758,78	30,777
758,95	31,655
759,13	32,205
759,31	29,626
759,49	30,227
759,67	29,638
759,84	31,178
760,02	31,287
760,20	30,215
760,38	33,039
760,56	31,571
760,73	31,949
760,91	32,017
761,09	32,670
761,27	30,347
761,45	30,162
761,62	28,487
761,80	32,424
761,98	32,622
762,16	31,607
762,33	29,188
762,51	33,396
762,69	31,641
762,87	31,057
763,05	32,378
763,22	28,459
763,40	29,733
763,58	29,701
763,76	30,307
763,93	33,293
764,11	34,254
764,29	29,798
764,47	31,203
764,64	31,119
764,82	33,906
765,00	31,636
765,18	28,532
765,35	32,175
765,53	32,925
765,71	29,967
765,89	29,880
766,06	28,961
766,24	30,777
766,42	31,070
766,60	30,557
766,77	30,044
766,95	31,219
767,13	31,228
767,30	29,206
767,48	28,443
767,66	29,780
767,84	29,367
768,01	30,381
768,19	31,432
768,37	29,169
768,54	30,206
768,72	31,233
768,90	30,720
769,08	33,115
769,25	30,102
769,43	31,532
769,61	29,498
769,78	33,003
769,96	30,876
770,14	31,415
770,31	33,768
770,49	33,652
770,67	31,379
770,85	27,792
771,02	33,808
771,20	30,336
771,38	30,474
771,55	30,035
771,73	29,645
771,91	31,827
772,08	33,457
772,26	30,446
772,44	33,682
772,61	31,097
772,79	30,639
772,97	31,613
773,14	28,671
773,32	31,784
773,50	30,413
773,67	30,214
773,85	35,269
774,03	34,750
774,20	31,600
774,38	30,768
774,56	30,330
774,73	27,743
774,91	29,807
775,09	31,521
775,26	33,118
775,44	34,352
775,61	31,801
775,79	30,918
775,97	32,102
776,14	29,121
776,32	30,750
776,50	30,423
776,67	32,496
776,85	32,222
777,03	29,928
777,20	31,152
777,38	35,759
777,55	30,847
777,73	28,307
777,91	29,562
778,08	33,229
778,26	31,991
778,43	31,471
778,61	28,659
778,79	28,711
778,96	30,320
779,14	30,281
779,32	30,363
779,49	32,296
779,67	34,764
779,84	33,073
780,02	31,080
780,20	29,080
780,37	32,564
780,55	26,808
780,72	32,086
780,90	31,941
781,07	34,295
781,25	30,971
781,43	30,193
781,60	32,715
781,78	32,660
781,95	32,185
782,13	30,513
782,30	34,982
782,48	32,947
782,66	29,746
782,83	29,974
783,01	36,337
783,18	32,373
783,36	31,564
783,53	32,025
783,71	31,822
783,89	31,292
784,06	31,701
784,24	30,832
784,41	33,167
784,59	30,412
784,76	31,835
784,94	31,922
785,11	34,769
785,29	30,787
785,46	31,775
785,64	29,816
785,82	32,966
785,99	34,561
786,17	30,697
786,34	29,539
786,52	34,420
786,69	35,297
786,87	32,231
787,04	29,637
787,22	29,631
787,39	31,928
787,57	33,284
787,74	30,626
787,92	36,292
788,09	33,868
788,27	30,162
788,44	28,582
788,62	32,441
788,79	31,921
788,97	34,897
789,14	31,842
789,32	31,690
789,49	31,565
789,67	33,053
789,84	33,519
790,02	32,299
790,19	31,122
790,37	34,457
790,54	30,558
790,72	38,238
790,89	34,858
791,07	34,357
791,24	29,119
791,42	35,047
791,59	34,284
791,77	30,437
791,94	29,005
792,12	30,097
792,29	36,592
792,47	32,144
792,64	33,701
792,81	30,699
792,99	30,860
793,16	32,626
793,34	32,892
793,51	31,202
793,69	36,568
793,86	30,297
794,04	31,172
794,21	35,194
794,39	28,082
794,56	30,303
794,73	30,976
794,91	35,646
795,08	32,420
795,26	30,987
795,43	32,694
795,61	38,155
795,78	33,770
795,95	34,498
796,13	32,050
796,30	35,348
796,48	32,190
796,65	33,540
796,83	31,628
797,00	38,180
797,17	32,133
797,35	31,062
797,52	32,284
797,70	36,956
797,87	34,574
798,04	30,479
798,22	31,674
798,39	34,759
798,57	32,221
798,74	36,168
798,91	31,128
799,09	32,602
799,26	35,908
799,44	32,301
799,61	26,640
799,78	33,387
799,96	36,946
800,13	31,005
800,31	31,661
800,48	37,781
800,65	39,884
800,83	31,373
801,00	35,044
801,17	34,487
801,35	34,160
801,52	32,613
801,70	33,299
801,87	35,396
802,04	39,257
802,22	37,358
802,39	31,359
802,56	39,342
802,74	34,856
802,91	33,770
803,08	31,523
803,26	35,355
803,43	42,241
803,61	30,063
803,78	32,491
803,95	33,727
804,13	35,305
804,30	31,378
804,47	37,087
804,65	35,346
804,82	33,034
804,99	33,392
805,17	31,440
805,34	41,296
805,51	37,425
805,69	32,762
805,86	31,093
806,03	40,183
806,21	38,593
806,38	31,530
806,55	34,891
806,72	38,035
806,90	35,681
807,07	35,480
807,24	32,613
807,42	31,534
807,59	35,871
807,76	29,419
807,94	32,812
808,11	37,518
808,28	42,354
808,45	37,126
808,63	36,715
808,80	38,384
808,97	38,393
809,15	33,194
809,32	37,689
809,49	32,998
809,67	36,337
809,84	35,665
810,01	39,850
810,18	43,980
810,36	39,405
810,53	34,790
810,70	36,862
810,87	38,974
811,05	35,885
811,22	35,648
811,39	35,498
811,57	37,417
811,74	37,366
811,91	31,295
812,08	32,794
812,26	34,692
812,43	33,007
812,60	37,315
812,77	35,620
812,95	40,415
813,12	42,510
813,29	30,250
813,46	36,510
813,64	39,691
813,81	34,008
813,98	32,033
814,15	36,905
814,32	38,762
814,50	38,135
814,67	34,144
814,84	38,388
815,01	33,612
815,19	30,015
815,36	28,479
815,53	33,053
815,70	34,039
815,87	40,753
816,05	31,132
816,22	33,822
816,39	43,042
816,56	38,748
816,74	33,892
816,91	34,309
817,08	44,403
817,25	38,083
817,42	33,681
817,60	32,968
817,77	36,707
817,94	36,960
818,11	35,316
818,28	37,956
818,45	34,511
818,63	37,610
818,80	33,752
818,97	33,181
819,14	42,166
819,31	45,876
819,49	40,443
819,66	33,095
819,83	40,008
820,00	40,043
820,17	34,293
820,34	40,753
820,52	39,390
820,69	41,689
820,86	33,742
821,03	34,504
821,20	41,683
821,37	42,833
821,55	31,691
821,72	33,002
821,89	31,299
822,06	43,371
822,23	32,024
822,40	37,417
822,57	39,236
822,75	46,456
822,92	33,060
823,09	33,262
823,26	41,404
823,43	42,469
823,60	31,375
823,77	36,800
823,94	41,777
824,12	43,627
824,29	34,655
824,46	32,617
824,63	45,703
824,80	43,524
824,97	35,747
825,14	37,357
825,31	37,521
825,49	37,353
825,66	31,742
825,83	32,886
826,00	40,250
826,17	50,968
826,34	33,688
826,51	29,738
826,68	37,540
826,85	37,923
827,02	33,590
827,20	32,495
827,37	36,399
827,54	39,264
827,71	35,253
827,88	38,138
828,05	40,616
828,22	38,487
828,39	37,588
828,56	38,763
828,73	37,217
828,90	45,478
829,07	33,416
829,25	36,806
829,42	43,137
829,59	38,194
829,76	30,967
829,93	29,111
830,10	44,843
830,27	42,090
830,44	34,754
830,61	32,455
830,78	56,254
830,95	40,880
831,12	33,987
831,29	37,041
831,46	37,187
831,63	37,751
831,80	38,156
831,97	37,271
832,14	48,151
832,31	51,099
832,48	38,332
832,65	40,761
832,83	37,215
833,00	44,694
833,17	36,386
833,34	42,565
833,51	43,476
833,68	48,521
833,85	38,055
834,02	33,434
834,19	40,540
834,36	46,108
834,53	32,001
834,70	40,912
834,87	49,235
835,04	39,779
835,21	38,089
835,38	32,650
835,55	38,046
835,72	57,554
835,89	37,595
836,06	33,784
836,23	56,129
836,40	31,368
836,57	36,548
836,74	46,199
836,91	44,345
837,08	51,592
837,25	41,031
837,42	27,618
837,59	45,644
837,76	41,297
837,93	37,250
838,09	26,724
838,26	48,098
838,43	51,981
838,60	36,328
838,77	32,046
838,94	47,248
839,11	40,557
839,28	33,603
839,45	39,183
839,62	36,896
839,79	38,377
839,96	41,056
840,13	44,999
840,30	37,665
840,47	33,678
840,64	44,565
840,81	36,951
840,98	31,503
841,15	44,030
841,32	27,774
841,48	48,877
841,65	40,358
841,82	36,933
841,99	38,604
842,16	33,778
842,33	47,391
842,50	42,487
842,67	33,604
842,84	44,486
843,01	44,557
843,18	39,816
843,35	39,274
843,52	36,931
843,68	50,308
843,85	44,166
844,02	33,321
844,19	34,040
844,36	55,402
844,53	45,880
844,70	34,369
844,87	49,754
845,04	45,106
845,21	34,880
845,37	42,724
845,54	41,553
845,71	43,796
845,88	70,219
846,05	35,309
846,22	29,812
846,39	46,120
846,56	58,457
846,72	28,001
846,89	47,937
847,06	57,536
847,23	48,322
847,40	30,750
847,57	41,224
847,74	37,795
847,90	53,221
848,07	39,265
848,24	42,441
848,41	48,053
848,58	75,164
848,75	48,991
848,92	35,545
849,08	42,276
849,25	44,431
849,42	38,779
849,59	52,555
849,76	35,553
849,93	53,203
850,09	46,029
850,26	31,966
850,43	55,042
850,60	38,518
850,77	30,895
850,94	43,033
851,10	54,368
851,27	40,380
851,44	34,640
851,61	36,903
851,78	60,419
851,95	51,937
852,11	35,569
852,28	40,338
852,45	52,821
852,62	44,078
852,79	43,189
852,95	32,546
853,12	57,606
853,29	47,158
853,46	36,770
853,63	44,441
853,79	50,527
853,96	43,513
854,13	53,010
854,30	43,801
854,46	69,560
854,63	49,543
854,80	39,408
854,97	36,809
855,14	63,520
855,30	61,097
855,47	37,737
855,64	48,278
855,81	51,641
855,97	67,350
856,14	51,471
856,31	27,899
856,48	68,011
856,65	64,302
856,81	44,046
856,98	40,946
857,15	37,507
857,32	57,670
857,48	29,787
857,65	49,237
857,82	60,815
857,99	54,039
858,15	46,967
858,32	46,332
858,49	47,398
858,65	74,887
858,82	44,259
858,99	46,095
859,16	64,734
859,32	61,116
859,49	38,535
859,66	54,125
859,83	52,424
859,99	42,942
860,16	51,624
860,33	44,863
860,49	56,358
860,66	66,063
860,83	45,187
861,00	38,083
861,16	65,919
861,33	63,736
861,50	37,812
861,66	37,710
861,83	78,573
862,00	47,572
862,16	51,396
862,33	35,276
862,50	89,514
862,67	56,852
862,83	42,445
863,00	53,538
863,17	76,895
863,33	64,622
863,50	26,821
863,67	44,474
863,83	62,170
864,00	65,491
864,17	28,053
864,33	43,199
864,50	58,722
864,67	42,842
864,83	38,702
865,00	30,176
865,17	53,865
865,33	79,659
865,50	42,193
865,67	38,118
865,83	54,295
866,00	97,418
866,17	52,288
866,33	66,755
866,50	89,661
866,66	64,298
866,83	64,654
867,00	60,776
867,16	86,648
867,33	52,023
867,50	18,301
867,66	39,744
867,83	92,245
868,00	78,433
868,16	51,104
868,33	53,784
868,49	54,183
868,66	78,628
868,83	48,319
868,99	61,786
869,16	80,353
869,32	82,248
869,49	57,493
869,66	43,633
869,82	91,090
869,99	83,121
870,15	27,925
870,32	66,051
870,49	95,680
870,65	133,954
870,82	76,365
870,98	55,550
871,15	114,721
871,32	74,723
871,48	19,289
871,65	22,934
871,81	89,763
871,98	52,749
872,15	34,215
872,31	50,325
872,48	115,678
872,64	66,197
872,81	33,374
872,97	60,954
873,14	72,070
873,31	78,424
873,47	62,206
873,64	70,106
873,80	98,542
873,97	127,248
874,13	33,377
874,30	82,622
874,46	93,348
874,63	65,345
874,80	44,804
874,96	36,209
875,13	107,177
875,29	58,412
875,46	63,954
875,62	29,252
875,79	93,401
875,95	72,396
876,12	51,227
876,28	40,264
876,45	133,121
876,61	75,168
876,78	73,085
876,94	41,098
877,11	78,895
877,27	103,993
877,44	40,335
877,60	46,377
877,77	121,839
877,94	114,398
878,10	18,835
878,27	60,387
878,43	129,708
878,60	72,272
878,76	48,715
878,93	27,365
879,09	125,917
879,26	124,177
879,42	94,144
879,58	93,429
879,75	101,236
879,91	134,861
880,08	-3,136
880,24	69,825
880,41	86,707
880,57	101,694
880,74	43,201
880,90	33,851
881,07	61,529
881,23	125,977
881,40	52,048
881,56	70,043
881,73	129,126
881,89	71,748
882,06	-1,871
882,22	172,705
882,38	133,463
882,55	178,092
882,71	90,841
882,88	39,992
883,04	197,331
883,21	198,811
883,37	81,948
883,54	98,720
883,70	268,631
883,86	150,346
884,03	65,685
884,19	41,571
884,36	131,140
884,52	249,488
884,69	85,489
884,85	46,997
885,01	240,221
885,18	158,947
885,34	112,519
885,51	-2,283
885,67	104,803
>>>>> Data<<<<< Espectral Procesado Extremo
