Fichero De Datos De SpectraSuite
++++++++++++++++++++++++++++++++++++
Fecha: Wed Apr 22 13:13:35 CEST 2009
Usuario: evoflor
Presente Oscuro Del Espectro: Sí
La Referencia de Presente Del Espectro De: Sí
Muestreados de los componentes de Número de espectros: 1
Espectrómetros: USB4F02353
Tiempo de integración (usec): 500000 (USB4F02353)
Promedio de Espectros Hechos un: 5 (USB4F02353)
El Alisar Del Furgón: 0 (USB4F02353)
Párrafo de de Corregir del la del del de Eléctrica del obscuridad: Sí (USB4F02353)
Estrobo/Lámpara Permitido: No (USB4F02353)
Correct for Detector Non-linearity: No (USB4F02353)
Párrafo de de Corregir del la del del de Externa del luz: No (USB4F02353)
Procesado del espectro de Número de pixeles en: 3648
>>>>> Comienza Data<<<<< Espectral Procesado Del EL
177,79	298,742
178,00	298,742
178,22	298,742
178,44	1259,011
178,66	-439,973
178,88	320,423
179,09	-404,809
179,31	392,400
179,53	879,659
179,75	156,416
179,96	835,603
180,18	-165,323
180,40	586,720
180,62	493,448
180,83	-213,099
181,05	-2268,659
181,27	-182430,000
181,49	-146,152
181,70	345,115
181,92	1099,645
182,14	739,247
182,36	69,350
182,58	218,700
182,79	1063,527
183,01	-59,406
183,23	237,285
183,45	-181,938
183,66	-448,805
183,88	803,118
184,10	-3104,182
184,32	393,639
184,53	227,211
184,75	-244,240
184,97	8,233
185,18	-82,387
185,40	-561,202
185,62	166,867
185,84	19,061
186,05	85,421
186,27	-243,810
186,49	4074,231
186,71	-73,402
186,92	204,268
187,14	-172,089
187,36	178,491
187,58	122,920
187,79	-74,818
188,01	419,675
188,23	-201,222
188,45	-24,164
188,66	-33,348
188,88	-2531,455
189,10	-2193,300
189,31	81,860
189,53	84,909
189,75	435,068
189,97	618,577
190,18	-283,133
190,40	559,588
190,62	-103,602
190,83	-316,401
191,05	347,266
191,27	307,800
191,49	471,609
191,70	-578,510
191,92	-432,458
192,14	-22,140
192,35	717,851
192,57	6112,286
192,79	-8,287
193,01	261,100
193,22	153,868
193,44	-303,635
193,66	124,236
193,87	203,704
194,09	-97,639
194,31	220,154
194,53	942,168
194,74	43,113
194,96	72,161
195,18	105,076
195,39	-478,971
195,61	-129,385
195,83	-500,283
196,04	178,981
196,26	-509,698
196,48	66,546
196,70	405,626
196,91	177,792
197,13	350,203
197,35	14,722
197,56	706,904
197,78	2348,731
198,00	489,021
198,21	134,126
198,43	-788,547
198,65	157,282
198,86	504,065
199,08	-24,492
199,30	300,061
199,51	-424,202
199,73	305,178
199,95	286,708
200,16	978,577
200,38	186,361
200,60	160,100
200,81	350,171
201,03	209,592
201,25	-1320,300
201,46	190,273
201,68	-7,041
201,90	3430,227
202,11	-562,328
202,33	38,294
202,55	412,875
202,76	-50,149
202,98	215,436
203,20	-223,702
203,41	34,579
203,63	218,391
203,85	-140130,000
204,06	80,812
204,28	-250,916
204,50	196,420
204,71	473,375
204,93	235,440
205,15	392,259
205,36	-331,606
205,58	255,144
205,80	-117,048
206,01	161,740
206,23	194,333
206,45	275,868
206,66	271,853
206,88	-91,815
207,10	332,795
207,31	409,709
207,53	32,657
207,75	122,404
207,96	1650,224
208,18	-305,171
208,39	128,704
208,61	4235,143
208,83	-556,003
209,04	80,364
209,26	-367,880
209,48	144,394
209,69	239,081
209,91	777,466
210,13	57,176
210,34	-20,266
210,56	214,568
210,77	-1478,976
210,99	111,450
211,21	9725,294
211,42	-308,365
211,64	-3,985
211,86	258,805
212,07	270,130
212,29	269,421
212,50	139,331
212,72	324,346
212,94	136,891
213,15	157,763
213,37	152,277
213,58	-198,958
213,80	-4297,500
214,02	15178,235
214,23	377,245
214,45	539,115
214,67	167,927
214,88	-412,852
215,10	-409,912
215,31	-85,087
215,53	-55,841
215,75	229,617
215,96	1999,565
216,18	-231,972
216,39	243,713
216,61	575,175
216,83	669,777
217,04	1685,730
217,26	59,081
217,47	148,824
217,69	371,112
217,91	30,851
218,12	-146430,000
218,34	111,158
218,55	522,095
218,77	15,624
218,99	80,892
219,20	-139,211
219,42	416,662
219,63	33,198
219,85	-84,508
220,06	-149,885
220,28	202,479
220,50	75,891
220,71	76,403
220,93	4749,623
221,14	-2580,300
221,36	-90,688
221,58	15,218
221,79	371,985
222,01	1347,672
222,22	690,987
222,44	300,337
222,65	103,704
222,87	451,259
223,09	137,797
223,30	124,092
223,52	163,932
223,73	149,837
223,95	65,535
224,16	186,866
224,38	455,758
224,60	38,981
224,81	329,304
225,03	124,593
225,24	218,346
225,46	92,243
225,67	-5,809
225,89	102,134
226,10	782,620
226,32	1200,240
226,54	-23,769
226,75	2,787
226,97	203,775
227,18	176,641
227,40	108,152
227,61	73,360
227,83	36,266
228,04	136,456
228,26	73,790
228,47	55,052
228,69	257,594
228,91	108,769
229,12	97,296
229,34	26,747
229,55	112,335
229,77	7,522
229,98	6,168
230,20	59,061
230,41	28,412
230,63	123,072
230,84	32,531
231,06	39,656
231,27	24,164
231,49	82,758
231,71	43,420
231,92	35,850
232,14	18,836
232,35	70,437
232,57	71,896
232,78	22,007
233,00	45,397
233,21	35,138
233,43	15,164
233,64	14,144
233,86	39,933
234,07	49,527
234,29	17,911
234,50	48,307
234,72	47,670
234,93	25,612
235,15	35,460
235,36	27,770
235,58	33,412
235,79	71,731
236,01	22,583
236,22	21,841
236,44	56,231
236,65	37,827
236,87	19,601
237,08	7,101
237,30	0,655
237,51	28,733
237,73	-5,780
237,94	6,503
238,16	20,421
238,37	26,988
238,59	9,504
238,80	20,500
239,02	9,721
239,23	27,461
239,45	2,650
239,66	23,199
239,88	39,731
240,09	26,509
240,31	11,175
240,52	7,348
240,74	15,321
240,95	12,313
241,17	-1,889
241,38	10,194
241,60	5,475
241,81	29,486
242,03	6,275
242,24	15,678
242,46	22,507
242,67	6,727
242,89	5,720
243,10	14,275
243,32	19,262
243,53	12,775
243,75	8,943
243,96	15,506
244,18	14,317
244,39	15,166
244,60	9,574
244,82	-1,933
245,03	28,095
245,25	11,659
245,46	22,158
245,68	7,484
245,89	18,964
246,11	18,047
246,32	9,126
246,54	8,957
246,75	16,329
246,97	18,171
247,18	24,242
247,39	2,003
247,61	8,739
247,82	18,980
248,04	6,868
248,25	8,890
248,47	16,631
248,68	10,714
248,90	0,220
249,11	2,730
249,33	12,027
249,54	7,852
249,75	11,125
249,97	2,480
250,18	18,253
250,40	18,584
250,61	-4,929
250,83	3,820
251,04	1,308
251,25	14,161
251,47	2,249
251,68	9,373
251,90	14,084
252,11	8,169
252,33	4,369
252,54	9,252
252,76	7,360
252,97	1,176
253,18	-1,375
253,40	5,986
253,61	2,931
253,83	9,360
254,04	10,195
254,25	6,183
254,47	7,640
254,68	7,622
254,90	2,206
255,11	8,748
255,33	9,621
255,54	9,325
255,75	6,475
255,97	8,889
256,18	1,924
256,40	10,893
256,61	8,872
256,82	0,490
257,04	11,725
257,25	2,006
257,47	9,741
257,68	6,169
257,89	12,363
258,11	12,707
258,32	7,304
258,54	7,989
258,75	13,215
258,96	14,021
259,18	7,989
259,39	1,405
259,61	9,842
259,82	7,411
260,03	7,916
260,25	13,101
260,46	8,712
260,68	7,202
260,89	5,388
261,10	3,632
261,32	6,924
261,53	5,609
261,75	9,137
261,96	1,069
262,17	10,901
262,39	17,204
262,60	0,842
262,81	0,071
263,03	9,427
263,24	7,831
263,46	1,710
263,67	3,393
263,88	10,818
264,10	9,621
264,31	4,384
264,52	5,742
264,74	10,375
264,95	9,018
265,17	7,535
265,38	8,100
265,59	13,141
265,81	11,836
266,02	0,984
266,23	2,865
266,45	13,284
266,66	10,275
266,87	6,235
267,09	3,170
267,30	10,429
267,52	12,180
267,73	7,324
267,94	4,636
268,16	6,071
268,37	6,106
268,58	9,154
268,80	2,608
269,01	6,760
269,22	6,098
269,44	2,826
269,65	3,782
269,86	6,339
270,08	8,727
270,29	0,897
270,50	2,383
270,72	11,088
270,93	5,017
271,14	-0,449
271,36	3,437
271,57	5,607
271,78	8,967
272,00	10,344
272,21	5,042
272,42	9,321
272,64	8,235
272,85	5,854
273,06	6,870
273,28	7,968
273,49	8,673
273,70	7,473
273,92	7,231
274,13	5,247
274,34	1,049
274,56	5,211
274,77	3,229
274,98	6,668
275,20	2,556
275,41	10,857
275,62	6,524
275,84	7,358
276,05	13,755
276,26	2,246
276,47	3,526
276,69	5,535
276,90	8,721
277,11	1,729
277,33	6,095
277,54	7,369
277,75	6,483
277,97	2,288
278,18	-1,019
278,39	7,298
278,61	4,983
278,82	5,002
279,03	4,168
279,24	6,607
279,46	6,207
279,67	10,063
279,88	6,080
280,10	12,280
280,31	3,812
280,52	6,723
280,73	2,924
280,95	5,352
281,16	8,790
281,37	3,471
281,59	10,010
281,80	13,881
282,01	4,511
282,22	5,224
282,44	1,573
282,65	13,191
282,86	11,301
283,08	3,794
283,29	4,952
283,50	3,744
283,71	6,898
283,93	8,322
284,14	8,808
284,35	5,884
284,56	4,843
284,78	4,303
284,99	5,966
285,20	9,705
285,42	7,253
285,63	5,951
285,84	1,037
286,05	4,068
286,27	4,884
286,48	5,702
286,69	4,610
286,90	3,914
287,12	5,525
287,33	0,699
287,54	5,775
287,75	6,072
287,97	6,020
288,18	3,388
288,39	-0,414
288,60	8,122
288,82	5,038
289,03	2,712
289,24	6,756
289,45	8,641
289,67	7,008
289,88	4,621
290,09	8,268
290,30	8,795
290,52	4,163
290,73	4,299
290,94	-0,915
291,15	3,924
291,37	8,550
291,58	3,033
291,79	3,195
292,00	6,254
292,21	5,624
292,43	2,748
292,64	2,823
292,85	5,777
293,06	7,953
293,28	3,173
293,49	1,655
293,70	9,116
293,91	2,112
294,12	5,390
294,34	1,246
294,55	6,601
294,76	5,704
294,97	8,162
295,19	1,388
295,40	5,836
295,61	7,497
295,82	1,126
296,03	6,906
296,25	4,918
296,46	3,009
296,67	0,345
296,88	0,954
297,09	6,332
297,31	2,913
297,52	6,481
297,73	1,785
297,94	6,298
298,15	4,168
298,37	4,291
298,58	7,880
298,79	5,543
299,00	3,572
299,21	5,314
299,43	2,910
299,64	8,328
299,85	4,377
300,06	5,040
300,27	0,682
300,49	9,020
300,70	5,817
300,91	6,414
301,12	3,870
301,33	8,174
301,54	3,170
301,76	3,532
301,97	-0,597
302,18	1,883
302,39	8,137
302,60	10,955
302,82	2,326
303,03	9,099
303,24	6,674
303,45	4,632
303,66	4,058
303,87	3,289
304,09	5,901
304,30	5,679
304,51	3,426
304,72	1,347
304,93	5,943
305,14	5,260
305,36	1,749
305,57	2,832
305,78	5,951
305,99	2,273
306,20	4,920
306,41	3,166
306,62	1,634
306,84	4,630
307,05	0,751
307,26	4,302
307,47	8,561
307,68	4,585
307,89	2,337
308,11	6,024
308,32	3,937
308,53	4,274
308,74	1,765
308,95	4,207
309,16	6,525
309,37	7,709
309,59	2,845
309,80	5,064
310,01	5,227
310,22	6,325
310,43	4,918
310,64	4,863
310,85	7,560
311,06	2,836
311,28	4,145
311,49	4,060
311,70	10,317
311,91	2,878
312,12	1,841
312,33	7,450
312,54	5,791
312,75	4,338
312,97	2,342
313,18	9,482
313,39	3,596
313,60	3,111
313,81	4,477
314,02	6,737
314,23	8,546
314,44	3,149
314,65	4,030
314,87	4,306
315,08	4,623
315,29	7,397
315,50	5,778
315,71	8,100
315,92	7,197
316,13	5,358
316,34	4,821
316,55	7,104
316,77	0,648
316,98	1,335
317,19	3,038
317,40	7,531
317,61	8,171
317,82	4,738
318,03	1,065
318,24	4,251
318,45	11,927
318,66	3,346
318,87	1,190
319,09	6,827
319,30	6,170
319,51	6,874
319,72	6,456
319,93	6,352
320,14	7,520
320,35	7,632
320,56	1,979
320,77	2,804
320,98	9,812
321,19	6,117
321,40	1,493
321,62	8,546
321,83	4,938
322,04	5,500
322,25	4,314
322,46	8,339
322,67	5,894
322,88	6,270
323,09	2,112
323,30	10,462
323,51	8,923
323,72	5,967
323,93	2,084
324,14	6,121
324,35	0,095
324,56	1,004
324,77	4,642
324,99	6,581
325,20	0,954
325,41	3,078
325,62	6,090
325,83	4,040
326,04	5,391
326,25	6,669
326,46	2,296
326,67	5,853
326,88	7,597
327,09	4,017
327,30	1,620
327,51	5,509
327,72	5,767
327,93	6,858
328,14	1,690
328,35	4,654
328,56	6,946
328,77	3,677
328,98	6,556
329,19	6,378
329,40	5,968
329,61	3,749
329,82	0,483
330,04	7,610
330,25	3,382
330,46	6,307
330,67	3,640
330,88	4,714
331,09	5,420
331,30	2,830
331,51	4,360
331,72	6,755
331,93	6,536
332,14	6,318
332,35	6,402
332,56	3,346
332,77	6,435
332,98	1,647
333,19	1,332
333,40	5,360
333,61	3,939
333,82	7,310
334,03	5,543
334,24	7,008
334,45	6,909
334,66	7,187
334,87	2,352
335,08	2,324
335,29	3,093
335,50	1,652
335,71	2,431
335,92	7,426
336,13	8,057
336,34	0,609
336,55	5,639
336,76	7,872
336,97	4,992
337,18	3,314
337,39	2,840
337,60	6,118
337,81	7,434
338,02	6,290
338,23	4,648
338,44	5,953
338,65	3,205
338,86	6,452
339,07	2,228
339,28	4,523
339,49	4,521
339,70	4,077
339,91	3,632
340,11	7,432
340,32	4,822
340,53	2,243
340,74	-1,318
340,95	4,637
341,16	4,601
341,37	3,306
341,58	2,953
341,79	5,760
342,00	2,896
342,21	3,585
342,42	3,230
342,63	8,412
342,84	2,794
343,05	4,900
343,26	6,075
343,47	3,972
343,68	2,473
343,89	3,501
344,10	5,624
344,31	6,093
344,52	5,173
344,73	2,126
344,94	5,318
345,14	6,526
345,35	7,035
345,56	4,743
345,77	3,190
345,98	4,080
346,19	6,543
346,40	3,200
346,61	2,667
346,82	6,553
347,03	6,157
347,24	6,526
347,45	2,624
347,66	8,659
347,87	3,623
348,08	6,502
348,28	0,961
348,49	8,163
348,70	8,809
348,91	4,970
349,12	0,048
349,33	21,616
349,54	2,859
349,75	6,061
349,96	4,361
350,17	6,109
350,38	4,756
350,59	5,235
350,80	2,720
351,00	8,632
351,21	7,281
351,42	2,634
351,63	4,133
351,84	7,106
352,05	8,189
352,26	1,953
352,47	3,816
352,68	8,536
352,89	8,458
353,09	7,357
353,30	2,037
353,51	3,946
353,72	9,047
353,93	8,846
354,14	1,347
354,35	5,250
354,56	12,131
354,77	2,814
354,98	-0,458
355,18	7,544
355,39	13,764
355,60	4,524
355,81	4,919
356,02	5,918
356,23	5,032
356,44	4,279
356,65	6,271
356,85	13,354
357,06	8,002
357,27	5,100
357,48	1,400
357,69	5,621
357,90	8,486
358,11	1,587
358,32	6,226
358,52	9,032
358,73	2,916
358,94	2,804
359,15	5,436
359,36	7,699
359,57	3,723
359,78	7,143
359,98	1,492
360,19	3,003
360,40	6,807
360,61	9,132
360,82	4,826
361,03	11,638
361,24	9,249
361,44	5,043
361,65	5,471
361,86	3,215
362,07	7,891
362,28	4,874
362,49	0,934
362,70	6,182
362,90	6,123
363,11	1,860
363,32	2,456
363,53	6,003
363,74	8,120
363,95	11,218
364,15	8,624
364,36	9,781
364,57	5,801
364,78	2,131
364,99	6,584
365,20	7,902
365,40	7,462
365,61	3,375
365,82	8,864
366,03	9,129
366,24	6,093
366,45	2,544
366,65	3,432
366,86	3,281
367,07	7,998
367,28	4,713
367,49	4,089
367,69	8,055
367,90	5,491
368,11	4,689
368,32	3,106
368,53	6,116
368,73	8,523
368,94	1,281
369,15	5,387
369,36	9,093
369,57	4,992
369,78	5,205
369,98	6,441
370,19	11,799
370,40	4,680
370,61	4,559
370,82	2,696
371,02	8,941
371,23	10,070
371,44	1,821
371,65	5,548
371,85	9,671
372,06	3,741
372,27	3,963
372,48	4,009
372,69	6,685
372,89	4,031
373,10	2,441
373,31	6,010
373,52	6,151
373,73	10,118
373,93	3,015
374,14	4,219
374,35	10,003
374,56	9,666
374,76	3,474
374,97	5,625
375,18	6,653
375,39	7,664
375,60	5,936
375,80	5,059
376,01	2,455
376,22	7,202
376,43	6,009
376,63	3,580
376,84	4,617
377,05	7,258
377,26	3,988
377,46	0,935
377,67	3,454
377,88	5,046
378,09	4,377
378,29	1,194
378,50	9,155
378,71	8,211
378,92	2,194
379,12	5,664
379,33	5,237
379,54	3,820
379,75	6,829
379,95	4,123
380,16	6,452
380,37	12,197
380,58	4,674
380,78	6,157
380,99	4,275
381,20	4,694
381,41	4,919
381,61	4,963
381,82	7,115
382,03	8,098
382,24	6,399
382,44	5,281
382,65	5,443
382,86	4,995
383,06	4,730
383,27	6,817
383,48	4,395
383,69	7,306
383,89	7,726
384,10	5,308
384,31	6,339
384,51	8,884
384,72	6,366
384,93	3,180
385,14	5,577
385,34	7,819
385,55	4,147
385,76	1,192
385,96	8,650
386,17	8,538
386,38	9,563
386,59	7,903
386,79	5,074
387,00	8,381
387,21	10,438
387,41	7,333
387,62	2,960
387,83	8,145
388,03	6,461
388,24	1,922
388,45	9,150
388,66	3,924
388,86	8,849
389,07	3,949
389,28	9,422
389,48	9,644
389,69	4,173
389,90	5,267
390,10	8,902
390,31	12,192
390,52	0,156
390,72	4,786
390,93	8,873
391,14	5,539
391,34	4,763
391,55	7,614
391,76	13,073
391,96	7,995
392,17	5,298
392,38	8,659
392,58	8,238
392,79	5,496
393,00	3,428
393,20	6,162
393,41	8,444
393,62	8,670
393,82	7,823
394,03	10,404
394,24	6,398
394,44	13,367
394,65	11,233
394,86	5,985
395,06	8,438
395,27	8,172
395,48	7,579
395,68	8,988
395,89	12,937
396,10	11,658
396,30	7,844
396,51	6,076
396,72	12,769
396,92	6,873
397,13	11,744
397,34	6,253
397,54	12,671
397,75	8,777
397,95	9,084
398,16	8,779
398,37	9,361
398,57	10,174
398,78	9,292
398,99	11,191
399,19	12,609
399,40	13,024
399,60	8,093
399,81	11,002
400,02	10,873
400,22	12,725
400,43	8,556
400,64	13,240
400,84	10,312
401,05	11,231
401,25	13,914
401,46	11,723
401,67	13,645
401,87	12,437
402,08	8,205
402,29	9,936
402,49	16,567
402,70	19,014
402,90	11,231
403,11	9,762
403,32	16,590
403,52	11,966
403,73	13,603
403,93	15,943
404,14	20,082
404,35	17,422
404,55	11,863
404,76	12,259
404,96	18,163
405,17	18,995
405,38	19,891
405,58	14,655
405,79	20,855
405,99	17,920
406,20	16,207
406,40	12,811
406,61	18,524
406,82	19,816
407,02	19,596
407,23	18,236
407,43	19,111
407,64	18,514
407,85	17,318
408,05	15,585
408,26	25,922
408,46	24,404
408,67	15,977
408,87	19,235
409,08	20,561
409,29	28,036
409,49	23,355
409,70	21,818
409,90	22,491
410,11	22,991
410,31	27,085
410,52	21,860
410,72	25,099
410,93	23,577
411,14	21,819
411,34	18,276
411,55	29,865
411,75	28,356
411,96	27,042
412,16	25,635
412,37	22,396
412,57	28,895
412,78	26,742
412,99	25,068
413,19	28,694
413,40	24,451
413,60	21,711
413,81	25,950
414,01	27,068
414,22	27,571
414,42	26,575
414,63	24,980
414,83	31,451
415,04	35,796
415,24	30,785
415,45	24,662
415,65	31,795
415,86	31,242
416,07	31,249
416,27	28,779
416,48	32,779
416,68	36,104
416,89	25,210
417,09	28,244
417,30	36,874
417,50	30,390
417,71	36,085
417,91	35,265
418,12	31,886
418,32	37,224
418,53	31,681
418,73	27,738
418,94	31,763
419,14	35,392
419,35	29,214
419,55	31,763
419,76	38,949
419,96	36,982
420,17	32,324
420,37	33,986
420,58	36,962
420,78	35,458
420,99	35,621
421,19	37,440
421,40	34,409
421,60	39,739
421,81	33,828
422,01	38,575
422,22	37,984
422,42	39,976
422,63	36,417
422,83	33,115
423,04	45,233
423,24	40,945
423,45	34,592
423,65	42,006
423,86	44,606
424,06	40,802
424,27	36,530
424,47	38,096
424,67	38,295
424,88	41,999
425,08	36,419
425,29	46,405
425,49	37,803
425,70	34,147
425,90	38,704
426,11	37,405
426,31	40,964
426,52	45,429
426,72	39,163
426,93	41,336
427,13	43,471
427,33	40,843
427,54	41,089
427,74	44,236
427,95	43,743
428,15	36,536
428,36	41,403
428,56	38,271
428,77	43,729
428,97	39,802
429,18	41,039
429,38	38,471
429,58	45,209
429,79	45,846
429,99	38,498
430,20	38,320
430,40	44,112
430,61	37,345
430,81	38,716
431,01	45,058
431,22	44,543
431,42	46,865
431,63	38,820
431,83	41,466
432,04	43,136
432,24	46,094
432,44	41,773
432,65	38,631
432,85	41,170
433,06	41,996
433,26	38,978
433,47	42,131
433,67	37,564
433,87	40,847
434,08	38,977
434,28	37,438
434,49	42,285
434,69	43,193
434,89	39,635
435,10	40,316
435,30	41,783
435,51	39,407
435,71	40,005
435,91	36,612
436,12	44,714
436,32	39,389
436,53	43,903
436,73	44,562
436,93	43,898
437,14	44,013
437,34	45,126
437,55	45,032
437,75	43,018
437,95	46,483
438,16	40,910
438,36	42,055
438,57	44,014
438,77	44,055
438,97	48,938
439,18	47,707
439,38	43,137
439,58	42,616
439,79	43,542
439,99	38,316
440,20	48,728
440,40	49,755
440,60	42,001
440,81	46,885
441,01	44,086
441,21	46,798
441,42	46,939
441,62	48,177
441,83	43,703
442,03	47,367
442,23	44,800
442,44	46,063
442,64	47,238
442,84	43,197
443,05	42,944
443,25	41,369
443,45	46,113
443,66	43,722
443,86	41,244
444,06	44,269
444,27	42,154
444,47	45,533
444,67	42,032
444,88	45,813
445,08	46,992
445,28	46,134
445,49	40,925
445,69	44,633
445,90	46,183
446,10	51,429
446,30	47,913
446,51	42,396
446,71	49,972
446,91	47,716
447,12	51,060
447,32	47,972
447,52	46,324
447,72	48,619
447,93	46,128
448,13	42,088
448,33	51,096
448,54	53,125
448,74	38,447
448,94	46,106
449,15	49,612
449,35	52,542
449,55	44,651
449,76	47,918
449,96	44,159
450,16	48,863
450,37	42,366
450,57	46,117
450,77	41,945
450,98	49,260
451,18	48,525
451,38	42,924
451,58	47,393
451,79	47,860
451,99	45,996
452,19	42,515
452,40	47,361
452,60	44,548
452,80	43,019
453,00	49,556
453,21	47,250
453,41	49,806
453,61	47,160
453,82	47,639
454,02	42,535
454,22	49,018
454,42	48,120
454,63	43,534
454,83	45,515
455,03	46,634
455,24	42,241
455,44	43,294
455,64	42,514
455,84	45,514
456,05	45,421
456,25	43,459
456,45	44,228
456,65	45,246
456,86	46,550
457,06	47,165
457,26	51,497
457,47	48,999
457,67	43,424
457,87	41,092
458,07	45,017
458,28	45,855
458,48	47,476
458,68	42,853
458,88	48,973
459,09	45,225
459,29	49,212
459,49	45,132
459,69	44,526
459,90	46,863
460,10	41,396
460,30	48,729
460,50	43,948
460,71	46,518
460,91	38,678
461,11	46,662
461,31	39,949
461,52	50,125
461,72	42,808
461,92	45,289
462,12	54,568
462,32	43,681
462,53	45,393
462,73	45,226
462,93	48,058
463,13	47,825
463,34	42,664
463,54	43,179
463,74	46,606
463,94	45,301
464,14	42,911
464,35	43,723
464,55	46,573
464,75	53,832
464,95	43,010
465,16	38,357
465,36	48,072
465,56	42,436
465,76	41,739
465,96	39,635
466,17	41,461
466,37	44,939
466,57	47,360
466,77	43,986
466,97	37,417
467,18	46,926
467,38	44,352
467,58	43,349
467,78	52,365
467,98	45,201
468,19	47,572
468,39	48,116
468,59	49,233
468,79	47,896
468,99	46,246
469,19	40,153
469,40	49,295
469,60	43,962
469,80	39,267
470,00	47,428
470,20	44,019
470,41	40,862
470,61	46,306
470,81	45,891
471,01	43,869
471,21	50,497
471,41	40,586
471,62	43,064
471,82	42,853
472,02	42,721
472,22	46,609
472,42	42,447
472,62	45,433
472,83	43,110
473,03	46,754
473,23	41,148
473,43	50,026
473,63	45,954
473,83	42,751
474,03	41,503
474,24	50,328
474,44	40,963
474,64	43,949
474,84	41,119
475,04	44,183
475,24	46,166
475,45	45,089
475,65	45,856
475,85	48,206
476,05	36,273
476,25	43,696
476,45	40,569
476,65	47,765
476,85	42,388
477,06	42,367
477,26	43,565
477,46	44,307
477,66	44,027
477,86	42,573
478,06	42,109
478,26	51,330
478,46	40,463
478,67	41,886
478,87	43,079
479,07	42,933
479,27	47,077
479,47	39,264
479,67	36,700
479,87	41,068
480,07	42,794
480,28	41,215
480,48	40,071
480,68	42,828
480,88	45,052
481,08	41,704
481,28	41,721
481,48	43,036
481,68	39,193
481,88	38,603
482,08	37,667
482,29	47,635
482,49	36,585
482,69	39,333
482,89	38,225
483,09	43,093
483,29	38,362
483,49	37,572
483,69	42,887
483,89	38,717
484,09	38,356
484,29	34,725
484,50	38,364
484,70	43,812
484,90	37,198
485,10	37,204
485,30	40,780
485,50	44,582
485,70	41,112
485,90	38,021
486,10	37,721
486,30	38,198
486,50	37,841
486,70	36,182
486,90	37,285
487,10	41,054
487,30	37,418
487,51	39,298
487,71	35,502
487,91	35,947
488,11	40,534
488,31	35,972
488,51	40,426
488,71	36,066
488,91	38,663
489,11	36,211
489,31	36,193
489,51	36,416
489,71	38,221
489,91	38,378
490,11	35,792
490,31	38,020
490,51	38,652
490,71	34,338
490,91	37,089
491,11	39,487
491,31	36,951
491,51	34,746
491,72	38,674
491,92	39,292
492,12	41,945
492,32	37,428
492,52	39,351
492,72	36,445
492,92	38,762
493,12	38,435
493,32	35,797
493,52	34,155
493,72	39,076
493,92	39,424
494,12	35,156
494,32	38,171
494,52	37,781
494,72	35,335
494,92	36,099
495,12	39,731
495,32	38,085
495,52	35,568
495,72	39,072
495,92	41,291
496,12	39,481
496,32	33,482
496,52	37,214
496,72	36,876
496,92	38,247
497,12	35,687
497,32	38,621
497,52	38,167
497,72	39,681
497,92	38,359
498,12	34,068
498,32	35,893
498,52	37,837
498,72	33,717
498,92	36,060
499,12	39,058
499,32	33,616
499,52	37,742
499,72	39,340
499,92	38,907
500,12	38,060
500,32	39,869
500,52	36,311
500,72	42,478
500,91	40,303
501,11	38,275
501,31	30,814
501,51	40,489
501,71	39,932
501,91	36,954
502,11	36,007
502,31	36,825
502,51	40,205
502,71	35,802
502,91	35,300
503,11	37,744
503,31	38,627
503,51	32,134
503,71	32,454
503,91	39,473
504,11	37,425
504,31	35,219
504,51	36,225
504,71	39,379
504,91	34,503
505,10	36,564
505,30	35,781
505,50	36,613
505,70	31,999
505,90	35,801
506,10	31,383
506,30	33,736
506,50	35,703
506,70	36,888
506,90	31,711
507,10	35,867
507,30	32,178
507,50	35,927
507,70	34,993
507,89	37,734
508,09	35,120
508,29	33,043
508,49	34,544
508,69	33,216
508,89	34,227
509,09	33,351
509,29	34,591
509,49	35,073
509,69	40,138
509,89	32,938
510,09	30,510
510,28	33,168
510,48	31,797
510,68	31,165
510,88	31,858
511,08	29,736
511,28	32,452
511,48	29,684
511,68	31,673
511,88	29,082
512,07	32,787
512,27	33,423
512,47	30,490
512,67	31,562
512,87	27,818
513,07	31,205
513,27	27,656
513,47	30,260
513,67	29,392
513,86	31,633
514,06	31,082
514,26	30,226
514,46	32,640
514,66	30,892
514,86	33,327
515,06	34,536
515,26	34,058
515,45	30,514
515,65	27,420
515,85	33,177
516,05	27,583
516,25	30,038
516,45	30,266
516,65	27,359
516,84	33,151
517,04	32,577
517,24	30,733
517,44	32,465
517,64	30,059
517,84	31,803
518,04	30,345
518,23	32,376
518,43	32,145
518,63	27,130
518,83	26,395
519,03	29,854
519,23	30,841
519,42	29,882
519,62	25,655
519,82	26,653
520,02	31,486
520,22	26,834
520,42	25,043
520,61	30,322
520,81	29,410
521,01	33,088
521,21	27,213
521,41	28,653
521,61	31,615
521,80	23,964
522,00	29,392
522,20	29,077
522,40	29,677
522,60	28,269
522,79	25,733
522,99	29,435
523,19	24,119
523,39	24,355
523,59	26,884
523,78	32,617
523,98	26,308
524,18	29,859
524,38	25,084
524,58	27,440
524,77	29,188
524,97	26,515
525,17	26,691
525,37	24,931
525,57	31,431
525,76	26,117
525,96	27,180
526,16	24,152
526,36	25,796
526,56	28,478
526,75	25,061
526,95	26,738
527,15	25,233
527,35	26,427
527,55	25,681
527,74	27,207
527,94	24,884
528,14	24,324
528,34	25,119
528,53	26,444
528,73	27,427
528,93	26,239
529,13	25,805
529,32	25,049
529,52	30,015
529,72	23,112
529,92	23,761
530,12	23,822
530,31	22,855
530,51	23,517
530,71	25,138
530,91	29,453
531,10	20,188
531,30	24,433
531,50	20,647
531,70	25,804
531,89	24,168
532,09	22,169
532,29	21,825
532,49	25,779
532,68	24,462
532,88	21,626
533,08	22,169
533,28	21,168
533,47	22,023
533,67	23,413
533,87	23,145
534,06	30,438
534,26	24,669
534,46	22,161
534,66	22,109
534,85	26,312
535,05	19,423
535,25	21,668
535,45	23,142
535,64	26,683
535,84	22,991
536,04	21,006
536,23	22,979
536,43	22,929
536,63	21,485
536,83	20,776
537,02	22,320
537,22	19,638
537,42	23,871
537,61	20,483
537,81	22,035
538,01	21,574
538,20	24,785
538,40	22,292
538,60	22,093
538,80	19,970
538,99	20,694
539,19	19,307
539,39	18,866
539,58	21,844
539,78	17,348
539,98	18,096
540,17	16,559
540,37	21,483
540,57	18,350
540,76	17,792
540,96	14,869
541,16	20,098
541,36	17,476
541,55	14,516
541,75	14,001
541,95	15,386
542,14	15,187
542,34	13,034
542,54	14,452
542,73	16,058
542,93	15,852
543,13	14,849
543,32	14,781
543,52	16,835
543,72	14,834
543,91	15,804
544,11	13,190
544,31	13,982
544,50	14,914
544,70	14,292
544,89	15,122
545,09	16,986
545,29	15,467
545,48	15,117
545,68	13,802
545,88	15,508
546,07	14,435
546,27	14,991
546,47	14,505
546,66	16,634
546,86	17,511
547,06	15,930
547,25	15,234
547,45	19,514
547,64	15,849
547,84	19,555
548,04	18,212
548,23	19,916
548,43	20,036
548,63	19,886
548,82	19,751
549,02	19,632
549,21	17,932
549,41	18,606
549,61	17,277
549,80	17,815
550,00	20,510
550,20	15,914
550,39	18,818
550,59	17,365
550,78	18,376
550,98	14,803
551,18	20,359
551,37	18,772
551,57	19,483
551,76	18,082
551,96	17,912
552,16	18,807
552,35	16,820
552,55	19,189
552,74	20,282
552,94	20,998
553,14	17,020
553,33	16,912
553,53	17,462
553,72	18,021
553,92	21,627
554,12	17,263
554,31	18,849
554,51	20,556
554,70	17,146
554,90	18,628
555,09	22,099
555,29	20,930
555,49	21,039
555,68	20,408
555,88	17,428
556,07	19,553
556,27	21,827
556,46	17,314
556,66	15,685
556,86	21,401
557,05	20,486
557,25	16,230
557,44	17,776
557,64	17,153
557,83	19,125
558,03	20,219
558,22	17,527
558,42	20,830
558,62	21,938
558,81	20,194
559,01	18,015
559,20	19,950
559,40	18,997
559,59	18,978
559,79	17,409
559,98	19,970
560,18	22,009
560,37	18,321
560,57	21,602
560,76	17,232
560,96	18,087
561,16	18,073
561,35	17,789
561,55	22,662
561,74	18,337
561,94	19,116
562,13	17,963
562,33	21,070
562,52	19,210
562,72	19,532
562,91	16,036
563,11	19,368
563,30	21,423
563,50	16,405
563,69	18,293
563,89	17,343
564,08	22,120
564,28	17,429
564,47	19,833
564,67	17,522
564,86	18,591
565,06	19,573
565,25	19,636
565,45	19,644
565,64	24,317
565,84	18,826
566,03	17,035
566,23	18,929
566,42	20,332
566,62	21,328
566,81	18,161
567,01	20,355
567,20	19,595
567,40	15,983
567,59	17,032
567,79	20,317
567,98	23,204
568,18	20,027
568,37	18,425
568,57	19,744
568,76	21,716
568,96	18,255
569,15	18,693
569,35	22,197
569,54	22,249
569,73	19,908
569,93	17,863
570,12	21,033
570,32	21,545
570,51	20,342
570,71	20,161
570,90	22,576
571,10	18,868
571,29	17,114
571,49	18,699
571,68	20,831
571,87	19,953
572,07	21,449
572,26	16,632
572,46	20,515
572,65	19,897
572,85	17,735
573,04	20,481
573,24	21,035
573,43	23,668
573,62	21,270
573,82	21,702
574,01	20,022
574,21	19,530
574,40	19,147
574,60	17,807
574,79	23,692
574,98	20,058
575,18	20,562
575,37	18,640
575,57	20,429
575,76	22,411
575,96	21,291
576,15	20,306
576,34	20,940
576,54	20,426
576,73	22,212
576,93	20,122
577,12	22,251
577,31	21,524
577,51	19,797
577,70	20,492
577,90	21,563
578,09	20,587
578,28	20,226
578,48	20,753
578,67	24,469
578,87	21,570
579,06	20,630
579,25	21,961
579,45	22,060
579,64	21,717
579,84	20,991
580,03	21,388
580,22	24,046
580,42	21,205
580,61	22,462
580,81	21,804
581,00	23,585
581,19	23,480
581,39	22,880
581,58	21,003
581,77	22,732
581,97	25,156
582,16	22,272
582,35	21,141
582,55	22,722
582,74	25,259
582,94	25,197
583,13	21,663
583,32	23,446
583,52	24,649
583,71	23,846
583,90	23,894
584,10	24,037
584,29	25,966
584,48	23,031
584,68	24,286
584,87	25,827
585,06	25,509
585,26	22,777
585,45	23,337
585,65	26,134
585,84	24,546
586,03	24,721
586,23	23,693
586,42	25,523
586,61	27,093
586,81	24,917
587,00	25,666
587,19	25,075
587,39	27,317
587,58	25,946
587,77	26,773
587,97	25,555
588,16	25,657
588,35	26,188
588,54	27,448
588,74	26,977
588,93	29,963
589,12	27,392
589,32	26,255
589,51	28,983
589,70	26,059
589,90	27,457
590,09	27,592
590,28	31,331
590,48	25,402
590,67	28,591
590,86	29,739
591,06	28,914
591,25	30,277
591,44	29,689
591,63	29,577
591,83	30,106
592,02	30,283
592,21	30,228
592,41	29,251
592,60	32,273
592,79	29,811
592,98	31,919
593,18	31,326
593,37	31,234
593,56	32,827
593,76	32,188
593,95	30,394
594,14	31,541
594,33	34,416
594,53	30,523
594,72	32,534
594,91	33,890
595,10	31,146
595,30	31,708
595,49	31,968
595,68	35,359
595,88	34,075
596,07	34,530
596,26	33,555
596,45	35,097
596,65	28,901
596,84	33,421
597,03	34,285
597,22	37,035
597,42	37,464
597,61	33,234
597,80	34,594
597,99	36,409
598,19	36,777
598,38	36,733
598,57	34,669
598,76	37,041
598,95	37,082
599,15	37,192
599,34	34,671
599,53	37,918
599,72	36,157
599,92	37,228
600,11	38,133
600,30	37,479
600,49	40,460
600,69	36,488
600,88	38,140
601,07	37,445
601,26	37,589
601,45	37,944
601,65	37,667
601,84	38,995
602,03	39,382
602,22	41,624
602,42	43,257
602,61	40,619
602,80	40,215
602,99	41,846
603,18	38,819
603,38	42,254
603,57	40,529
603,76	39,143
603,95	39,191
604,14	42,156
604,34	41,335
604,53	39,222
604,72	41,551
604,91	41,462
605,10	41,758
605,29	42,833
605,49	38,893
605,68	42,734
605,87	44,012
606,06	41,595
606,25	40,877
606,45	42,261
606,64	42,093
606,83	41,748
607,02	40,457
607,21	43,065
607,40	44,074
607,60	39,698
607,79	40,836
607,98	40,174
608,17	40,558
608,36	40,356
608,55	42,002
608,75	40,963
608,94	39,247
609,13	37,888
609,32	35,500
609,51	38,076
609,70	37,580
609,89	39,856
610,09	37,136
610,28	39,950
610,47	37,077
610,66	36,352
610,85	34,269
611,04	38,706
611,23	36,965
611,43	36,693
611,62	36,763
611,81	37,330
612,00	37,934
612,19	35,715
612,38	39,026
612,57	40,964
612,77	39,264
612,96	38,875
613,15	39,990
613,34	40,573
613,53	42,916
613,72	42,715
613,91	43,041
614,10	43,518
614,29	45,680
614,49	41,890
614,68	40,888
614,87	44,650
615,06	46,867
615,25	43,152
615,44	44,504
615,63	45,683
615,82	43,719
616,01	45,055
616,21	43,721
616,40	46,574
616,59	48,586
616,78	47,000
616,97	45,931
617,16	47,233
617,35	49,748
617,54	46,931
617,73	48,276
617,92	47,319
618,11	49,098
618,31	46,044
618,50	48,437
618,69	48,518
618,88	47,737
619,07	48,057
619,26	47,044
619,45	47,448
619,64	47,528
619,83	48,212
620,02	46,483
620,21	52,644
620,40	49,158
620,59	48,453
620,78	47,802
620,97	48,376
621,17	50,255
621,36	49,034
621,55	48,939
621,74	48,967
621,93	50,915
622,12	49,338
622,31	49,009
622,50	48,776
622,69	51,411
622,88	50,017
623,07	51,731
623,26	51,536
623,45	53,636
623,64	50,174
623,83	49,948
624,02	53,737
624,21	53,536
624,40	51,029
624,59	48,545
624,78	51,919
624,97	53,627
625,16	50,412
625,35	50,192
625,54	51,406
625,73	51,126
625,92	52,556
626,12	54,134
626,31	54,081
626,50	52,944
626,69	52,386
626,88	49,373
627,07	53,393
627,26	52,548
627,45	51,933
627,64	51,256
627,83	51,987
628,02	50,544
628,21	50,742
628,40	51,859
628,59	53,499
628,78	51,218
628,97	51,138
629,16	51,102
629,35	52,011
629,54	54,328
629,73	50,625
629,92	50,919
630,10	53,621
630,29	53,180
630,48	51,516
630,67	50,826
630,86	54,298
631,05	52,734
631,24	54,024
631,43	51,447
631,62	51,405
631,81	52,533
632,00	53,686
632,19	50,804
632,38	55,004
632,57	51,620
632,76	53,451
632,95	55,027
633,14	56,701
633,33	53,414
633,52	56,315
633,71	53,751
633,90	53,583
634,09	54,189
634,28	52,948
634,47	55,103
634,66	53,783
634,85	53,905
635,04	57,340
635,22	53,693
635,41	55,360
635,60	57,761
635,79	55,008
635,98	52,735
636,17	57,360
636,36	55,362
636,55	52,125
636,74	53,339
636,93	57,025
637,12	58,297
637,31	54,267
637,50	54,816
637,69	57,478
637,87	57,301
638,06	55,997
638,25	54,706
638,44	56,784
638,63	53,572
638,82	55,158
639,01	55,093
639,20	57,274
639,39	57,835
639,58	55,035
639,77	55,785
639,95	56,092
640,14	57,931
640,33	53,580
640,52	54,491
640,71	58,620
640,90	55,046
641,09	57,641
641,28	55,720
641,47	57,363
641,66	56,785
641,84	55,411
642,03	54,137
642,22	56,143
642,41	59,428
642,60	57,968
642,79	58,267
642,98	57,217
643,17	55,756
643,35	55,291
643,54	56,620
643,73	59,674
643,92	57,032
644,11	56,953
644,30	54,131
644,49	58,877
644,67	55,944
644,86	55,895
645,05	56,631
645,24	55,383
645,43	56,138
645,62	56,943
645,81	58,501
645,99	58,655
646,18	59,270
646,37	56,365
646,56	54,377
646,75	60,223
646,94	59,405
647,13	56,314
647,31	56,381
647,50	56,226
647,69	59,283
647,88	57,066
648,07	56,968
648,26	63,049
648,44	55,196
648,63	53,908
648,82	57,640
649,01	60,338
649,20	56,359
649,38	58,132
649,57	57,731
649,76	56,461
649,95	58,766
650,14	55,071
650,33	56,985
650,51	57,083
650,70	59,029
650,89	58,528
651,08	55,977
651,27	56,816
651,45	55,880
651,64	55,263
651,83	56,592
652,02	56,335
652,21	58,848
652,39	59,573
652,58	58,354
652,77	59,204
652,96	59,706
653,15	59,402
653,33	58,483
653,52	58,240
653,71	61,044
653,90	59,039
654,09	58,207
654,27	59,587
654,46	60,033
654,65	60,414
654,84	58,287
655,02	62,991
655,21	60,171
655,40	60,407
655,59	59,919
655,77	61,600
655,96	59,419
656,15	61,215
656,34	60,380
656,53	58,280
656,71	59,818
656,90	59,935
657,09	60,176
657,28	59,204
657,46	60,081
657,65	59,262
657,84	57,485
658,03	59,997
658,21	58,782
658,40	58,511
658,59	59,810
658,78	59,574
658,96	57,967
659,15	56,347
659,34	58,419
659,52	59,411
659,71	59,449
659,90	57,137
660,09	58,115
660,27	59,364
660,46	61,735
660,65	58,065
660,84	55,808
661,02	59,251
661,21	60,110
661,40	58,254
661,58	57,497
661,77	58,926
661,96	56,506
662,15	58,690
662,33	57,287
662,52	57,850
662,71	57,754
662,89	56,664
663,08	57,779
663,27	58,817
663,45	59,013
663,64	56,189
663,83	56,538
664,02	56,276
664,20	58,982
664,39	56,809
664,58	58,856
664,76	57,926
664,95	58,237
665,14	58,760
665,32	56,760
665,51	59,708
665,70	59,786
665,88	58,789
666,07	57,787
666,26	61,315
666,44	59,583
666,63	58,706
666,82	56,681
667,00	58,794
667,19	56,146
667,38	58,645
667,56	57,491
667,75	59,395
667,94	57,748
668,12	54,991
668,31	57,627
668,50	60,953
668,68	58,979
668,87	58,774
669,06	57,259
669,24	61,026
669,43	59,863
669,62	55,645
669,80	55,477
669,99	60,519
670,18	59,154
670,36	57,250
670,55	59,110
670,74	58,371
670,92	55,253
671,11	58,729
671,29	57,931
671,48	58,786
671,67	58,303
671,85	57,277
672,04	58,268
672,23	56,538
672,41	56,916
672,60	58,458
672,78	56,679
672,97	57,956
673,16	59,750
673,34	57,956
673,53	57,739
673,71	58,836
673,90	60,159
674,09	58,662
674,27	56,925
674,46	57,652
674,64	60,050
674,83	58,450
675,02	54,067
675,20	58,042
675,39	59,700
675,57	58,461
675,76	55,857
675,95	61,566
676,13	59,155
676,32	58,817
676,50	58,646
676,69	57,019
676,88	57,187
677,06	58,815
677,25	57,505
677,43	61,322
677,62	59,072
677,80	56,510
677,99	58,384
678,18	61,475
678,36	59,927
678,55	56,446
678,73	58,511
678,92	59,257
679,10	60,374
679,29	58,680
679,48	57,494
679,66	59,137
679,85	57,548
680,03	58,501
680,22	57,412
680,40	56,535
680,59	58,340
680,77	58,362
680,96	57,704
681,15	55,978
681,33	59,230
681,52	57,469
681,70	58,063
681,89	61,436
682,07	58,350
682,26	56,018
682,44	58,715
682,63	58,697
682,81	58,126
683,00	59,246
683,18	56,775
683,37	59,386
683,55	57,411
683,74	58,911
683,92	63,860
684,11	58,520
684,29	59,142
684,48	57,083
684,67	56,727
684,85	58,514
685,04	59,796
685,22	57,636
685,41	58,457
685,59	59,400
685,78	58,034
685,96	56,800
686,15	57,331
686,33	55,897
686,52	58,392
686,70	58,224
686,89	58,647
687,07	59,153
687,26	59,652
687,44	58,385
687,62	57,472
687,81	58,759
687,99	59,507
688,18	58,830
688,36	57,206
688,55	60,067
688,73	57,767
688,92	56,352
689,10	58,216
689,29	59,148
689,47	60,294
689,66	58,977
689,84	57,868
690,03	55,667
690,21	58,760
690,40	59,284
690,58	55,677
690,76	58,406
690,95	60,010
691,13	57,737
691,32	58,056
691,50	59,180
691,69	59,479
691,87	57,811
692,06	58,533
692,24	56,047
692,43	59,706
692,61	56,554
692,79	56,503
692,98	56,230
693,16	60,586
693,35	56,702
693,53	56,610
693,72	59,198
693,90	60,461
694,08	57,177
694,27	57,444
694,45	60,618
694,64	61,366
694,82	57,064
695,01	56,696
695,19	58,478
695,37	58,622
695,56	56,516
695,74	57,395
695,93	59,592
696,11	57,231
696,29	58,999
696,48	57,523
696,66	59,257
696,85	60,204
697,03	56,945
697,21	57,858
697,40	58,555
697,58	58,859
697,77	56,647
697,95	59,427
698,13	60,380
698,32	58,204
698,50	56,920
698,69	57,686
698,87	58,500
699,05	57,895
699,24	56,472
699,42	57,414
699,60	57,110
699,79	58,913
699,97	57,252
700,16	54,249
700,34	60,786
700,52	59,260
700,71	57,374
700,89	58,835
701,07	58,603
701,26	58,441
701,44	57,720
701,63	57,265
701,81	59,437
701,99	57,989
702,18	57,006
702,36	55,610
702,54	57,474
702,73	57,160
702,91	59,348
703,09	58,888
703,28	56,514
703,46	59,260
703,64	58,153
703,83	58,733
704,01	58,478
704,19	57,746
704,38	55,822
704,56	54,741
704,74	57,544
704,93	57,478
705,11	55,373
705,29	57,198
705,48	62,395
705,66	58,361
705,84	58,508
706,03	55,198
706,21	57,015
706,39	57,855
706,58	56,128
706,76	56,725
706,94	58,327
707,12	58,930
707,31	55,373
707,49	54,426
707,67	56,630
707,86	59,557
708,04	56,938
708,22	55,011
708,41	57,828
708,59	56,909
708,77	54,460
708,95	57,648
709,14	61,329
709,32	58,057
709,50	53,639
709,69	54,317
709,87	57,635
710,05	57,735
710,23	56,179
710,42	54,926
710,60	57,830
710,78	58,990
710,97	58,430
711,15	57,978
711,33	59,671
711,51	57,195
711,70	56,186
711,88	55,586
712,06	59,437
712,24	58,288
712,43	58,281
712,61	56,898
712,79	57,244
712,97	56,769
713,16	56,557
713,34	57,068
713,52	57,836
713,70	58,222
713,89	56,390
714,07	56,650
714,25	55,765
714,43	58,498
714,62	56,323
714,80	57,390
714,98	55,524
715,16	58,393
715,35	56,195
715,53	56,283
715,71	59,383
715,89	61,404
716,07	57,050
716,26	59,337
716,44	58,319
716,62	58,956
716,80	56,138
716,99	57,501
717,17	60,606
717,35	57,590
717,53	56,715
717,71	55,816
717,90	57,277
718,08	55,940
718,26	53,049
718,44	58,444
718,62	59,162
718,81	57,855
718,99	56,108
719,17	56,247
719,35	58,175
719,53	57,106
719,72	54,573
719,90	56,893
720,08	56,762
720,26	58,577
720,44	57,720
720,62	56,450
720,81	59,241
720,99	60,488
721,17	56,875
721,35	57,645
721,53	58,761
721,72	60,044
721,90	58,224
722,08	55,698
722,26	60,354
722,44	56,555
722,62	57,144
722,81	56,058
722,99	58,289
723,17	56,330
723,35	58,507
723,53	56,193
723,71	61,051
723,89	61,127
724,08	54,856
724,26	57,237
724,44	58,181
724,62	56,655
724,80	57,763
724,98	56,798
725,16	61,235
725,35	57,535
725,53	56,504
725,71	54,604
725,89	59,944
726,07	60,434
726,25	61,423
726,43	56,875
726,61	58,826
726,80	59,163
726,98	55,524
727,16	56,585
727,34	58,423
727,52	57,416
727,70	56,688
727,88	57,132
728,06	53,847
728,25	56,869
728,43	57,939
728,61	56,611
728,79	57,248
728,97	58,099
729,15	56,657
729,33	56,285
729,51	58,698
729,69	58,247
729,87	58,725
730,06	58,504
730,24	57,657
730,42	61,844
730,60	55,566
730,78	58,270
730,96	56,472
731,14	58,696
731,32	56,706
731,50	55,893
731,68	57,431
731,86	56,331
732,04	58,355
732,22	56,953
732,41	61,199
732,59	57,525
732,77	61,654
732,95	59,946
733,13	60,491
733,31	56,309
733,49	57,351
733,67	59,026
733,85	59,238
734,03	57,424
734,21	56,788
734,39	56,988
734,57	59,839
734,75	60,171
734,93	56,570
735,11	57,417
735,29	58,838
735,47	62,293
735,65	57,460
735,84	55,315
736,02	58,018
736,20	60,703
736,38	56,889
736,56	58,695
736,74	58,123
736,92	56,531
737,10	56,158
737,28	59,074
737,46	58,407
737,64	57,515
737,82	57,996
738,00	58,733
738,18	58,537
738,36	57,298
738,54	56,324
738,72	54,771
738,90	59,036
739,08	58,505
739,26	54,168
739,44	53,293
739,62	58,804
739,80	59,593
739,98	58,098
740,16	57,341
740,34	57,258
740,52	60,136
740,70	58,655
740,88	55,412
741,06	58,334
741,24	57,187
741,42	56,653
741,60	56,608
741,78	57,776
741,96	58,334
742,14	56,644
742,32	55,421
742,50	58,336
742,68	58,946
742,86	58,219
743,04	56,625
743,21	58,838
743,39	58,932
743,57	57,995
743,75	56,972
743,93	57,483
744,11	54,364
744,29	54,901
744,47	57,136
744,65	57,803
744,83	54,525
745,01	56,155
745,19	57,954
745,37	59,762
745,55	59,096
745,73	57,695
745,91	56,151
746,09	55,487
746,27	55,028
746,45	55,528
746,62	57,782
746,80	56,775
746,98	56,451
747,16	55,574
747,34	56,751
747,52	56,344
747,70	58,899
747,88	56,493
748,06	54,573
748,24	58,706
748,42	59,080
748,60	56,510
748,78	55,313
748,95	59,397
749,13	61,670
749,31	55,856
749,49	58,065
749,67	58,071
749,85	58,671
750,03	55,721
750,21	59,087
750,39	57,426
750,57	59,761
750,74	56,994
750,92	56,152
751,10	58,808
751,28	58,036
751,46	57,602
751,64	56,972
751,82	60,182
752,00	58,469
752,17	56,650
752,35	55,424
752,53	57,883
752,71	58,889
752,89	58,131
753,07	57,270
753,25	58,078
753,43	56,612
753,60	59,353
753,78	55,851
753,96	59,211
754,14	58,019
754,32	58,476
754,50	56,775
754,68	59,293
754,85	57,692
755,03	57,274
755,21	56,767
755,39	60,667
755,57	59,598
755,75	56,131
755,92	54,204
756,10	58,935
756,28	59,003
756,46	56,652
756,64	59,249
756,82	57,057
756,99	57,627
757,17	58,499
757,35	56,039
757,53	61,903
757,71	60,819
757,89	57,135
758,06	57,734
758,24	58,201
758,42	59,445
758,60	56,359
758,78	56,469
758,95	57,937
759,13	58,630
759,31	58,288
759,49	55,410
759,67	57,433
759,84	57,694
760,02	58,448
760,20	56,930
760,38	58,907
760,56	56,903
760,73	59,327
760,91	57,513
761,09	59,661
761,27	55,361
761,45	57,064
761,62	55,399
761,80	54,415
761,98	59,218
762,16	57,565
762,33	56,567
762,51	59,646
762,69	56,292
762,87	54,687
763,05	58,610
763,22	55,922
763,40	57,801
763,58	54,813
763,76	58,401
763,93	59,791
764,11	59,973
764,29	56,170
764,47	58,452
764,64	59,403
764,82	61,482
765,00	55,580
765,18	55,125
765,35	58,445
765,53	58,548
765,71	59,214
765,89	56,676
766,06	57,879
766,24	58,660
766,42	56,080
766,60	55,950
766,77	55,550
766,95	57,693
767,13	57,984
767,30	58,419
767,48	57,531
767,66	57,855
767,84	56,148
768,01	57,266
768,19	57,352
768,37	57,851
768,54	57,484
768,72	58,045
768,90	57,154
769,08	57,695
769,25	58,522
769,43	54,431
769,61	56,393
769,78	59,760
769,96	57,279
770,14	57,894
770,31	59,012
770,49	58,677
770,67	56,077
770,85	55,646
771,02	58,571
771,20	57,370
771,38	56,986
771,55	57,652
771,73	58,234
771,91	59,131
772,08	58,845
772,26	56,416
772,44	58,138
772,61	58,176
772,79	56,532
772,97	58,121
773,14	53,564
773,32	60,947
773,50	57,793
773,67	56,980
773,85	62,031
774,03	60,484
774,20	57,940
774,38	57,406
774,56	57,097
774,73	56,635
774,91	55,349
775,09	56,840
775,26	58,149
775,44	61,012
775,61	58,631
775,79	57,719
775,97	58,941
776,14	57,639
776,32	56,222
776,50	57,880
776,67	56,591
776,85	60,131
777,03	54,681
777,20	56,897
777,38	59,528
777,55	56,007
777,73	53,515
777,91	55,398
778,08	56,915
778,26	54,870
778,43	59,617
778,61	51,441
778,79	55,331
778,96	57,611
779,14	59,120
779,32	59,708
779,49	57,530
779,67	59,924
779,84	57,876
780,02	59,999
780,20	58,908
780,37	59,080
780,55	52,609
780,72	62,324
780,90	57,173
781,07	58,875
781,25	56,831
781,43	59,448
781,60	58,806
781,78	58,476
781,95	59,384
782,13	58,622
782,30	62,181
782,48	56,852
782,66	55,584
782,83	53,846
783,01	65,099
783,18	60,085
783,36	57,773
783,53	57,567
783,71	57,392
783,89	57,755
784,06	61,158
784,24	58,240
784,41	59,746
784,59	58,159
784,76	58,251
784,94	58,019
785,11	57,974
785,29	55,887
785,46	55,935
785,64	57,511
785,82	59,331
785,99	59,175
786,17	57,567
786,34	60,740
786,52	59,693
786,69	59,596
786,87	55,719
787,04	57,059
787,22	55,195
787,39	60,877
787,57	59,593
787,74	59,468
787,92	60,528
788,09	58,893
788,27	55,372
788,44	58,161
788,62	60,236
788,79	58,791
788,97	60,424
789,14	57,607
789,32	57,556
789,49	60,102
789,67	59,381
789,84	61,500
790,02	59,495
790,19	59,580
790,37	60,191
790,54	59,767
790,72	65,562
790,89	63,376
791,07	60,373
791,24	55,712
791,42	61,436
791,59	63,580
791,77	59,492
791,94	58,712
792,12	57,037
792,29	58,489
792,47	57,796
792,64	61,388
792,81	63,400
792,99	59,840
793,16	59,543
793,34	62,795
793,51	61,453
793,69	59,784
793,86	59,321
794,04	58,200
794,21	61,194
794,39	57,020
794,56	58,593
794,73	60,288
794,91	61,578
795,08	59,370
795,26	59,767
795,43	57,757
795,61	65,939
795,78	60,248
795,95	60,916
796,13	60,931
796,30	60,324
796,48	58,129
796,65	61,419
796,83	62,171
797,00	62,245
797,17	57,184
797,35	58,555
797,52	58,091
797,70	65,487
797,87	62,350
798,04	56,906
798,22	59,594
798,39	59,654
798,57	59,898
798,74	60,338
798,91	57,847
799,09	58,031
799,26	60,939
799,44	59,943
799,61	59,471
799,78	61,033
799,96	62,102
800,13	59,765
800,31	60,103
800,48	65,373
800,65	63,102
800,83	57,549
801,00	60,137
801,17	59,055
801,35	62,067
801,52	57,571
801,70	61,978
801,87	60,137
802,04	67,808
802,22	58,118
802,39	59,554
802,56	64,965
802,74	64,104
802,91	60,481
803,08	57,144
803,26	63,162
803,43	63,191
803,61	58,648
803,78	59,325
803,95	64,099
804,13	62,780
804,30	59,439
804,47	62,604
804,65	61,014
804,82	62,209
804,99	60,472
805,17	59,810
805,34	65,251
805,51	65,501
805,69	59,031
805,86	59,432
806,03	67,788
806,21	61,961
806,38	62,517
806,55	63,565
806,72	66,746
806,90	65,510
807,07	63,765
807,24	61,874
807,42	57,669
807,59	65,491
807,76	55,479
807,94	61,490
808,11	60,429
808,28	63,481
808,45	64,925
808,63	61,504
808,80	67,364
808,97	62,542
809,15	59,213
809,32	59,700
809,49	59,978
809,67	66,384
809,84	63,266
810,01	60,184
810,18	73,764
810,36	63,744
810,53	62,603
810,70	62,567
810,87	64,101
811,05	63,309
811,22	60,211
811,39	57,493
811,57	66,797
811,74	62,088
811,91	54,563
812,08	61,024
812,26	63,552
812,43	57,752
812,60	60,452
812,77	61,474
812,95	68,404
813,12	67,904
813,29	60,400
813,46	62,261
813,64	65,437
813,81	63,577
813,98	61,225
814,15	62,501
814,32	65,894
814,50	62,868
814,67	65,212
814,84	63,382
815,01	62,263
815,19	57,282
815,36	52,653
815,53	61,300
815,70	59,793
815,87	67,098
816,05	54,173
816,22	62,462
816,39	63,700
816,56	69,007
816,74	65,278
816,91	63,638
817,08	66,524
817,25	72,256
817,42	60,725
817,60	57,423
817,77	63,869
817,94	62,308
818,11	60,155
818,28	63,649
818,45	69,673
818,63	67,932
818,80	64,929
818,97	60,471
819,14	71,264
819,31	71,745
819,49	65,990
819,66	62,077
819,83	62,665
820,00	74,427
820,17	58,994
820,34	64,624
820,52	65,370
820,69	67,393
820,86	61,716
821,03	65,140
821,20	64,249
821,37	68,841
821,55	51,514
821,72	58,360
821,89	67,810
822,06	68,590
822,23	56,937
822,40	58,205
822,57	72,946
822,75	71,100
822,92	56,576
823,09	66,640
823,26	66,501
823,43	70,711
823,60	57,573
823,77	64,295
823,94	72,161
824,12	69,807
824,29	57,960
824,46	56,420
824,63	76,975
824,80	70,767
824,97	63,144
825,14	66,672
825,31	68,353
825,49	65,128
825,66	62,744
825,83	62,470
826,00	66,607
826,17	77,014
826,34	64,479
826,51	60,299
826,68	63,350
826,85	70,824
827,02	62,532
827,20	62,617
827,37	63,746
827,54	68,799
827,71	66,042
827,88	66,337
828,05	73,112
828,22	60,284
828,39	69,665
828,56	68,248
828,73	68,281
828,90	63,530
829,07	60,151
829,25	64,273
829,42	69,722
829,59	58,701
829,76	57,985
829,93	64,123
830,10	65,277
830,27	63,406
830,44	65,745
830,61	60,857
830,78	77,513
830,95	70,862
831,12	59,116
831,29	66,486
831,46	62,440
831,63	64,460
831,80	58,177
831,97	64,641
832,14	78,919
832,31	78,281
832,48	62,456
832,65	66,613
832,83	65,336
833,00	68,494
833,17	61,156
833,34	67,968
833,51	71,656
833,68	77,711
833,85	60,705
834,02	65,697
834,19	65,104
834,36	71,672
834,53	56,723
834,70	65,405
834,87	77,985
835,04	63,883
835,21	67,809
835,38	58,571
835,55	69,137
835,72	77,268
835,89	68,901
836,06	65,884
836,23	87,016
836,40	58,285
836,57	59,862
836,74	71,299
836,91	68,060
837,08	78,258
837,25	69,634
837,42	64,557
837,59	70,348
837,76	73,078
837,93	65,061
838,09	56,871
838,26	73,172
838,43	81,261
838,60	70,108
838,77	63,591
838,94	81,120
839,11	68,791
839,28	65,833
839,45	59,432
839,62	67,162
839,79	67,210
839,96	71,643
840,13	73,643
840,30	61,159
840,47	60,251
840,64	66,536
840,81	68,634
840,98	66,188
841,15	78,053
841,32	57,199
841,48	75,340
841,65	74,572
841,82	67,423
841,99	72,690
842,16	59,146
842,33	71,086
842,50	81,521
842,67	68,242
842,84	64,966
843,01	77,638
843,18	68,324
843,35	69,858
843,52	63,742
843,68	74,764
843,85	72,562
844,02	60,626
844,19	56,102
844,36	80,289
844,53	74,103
844,70	70,180
844,87	78,090
845,04	69,355
845,21	54,541
845,37	82,514
845,54	65,598
845,71	71,593
845,88	91,642
846,05	62,726
846,22	61,872
846,39	78,135
846,56	85,708
846,72	56,861
846,89	63,355
847,06	91,344
847,23	80,457
847,40	66,853
847,57	60,814
847,74	70,165
847,90	79,409
848,07	67,472
848,24	69,217
848,41	77,448
848,58	96,267
848,75	75,806
848,92	65,418
849,08	66,555
849,25	70,493
849,42	55,728
849,59	73,950
849,76	69,327
849,93	76,962
850,09	85,399
850,26	52,406
850,43	84,394
850,60	72,542
850,77	68,345
850,94	71,025
851,10	79,426
851,27	66,868
851,44	67,852
851,61	65,706
851,78	84,855
851,95	80,156
852,11	68,376
852,28	68,740
852,45	73,940
852,62	80,375
852,79	72,361
852,95	65,615
853,12	83,364
853,29	70,633
853,46	70,763
853,63	80,557
853,79	70,971
853,96	60,604
854,13	85,772
854,30	73,918
854,46	110,677
854,63	75,799
854,80	62,289
854,97	55,715
855,14	87,082
855,30	85,065
855,47	63,757
855,64	76,158
855,81	68,982
855,97	91,617
856,14	85,144
856,31	70,155
856,48	78,256
856,65	100,441
856,81	65,417
856,98	63,210
857,15	64,027
857,32	78,615
857,48	79,737
857,65	68,776
857,82	101,196
857,99	77,346
858,15	71,808
858,32	66,555
858,49	84,940
858,65	105,061
858,82	83,697
858,99	95,422
859,16	87,807
859,32	94,264
859,49	71,758
859,66	56,274
859,83	83,686
859,99	70,258
860,16	73,457
860,33	67,768
860,49	94,414
860,66	91,722
860,83	64,832
861,00	76,338
861,16	94,678
861,33	92,822
861,50	55,753
861,66	74,162
861,83	101,993
862,00	77,670
862,16	78,457
862,33	79,936
862,50	119,666
862,67	71,031
862,83	61,300
863,00	89,006
863,17	97,376
863,33	85,835
863,50	51,153
863,67	74,614
863,83	80,548
864,00	97,288
864,17	57,606
864,33	56,793
864,50	89,803
864,67	80,338
864,83	72,622
865,00	65,529
865,17	74,353
865,33	96,365
865,50	66,685
865,67	40,303
865,83	74,227
866,00	111,503
866,17	74,916
866,33	90,759
866,50	119,583
866,66	110,004
866,83	96,074
867,00	82,182
867,16	110,721
867,33	127,945
867,50	65,702
867,66	70,332
867,83	97,006
868,00	102,645
868,16	64,960
868,33	67,966
868,49	102,867
868,66	113,925
868,83	79,731
868,99	76,646
869,16	124,486
869,32	118,644
869,49	79,173
869,66	66,785
869,82	98,845
869,99	112,082
870,15	63,887
870,32	96,425
870,49	97,349
870,65	166,323
870,82	88,772
870,98	68,997
871,15	158,580
871,32	90,000
871,48	41,617
871,65	74,114
871,81	99,734
871,98	75,372
872,15	56,138
872,31	68,863
872,48	148,583
872,64	105,464
872,81	69,179
872,97	94,939
873,14	138,547
873,31	109,188
873,47	91,752
873,64	101,983
873,80	154,869
873,97	125,325
874,13	71,338
874,30	95,595
874,46	113,746
874,63	78,490
874,80	82,263
874,96	58,029
875,13	158,543
875,29	98,578
875,46	117,849
875,62	88,187
875,79	126,345
875,95	108,434
876,12	62,506
876,28	32,905
876,45	140,136
876,61	72,520
876,78	72,076
876,94	80,617
877,11	159,806
877,27	119,281
877,44	80,339
877,60	86,134
877,77	117,692
877,94	122,820
878,10	61,214
878,27	90,303
878,43	141,037
878,60	75,463
878,76	75,343
878,93	68,360
879,09	191,708
879,26	163,660
879,42	99,528
879,58	91,687
879,75	138,347
879,91	145,120
880,08	-17,283
880,24	69,694
880,41	94,805
880,57	129,420
880,74	62,126
880,90	158,820
881,07	85,460
881,23	272,529
881,40	88,623
881,56	119,353
881,73	143,217
881,89	123,011
882,06	34,469
882,22	198,604
882,38	155,799
882,55	226,738
882,71	105,911
882,88	109,776
883,04	295,989
883,21	208,646
883,37	94,276
883,54	104,100
883,70	270,887
883,86	154,881
884,03	83,117
884,19	49,926
884,36	163,224
884,52	273,688
884,69	78,525
884,85	64,143
885,01	262,356
885,18	183,099
885,34	217,489
885,51	63,272
885,67	114,793
>>>>> Data<<<<< Espectral Procesado Extremo
