Fichero De Datos De SpectraSuite
++++++++++++++++++++++++++++++++++++
Fecha: Wed Apr 22 13:13:05 CEST 2009
Usuario: evoflor
Presente Oscuro Del Espectro: Sí
La Referencia de Presente Del Espectro De: Sí
Muestreados de los componentes de Número de espectros: 1
Espectrómetros: USB4F02353
Tiempo de integración (usec): 500000 (USB4F02353)
Promedio de Espectros Hechos un: 5 (USB4F02353)
El Alisar Del Furgón: 0 (USB4F02353)
Párrafo de de Corregir del la del del de Eléctrica del obscuridad: Sí (USB4F02353)
Estrobo/Lámpara Permitido: No (USB4F02353)
Correct for Detector Non-linearity: No (USB4F02353)
Párrafo de de Corregir del la del del de Externa del luz: No (USB4F02353)
Procesado del espectro de Número de pixeles en: 3648
>>>>> Comienza Data<<<<< Espectral Procesado Del EL
177,79	287,760
178,00	287,760
178,22	287,760
178,44	1961,044
178,66	-282,374
178,88	367,280
179,09	12,574
179,31	293,817
179,53	754,319
179,75	221,521
179,96	1285,733
180,18	-148,754
180,40	426,258
180,62	493,488
180,83	-309,731
181,05	-1292,012
181,27	-144645,000
181,49	-163,793
181,70	23,250
181,92	1031,193
182,14	674,232
182,36	46,950
182,58	569,550
182,79	1196,183
183,01	22,681
183,23	126,476
183,45	-168,138
183,66	-333,385
183,88	400,853
184,10	-3693,545
184,32	81,795
184,53	319,574
184,75	-310,277
184,97	15,413
185,18	-160,235
185,40	-695,409
185,62	138,413
185,84	72,151
186,05	194,189
186,27	-102,891
186,49	5978,654
186,71	16,765
186,92	221,699
187,14	-344,589
187,36	200,746
187,58	89,246
187,79	31,847
188,01	313,980
188,23	-295,866
188,45	22,114
188,66	-93,549
188,88	-3006,273
189,10	-2247,450
189,31	12,722
189,53	-0,465
189,75	608,966
189,97	317,481
190,18	-31,996
190,40	602,029
190,62	-194,320
190,83	-428,492
191,05	215,652
191,27	194,700
191,49	453,824
191,70	-530,986
191,92	-745,297
192,14	-26,949
192,35	758,475
192,57	6318,429
192,79	-46,799
193,01	257,781
193,22	152,111
193,44	-113,217
193,66	100,545
193,87	66,906
194,09	-81,007
194,31	226,562
194,53	1156,259
194,74	50,395
194,96	80,237
195,18	123,282
195,39	-467,137
195,61	-199,583
195,83	-339,880
196,04	192,773
196,26	-288,166
196,48	3,685
196,70	283,986
196,91	38,575
197,13	359,354
197,35	60,278
197,56	890,851
197,78	1670,485
198,00	627,587
198,21	597,306
198,43	-1364,215
198,65	167,742
198,86	539,730
199,08	214,574
199,30	309,200
199,51	-611,873
199,73	202,489
199,95	556,300
200,16	570,173
200,38	283,827
200,60	224,315
200,81	323,223
201,03	346,590
201,25	-2040,450
201,46	204,337
201,68	102,399
201,90	3389,659
202,11	-802,844
202,33	183,743
202,55	930,562
202,76	-39,868
202,98	80,645
203,20	122,380
203,41	-154,974
203,63	123,159
203,85	-138345,000
204,06	-69,501
204,28	-88,301
204,50	314,971
204,71	440,009
204,93	660,360
205,15	348,931
205,36	-271,405
205,58	263,810
205,80	-352,138
206,01	96,048
206,23	164,720
206,45	273,293
206,66	162,146
206,88	-100,916
207,10	451,466
207,31	351,318
207,53	125,271
207,75	105,197
207,96	474,963
208,18	-200,759
208,39	20,350
208,61	5007,000
208,83	-544,282
209,04	344,422
209,26	-417,719
209,48	287,565
209,69	230,395
209,91	886,976
210,13	70,530
210,34	160,642
210,56	183,785
210,77	-1698,780
210,99	229,439
211,21	6814,412
211,42	-99,482
211,64	-35,522
211,86	285,344
212,07	145,296
212,29	288,460
212,50	215,999
212,72	82,096
212,94	197,588
213,15	108,249
213,37	179,298
213,58	-224,933
213,80	-2273,036
214,02	14861,471
214,23	426,542
214,45	453,590
214,67	-1324,939
214,88	-243,775
215,10	-473,319
215,31	83,941
215,53	-70,125
215,75	207,730
215,96	1776,056
216,18	376,690
216,39	184,903
216,61	551,627
216,83	629,665
217,04	2282,528
217,26	93,944
217,47	178,356
217,69	361,118
217,91	7,616
218,12	-105045,000
218,34	124,593
218,55	321,605
218,77	97,968
218,99	58,362
219,20	-302,868
219,42	493,514
219,63	-9,051
219,85	-100,756
220,06	-229,442
220,28	256,781
220,50	105,493
220,71	99,881
220,93	4698,962
221,14	-2409,450
221,36	-92,438
221,58	7,009
221,79	328,438
222,01	1510,733
222,22	513,454
222,44	-336,573
222,65	124,131
222,87	-89,895
223,09	94,299
223,30	95,956
223,52	185,020
223,73	171,839
223,95	-45,993
224,16	268,546
224,38	349,159
224,60	159,366
224,81	247,900
225,03	143,442
225,24	221,003
225,46	141,603
225,67	57,889
225,89	7,912
226,10	503,449
226,32	573,960
226,54	52,040
226,75	27,575
226,97	168,091
227,18	202,700
227,40	32,243
227,61	34,119
227,83	59,990
228,04	173,066
228,26	52,659
228,47	79,425
228,69	296,790
228,91	157,046
229,12	75,355
229,34	49,931
229,55	53,789
229,77	17,075
229,98	-11,309
230,20	90,125
230,41	76,668
230,63	90,957
230,84	35,134
231,06	47,297
231,27	-1,575
231,49	49,930
231,71	27,280
231,92	50,846
232,14	10,878
232,35	92,330
232,57	56,325
232,78	27,984
233,00	49,015
233,21	32,325
233,43	2,142
233,64	16,143
233,86	28,355
234,07	52,514
234,29	24,175
234,50	5,309
234,72	40,724
234,93	20,686
235,15	18,612
235,36	20,487
235,58	46,139
235,79	57,155
236,01	19,603
236,22	21,205
236,44	43,689
236,65	25,204
236,87	26,599
237,08	-2,327
237,30	3,844
237,51	29,054
237,73	7,886
237,94	15,318
238,16	29,503
238,37	17,590
238,59	10,178
238,80	12,976
239,02	16,363
239,23	21,988
239,45	-10,415
239,66	27,518
239,88	47,839
240,09	23,677
240,31	0,930
240,52	6,966
240,74	25,053
240,95	19,743
241,17	1,061
241,38	7,399
241,60	12,783
241,81	31,502
242,03	4,237
242,24	12,700
242,46	16,635
242,67	8,848
242,89	8,478
243,10	16,091
243,32	19,954
243,53	21,513
243,75	6,519
243,96	-0,170
244,18	16,866
244,39	8,857
244,60	9,925
244,82	1,279
245,03	21,276
245,25	12,021
245,46	23,802
245,68	8,235
245,89	19,459
246,11	9,518
246,32	15,025
246,54	0,300
246,75	15,773
246,97	12,616
247,18	20,311
247,39	8,511
247,61	11,638
247,82	12,431
248,04	4,104
248,25	5,847
248,47	13,118
248,68	10,881
248,90	1,647
249,11	3,312
249,33	18,023
249,54	7,016
249,75	7,154
249,97	6,624
250,18	18,994
250,40	15,700
250,61	-3,957
250,83	4,678
251,04	8,918
251,25	14,217
251,47	3,356
251,68	3,994
251,90	8,962
252,11	13,795
252,33	6,104
252,54	7,147
252,76	4,411
252,97	1,368
253,18	3,048
253,40	3,596
253,61	-2,579
253,83	13,723
254,04	9,292
254,25	9,802
254,47	4,361
254,68	7,667
254,90	2,651
255,11	6,441
255,33	9,759
255,54	5,243
255,75	6,923
255,97	3,929
256,18	4,611
256,40	11,216
256,61	9,945
256,82	-2,075
257,04	14,391
257,25	3,087
257,47	6,696
257,68	3,941
257,89	7,066
258,11	10,026
258,32	8,684
258,54	4,890
258,75	10,224
258,96	8,713
259,18	5,026
259,39	3,768
259,61	10,928
259,82	2,741
260,03	8,273
260,25	6,828
260,46	3,597
260,68	4,993
260,89	3,789
261,10	4,240
261,32	9,223
261,53	3,229
261,75	5,263
261,96	-2,548
262,17	11,407
262,39	11,562
262,60	2,877
262,81	-0,967
263,03	13,888
263,24	9,400
263,46	4,048
263,67	2,897
263,88	6,813
264,10	6,133
264,31	0,693
264,52	7,219
264,74	7,741
264,95	5,452
265,17	6,153
265,38	8,737
265,59	8,655
265,81	8,824
266,02	-0,091
266,23	3,442
266,45	11,704
266,66	10,097
266,87	8,009
267,09	4,205
267,30	8,640
267,52	9,312
267,73	2,144
267,94	1,848
268,16	5,624
268,37	3,763
268,58	8,116
268,80	5,507
269,01	6,034
269,22	9,719
269,44	7,045
269,65	9,108
269,86	2,005
270,08	8,836
270,29	4,115
270,50	7,063
270,72	11,424
270,93	6,114
271,14	1,268
271,36	3,621
271,57	12,056
271,78	6,666
272,00	5,451
272,21	8,242
272,42	6,381
272,64	7,766
272,85	1,676
273,06	3,506
273,28	6,303
273,49	6,449
273,70	10,875
273,92	8,497
274,13	5,701
274,34	2,951
274,56	9,889
274,77	0,666
274,98	11,612
275,20	5,908
275,41	9,757
275,62	4,613
275,84	5,289
276,05	10,176
276,26	0,448
276,47	0,414
276,69	8,669
276,90	8,330
277,11	1,173
277,33	4,187
277,54	3,923
277,75	5,693
277,97	4,244
278,18	1,554
278,39	7,756
278,61	2,539
278,82	8,685
279,03	5,459
279,24	6,901
279,46	5,310
279,67	8,259
279,88	3,052
280,10	6,796
280,31	2,776
280,52	6,502
280,73	1,935
280,95	7,866
281,16	9,902
281,37	4,653
281,59	7,328
281,80	11,919
282,01	5,282
282,22	3,013
282,44	2,048
282,65	14,933
282,86	8,497
283,08	5,863
283,29	4,829
283,50	6,257
283,71	8,060
283,93	4,866
284,14	7,243
284,35	3,742
284,56	5,341
284,78	4,456
284,99	7,324
285,20	9,587
285,42	2,787
285,63	6,071
285,84	-0,716
286,05	2,486
286,27	6,344
286,48	1,776
286,69	2,944
286,90	2,461
287,12	4,063
287,33	1,690
287,54	3,057
287,75	5,039
287,97	9,681
288,18	5,699
288,39	3,436
288,60	4,630
288,82	5,123
289,03	3,573
289,24	6,843
289,45	7,763
289,67	4,295
289,88	1,696
290,09	6,426
290,30	7,360
290,52	4,570
290,73	2,011
290,94	1,669
291,15	3,548
291,37	5,725
291,58	4,692
291,79	3,595
292,00	7,027
292,21	5,126
292,43	3,316
292,64	1,999
292,85	4,974
293,06	8,668
293,28	3,016
293,49	1,444
293,70	9,246
293,91	2,552
294,12	4,642
294,34	3,441
294,55	3,390
294,76	6,731
294,97	6,885
295,19	0,932
295,40	5,093
295,61	7,879
295,82	0,817
296,03	6,166
296,25	6,603
296,46	0,683
296,67	1,656
296,88	1,284
297,09	6,799
297,31	4,743
297,52	4,032
297,73	2,595
297,94	7,721
298,15	6,454
298,37	3,273
298,58	6,703
298,79	4,532
299,00	0,472
299,21	2,540
299,43	0,601
299,64	8,912
299,85	6,190
300,06	2,116
300,27	2,112
300,49	10,557
300,70	5,429
300,91	3,523
301,12	3,249
301,33	7,661
301,54	2,773
301,76	5,705
301,97	1,714
302,18	4,346
302,39	7,178
302,60	12,535
302,82	3,554
303,03	13,340
303,24	4,037
303,45	5,138
303,66	4,458
303,87	4,843
304,09	8,006
304,30	3,517
304,51	3,763
304,72	3,248
304,93	4,462
305,14	5,189
305,36	2,140
305,57	2,468
305,78	7,124
305,99	3,307
306,20	4,798
306,41	2,727
306,62	2,704
306,84	2,827
307,05	-0,423
307,26	3,781
307,47	8,439
307,68	3,905
307,89	4,511
308,11	8,245
308,32	3,025
308,53	4,369
308,74	1,987
308,95	5,279
309,16	5,470
309,37	8,396
309,59	2,300
309,80	5,659
310,01	4,576
310,22	7,792
310,43	1,266
310,64	5,174
310,85	6,392
311,06	2,392
311,28	6,093
311,49	4,496
311,70	9,278
311,91	-0,848
312,12	2,102
312,33	5,251
312,54	3,787
312,75	4,290
312,97	1,873
313,18	7,110
313,39	2,160
313,60	4,479
313,81	3,241
314,02	6,304
314,23	8,670
314,44	0,355
314,65	2,700
314,87	3,178
315,08	5,051
315,29	6,700
315,50	6,866
315,71	7,885
315,92	9,533
316,13	5,597
316,34	5,136
316,55	7,496
316,77	0,321
316,98	4,019
317,19	4,222
317,40	6,259
317,61	8,347
317,82	4,283
318,03	2,600
318,24	4,903
318,45	7,788
318,66	6,433
318,87	3,291
319,09	4,509
319,30	5,426
319,51	8,619
319,72	4,996
319,93	9,095
320,14	5,664
320,35	8,273
320,56	0,067
320,77	3,047
320,98	9,329
321,19	2,721
321,40	3,227
321,62	7,095
321,83	4,886
322,04	4,889
322,25	2,758
322,46	7,014
322,67	8,641
322,88	3,978
323,09	3,925
323,30	6,789
323,51	6,579
323,72	5,690
323,93	2,824
324,14	5,268
324,35	0,529
324,56	-0,841
324,77	2,929
324,99	3,177
325,20	0,119
325,41	4,692
325,62	6,187
325,83	0,812
326,04	4,940
326,25	5,641
326,46	0,957
326,67	6,088
326,88	6,147
327,09	1,670
327,30	2,434
327,51	5,729
327,72	6,606
327,93	6,663
328,14	0,867
328,35	5,360
328,56	4,595
328,77	4,141
328,98	6,405
329,19	7,082
329,40	4,789
329,61	4,783
329,82	0,432
330,04	6,450
330,25	3,619
330,46	4,085
330,67	1,674
330,88	7,037
331,09	5,050
331,30	3,229
331,51	6,583
331,72	6,484
331,93	7,486
332,14	4,544
332,35	5,207
332,56	2,841
332,77	6,119
332,98	1,122
333,19	1,123
333,40	6,233
333,61	4,544
333,82	5,816
334,03	4,796
334,24	8,213
334,45	3,558
334,66	4,677
334,87	3,306
335,08	2,960
335,29	5,081
335,50	2,215
335,71	2,064
335,92	7,929
336,13	6,591
336,34	3,160
336,55	5,640
336,76	7,793
336,97	4,993
337,18	4,079
337,39	4,172
337,60	7,386
337,81	6,277
338,02	3,388
338,23	3,458
338,44	7,713
338,65	4,048
338,86	3,477
339,07	3,320
339,28	6,593
339,49	4,913
339,70	-0,512
339,91	3,475
340,11	7,863
340,32	0,644
340,53	1,707
340,74	1,196
340,95	2,069
341,16	6,893
341,37	5,127
341,58	0,020
341,79	1,777
342,00	3,277
342,21	4,163
342,42	5,054
342,63	7,486
342,84	4,691
343,05	5,090
343,26	4,982
343,47	6,599
343,68	2,417
343,89	3,857
344,10	6,697
344,31	5,382
344,52	4,533
344,73	2,514
344,94	5,152
345,14	4,376
345,35	6,646
345,56	2,119
345,77	4,790
345,98	4,190
346,19	3,068
346,40	2,455
346,61	3,141
346,82	4,864
347,03	3,990
347,24	4,563
347,45	1,924
347,66	9,668
347,87	2,868
348,08	6,899
348,28	0,505
348,49	6,184
348,70	5,935
348,91	3,969
349,12	1,760
349,33	15,766
349,54	4,772
349,75	6,147
349,96	3,870
350,17	7,511
350,38	4,260
350,59	5,699
350,80	2,872
351,00	6,876
351,21	6,635
351,42	3,060
351,63	-1,219
351,84	5,471
352,05	7,990
352,26	5,008
352,47	3,320
352,68	8,081
352,89	7,411
353,09	4,213
353,30	0,383
353,51	2,927
353,72	5,371
353,93	7,619
354,14	1,655
354,35	1,824
354,56	8,804
354,77	5,551
354,98	1,098
355,18	7,544
355,39	11,242
355,60	3,110
355,81	5,360
356,02	5,136
356,23	5,090
356,44	2,390
356,65	4,926
356,85	9,992
357,06	9,134
357,27	6,585
357,48	0,741
357,69	4,442
357,90	7,304
358,11	1,240
358,32	0,230
358,52	7,300
358,73	3,507
358,94	3,822
359,15	4,354
359,36	7,109
359,57	4,785
359,78	2,913
359,98	0,292
360,19	0,895
360,40	5,103
360,61	7,667
360,82	0,818
361,03	8,062
361,24	7,090
361,44	1,292
361,65	3,594
361,86	3,860
362,07	4,449
362,28	1,629
362,49	-0,009
362,70	5,175
362,90	7,315
363,11	1,890
363,32	1,933
363,53	3,628
363,74	8,647
363,95	7,536
364,15	5,325
364,36	10,015
364,57	5,830
364,78	2,963
364,99	3,303
365,20	7,221
365,40	6,425
365,61	4,272
365,82	8,568
366,03	9,219
366,24	5,689
366,45	2,139
366,65	5,109
366,86	5,413
367,07	6,614
367,28	3,533
367,49	4,178
367,69	10,792
367,90	4,941
368,11	4,862
368,32	2,383
368,53	5,672
368,73	2,454
368,94	5,092
369,15	4,534
369,36	6,878
369,57	8,127
369,78	5,018
369,98	7,225
370,19	9,163
370,40	4,527
370,61	4,653
370,82	3,487
371,02	8,102
371,23	7,782
371,44	1,727
371,65	8,046
371,85	9,911
372,06	5,335
372,27	4,671
372,48	5,958
372,69	7,624
372,89	2,467
373,10	4,796
373,31	4,036
373,52	6,272
373,73	8,756
373,93	5,489
374,14	3,969
374,35	9,729
374,56	4,981
374,76	2,754
374,97	6,502
375,18	9,042
375,39	2,900
375,60	6,187
375,80	6,086
376,01	2,364
376,22	9,555
376,43	5,115
376,63	5,223
376,84	4,712
377,05	6,379
377,26	3,445
377,46	1,723
377,67	4,770
377,88	4,047
378,09	4,654
378,29	2,007
378,50	5,182
378,71	7,059
378,92	1,621
379,12	2,323
379,33	4,700
379,54	4,692
379,75	9,276
379,95	1,886
380,16	7,585
380,37	8,365
380,58	3,738
380,78	8,369
380,99	3,196
381,20	7,884
381,41	3,584
381,61	5,025
381,82	7,725
382,03	6,333
382,24	6,303
382,44	5,946
382,65	6,178
382,86	5,161
383,06	3,140
383,27	7,375
383,48	6,209
383,69	5,763
383,89	5,507
384,10	6,011
384,31	5,649
384,51	5,854
384,72	7,004
384,93	4,167
385,14	2,979
385,34	4,258
385,55	4,050
385,76	3,597
385,96	11,125
386,17	7,483
386,38	7,604
386,59	5,755
386,79	5,763
387,00	10,177
387,21	7,568
387,41	5,899
387,62	1,369
387,83	8,011
388,03	5,971
388,24	-1,175
388,45	5,848
388,66	8,800
388,86	4,521
389,07	0,904
389,28	10,954
389,48	4,262
389,69	0,481
389,90	4,055
390,10	6,516
390,31	6,186
390,52	-0,972
390,72	3,873
390,93	5,592
391,14	4,598
391,34	5,276
391,55	6,747
391,76	11,000
391,96	6,125
392,17	3,188
392,38	6,807
392,58	4,372
392,79	5,368
393,00	1,125
393,20	3,222
393,41	4,300
393,62	5,526
393,82	2,978
394,03	5,098
394,24	6,562
394,44	7,215
394,65	5,152
394,86	3,794
395,06	8,103
395,27	1,539
395,48	1,609
395,68	5,775
395,89	5,508
396,10	6,101
396,30	2,999
396,51	1,302
396,72	3,583
396,92	2,184
397,13	6,647
397,34	2,622
397,54	9,241
397,75	3,725
397,95	1,099
398,16	2,576
398,37	7,356
398,57	1,202
398,78	5,547
398,99	6,631
399,19	7,824
399,40	5,567
399,60	0,424
399,81	4,450
400,02	9,054
400,22	7,536
400,43	1,319
400,64	3,120
400,84	2,003
401,05	8,197
401,25	7,791
401,46	6,060
401,67	6,835
401,87	6,828
402,08	-1,864
402,29	3,703
402,49	11,064
402,70	6,744
402,90	4,854
403,11	4,341
403,32	6,170
403,52	4,542
403,73	6,484
403,93	6,082
404,14	6,623
404,35	6,792
404,55	2,240
404,76	3,315
404,96	3,902
405,17	11,000
405,38	11,009
405,58	3,691
405,79	9,027
405,99	9,307
406,20	3,480
406,40	-0,378
406,61	10,986
406,82	5,800
407,02	7,919
407,23	9,218
407,43	3,435
407,64	2,993
407,85	4,433
408,05	1,395
408,26	11,508
408,46	10,917
408,67	2,216
408,87	-0,331
409,08	3,019
409,29	10,837
409,49	6,251
409,70	5,337
409,90	7,862
410,11	6,887
410,31	10,299
410,52	6,199
410,72	2,784
410,93	7,715
411,14	2,395
411,34	2,034
411,55	8,633
411,75	8,920
411,96	6,200
412,16	9,398
412,37	6,407
412,57	6,704
412,78	10,057
412,99	1,988
413,19	9,310
413,40	6,033
413,60	2,216
413,81	3,445
414,01	5,131
414,22	5,426
414,42	2,548
414,63	1,424
414,83	11,753
415,04	12,340
415,24	7,938
415,45	3,931
415,65	4,392
415,86	8,885
416,07	5,319
416,27	7,532
416,48	11,761
416,68	12,446
416,89	0,283
417,09	5,403
417,30	7,495
417,50	5,270
417,71	8,530
417,91	6,107
418,12	5,454
418,32	5,495
418,53	4,751
418,73	4,809
418,94	3,940
419,14	9,499
419,35	4,015
419,55	9,247
419,76	9,739
419,96	3,515
420,17	5,339
420,37	5,697
420,58	11,374
420,78	6,720
420,99	6,747
421,19	8,620
421,40	10,645
421,60	9,774
421,81	4,153
422,01	6,814
422,22	5,366
422,42	9,897
422,63	7,632
422,83	8,254
423,04	11,232
423,24	12,411
423,45	8,287
423,65	10,580
423,86	13,693
424,06	13,058
424,27	4,576
424,47	3,830
424,67	6,656
424,88	10,356
425,08	5,567
425,29	12,679
425,49	4,954
425,70	4,273
425,90	8,460
426,11	7,158
426,31	10,116
426,52	10,938
426,72	3,316
426,93	5,554
427,13	13,100
427,33	9,243
427,54	9,294
427,74	7,100
427,95	10,894
428,15	4,705
428,36	9,638
428,56	6,557
428,77	8,241
428,97	8,913
429,18	7,693
429,38	7,891
429,58	8,904
429,79	8,145
429,99	7,422
430,20	2,028
430,40	13,532
430,61	7,039
430,81	3,904
431,01	10,750
431,22	12,779
431,42	16,539
431,63	5,713
431,83	7,367
432,04	8,718
432,24	15,405
432,44	7,802
432,65	4,118
432,85	7,654
433,06	11,102
433,26	8,633
433,47	8,242
433,67	8,974
433,87	8,874
434,08	5,457
434,28	7,672
434,49	6,477
434,69	13,654
434,89	6,683
435,10	5,978
435,30	10,374
435,51	5,709
435,71	9,737
435,91	6,332
436,12	11,156
436,32	7,306
436,53	11,109
436,73	7,336
436,93	11,285
437,14	11,848
437,34	9,721
437,55	9,430
437,75	10,127
437,95	12,386
438,16	7,113
438,36	5,727
438,57	5,711
438,77	8,615
438,97	11,464
439,18	12,838
439,38	10,369
439,58	9,688
439,79	7,334
439,99	8,649
440,20	14,820
440,40	11,667
440,60	10,076
440,81	10,464
441,01	7,863
441,21	14,618
441,42	14,797
441,62	9,649
441,83	13,180
442,03	10,407
442,23	10,949
442,44	8,140
442,64	12,802
442,84	9,189
443,05	8,843
443,25	9,590
443,45	13,801
443,66	11,657
443,86	9,117
444,06	10,557
444,27	13,005
444,47	12,765
444,67	8,534
444,88	14,806
445,08	12,888
445,28	13,911
445,49	7,317
445,69	7,739
445,90	13,973
446,10	16,372
446,30	14,905
446,51	12,335
446,71	18,572
446,91	16,663
447,12	18,745
447,32	11,418
447,52	15,640
447,72	15,335
447,93	11,776
448,13	8,213
448,33	18,807
448,54	14,696
448,74	9,921
448,94	15,314
449,15	21,783
449,35	21,356
449,55	12,275
449,76	17,183
449,96	14,725
450,16	17,529
450,37	10,841
450,57	14,798
450,77	11,074
450,98	18,360
451,18	17,659
451,38	15,647
451,58	17,159
451,79	17,651
451,99	18,241
452,19	16,657
452,40	17,974
452,60	12,963
452,80	16,074
453,00	16,880
453,21	18,031
453,41	16,117
453,61	14,389
453,82	19,921
454,02	17,161
454,22	22,864
454,42	19,242
454,63	15,228
454,83	17,470
455,03	22,444
455,24	20,579
455,44	16,468
455,64	13,152
455,84	13,671
456,05	14,048
456,25	14,765
456,45	19,123
456,65	19,086
456,86	21,164
457,06	22,097
457,26	22,343
457,47	24,382
457,67	19,844
457,87	18,283
458,07	18,754
458,28	31,511
458,48	21,456
458,68	15,554
458,88	22,081
459,09	24,726
459,29	26,476
459,49	20,784
459,69	20,784
459,90	27,175
460,10	19,465
460,30	24,531
460,50	20,952
460,71	21,269
460,91	19,315
461,11	23,558
461,31	24,299
461,52	28,474
461,72	23,012
461,92	23,969
462,12	33,637
462,32	21,650
462,53	22,673
462,73	23,387
462,93	26,084
463,13	27,770
463,34	25,746
463,54	26,132
463,74	26,002
463,94	25,167
464,14	25,604
464,35	22,217
464,55	30,118
464,75	34,611
464,95	26,926
465,16	21,347
465,36	28,416
465,56	29,850
465,76	27,345
465,96	25,803
466,17	24,473
466,37	26,874
466,57	32,298
466,77	28,557
466,97	29,610
467,18	30,314
467,38	31,432
467,58	32,342
467,78	37,650
467,98	33,669
468,19	29,705
468,39	33,122
468,59	33,918
468,79	32,892
468,99	28,924
469,19	27,625
469,40	31,552
469,60	32,491
469,80	30,666
470,00	32,576
470,20	38,086
470,41	34,385
470,61	32,726
470,81	34,165
471,01	28,033
471,21	34,599
471,41	32,319
471,62	36,174
471,82	33,082
472,02	34,932
472,22	34,236
472,42	31,782
472,62	35,155
472,83	31,554
473,03	36,922
473,23	36,222
473,43	40,431
473,63	37,470
473,83	34,388
474,03	36,676
474,24	43,305
474,44	36,991
474,64	38,741
474,84	36,650
475,04	38,881
475,24	38,641
475,45	36,996
475,65	37,907
475,85	41,648
476,05	34,063
476,25	38,665
476,45	35,689
476,65	44,690
476,85	39,740
477,06	36,461
477,26	35,693
477,46	37,466
477,66	41,092
477,86	40,982
478,06	39,875
478,26	44,137
478,46	40,799
478,67	42,385
478,87	38,708
479,07	40,595
479,27	44,790
479,47	38,866
479,67	34,191
479,87	38,294
480,07	41,697
480,28	39,667
480,48	39,072
480,68	42,908
480,88	45,408
481,08	43,389
481,28	44,073
481,48	44,395
481,68	42,053
481,88	39,827
482,08	42,930
482,29	47,798
482,49	42,497
482,69	42,131
482,89	45,980
483,09	47,331
483,29	42,228
483,49	43,125
483,69	44,325
483,89	42,951
484,09	41,280
484,29	38,897
484,50	43,859
484,70	47,665
484,90	43,630
485,10	41,197
485,30	47,512
485,50	47,968
485,70	44,150
485,90	42,909
486,10	41,676
486,30	43,451
486,50	45,816
486,70	41,927
486,90	43,414
487,10	45,413
487,30	44,599
487,51	46,306
487,71	42,290
487,91	43,510
488,11	44,332
488,31	41,346
488,51	43,760
488,71	45,189
488,91	45,344
489,11	43,473
489,31	43,939
489,51	46,823
489,71	45,657
489,91	43,444
490,11	43,740
490,31	47,338
490,51	48,259
490,71	43,941
490,91	44,705
491,11	48,598
491,31	48,279
491,51	46,046
491,72	48,391
491,92	49,747
492,12	51,188
492,32	49,960
492,52	52,804
492,72	48,008
492,92	51,915
493,12	49,415
493,32	46,583
493,52	44,362
493,72	49,614
493,92	50,316
494,12	49,631
494,32	49,862
494,52	49,049
494,72	50,728
494,92	49,230
495,12	51,508
495,32	52,521
495,52	49,555
495,72	52,234
495,92	54,347
496,12	53,408
496,32	46,776
496,52	50,838
496,72	51,477
496,92	53,252
497,12	52,160
497,32	54,152
497,52	53,056
497,72	55,105
497,92	54,071
498,12	50,858
498,32	50,110
498,52	52,859
498,72	49,606
498,92	50,409
499,12	54,996
499,32	50,661
499,52	54,157
499,72	56,072
499,92	56,711
500,12	52,958
500,32	56,733
500,52	53,271
500,72	59,436
500,91	55,875
501,11	54,874
501,31	51,897
501,51	56,866
501,71	58,827
501,91	56,006
502,11	54,549
502,31	54,340
502,51	56,295
502,71	55,614
502,91	55,936
503,11	57,368
503,31	56,866
503,51	53,508
503,71	52,706
503,91	56,878
504,11	57,403
504,31	57,286
504,51	56,582
504,71	61,969
504,91	55,731
505,10	58,326
505,30	55,539
505,50	57,296
505,70	54,907
505,90	56,603
506,10	53,387
506,30	53,802
506,50	59,284
506,70	58,348
506,90	53,850
507,10	55,691
507,30	56,213
507,50	55,114
507,70	58,215
507,89	58,719
508,09	57,310
508,29	55,189
508,49	59,905
508,69	55,420
508,89	55,321
509,09	52,885
509,29	56,158
509,49	57,712
509,69	62,667
509,89	56,030
510,09	56,124
510,28	56,730
510,48	56,108
510,68	53,607
510,88	56,665
511,08	55,880
511,28	54,155
511,48	55,178
511,68	52,239
511,88	53,141
512,07	56,326
512,27	55,069
512,47	55,539
512,67	54,749
512,87	52,549
513,07	56,386
513,27	52,802
513,47	55,243
513,67	52,044
513,86	55,612
514,06	52,932
514,26	56,375
514,46	60,206
514,66	54,628
514,86	56,367
515,06	58,695
515,26	59,614
515,45	55,602
515,65	55,631
515,85	56,861
516,05	54,989
516,25	56,354
516,45	59,339
516,65	54,848
516,84	55,794
517,04	57,957
517,24	52,256
517,44	55,894
517,64	60,802
517,84	58,077
518,04	56,813
518,23	58,419
518,43	59,990
518,63	53,508
518,83	54,296
519,03	55,754
519,23	59,739
519,42	56,968
519,62	56,366
519,82	56,886
520,02	56,954
520,22	54,864
520,42	52,317
520,61	58,157
520,81	58,654
521,01	58,932
521,21	55,474
521,41	53,629
521,61	57,106
521,80	53,262
522,00	56,121
522,20	56,824
522,40	56,322
522,60	54,077
522,79	56,100
522,99	55,732
523,19	53,694
523,39	55,302
523,59	55,044
523,78	58,285
523,98	54,611
524,18	57,424
524,38	54,822
524,58	54,192
524,77	58,530
524,97	56,551
525,17	54,416
525,37	54,937
525,57	58,867
525,76	53,209
525,96	57,152
526,16	54,475
526,36	57,229
526,56	54,317
526,75	53,867
526,95	58,020
527,15	55,771
527,35	57,428
527,55	55,665
527,74	56,412
527,94	52,520
528,14	56,102
528,34	54,230
528,53	54,973
528,73	57,550
528,93	55,402
529,13	52,658
529,32	57,073
529,52	57,026
529,72	53,022
529,92	54,119
530,12	54,065
530,31	52,546
530,51	56,545
530,71	56,771
530,91	56,175
531,10	53,514
531,30	54,276
531,50	51,226
531,70	58,914
531,89	53,814
532,09	52,339
532,29	52,600
532,49	53,896
532,68	54,293
532,88	53,409
533,08	52,737
533,28	52,576
533,47	54,512
533,67	54,454
533,87	53,548
534,06	60,319
534,26	51,759
534,46	51,836
534,66	53,062
534,85	53,621
535,05	50,631
535,25	52,528
535,45	50,849
535,64	55,677
535,84	53,123
536,04	53,251
536,23	53,627
536,43	54,618
536,63	52,455
536,83	51,457
537,02	50,306
537,22	51,071
537,42	53,440
537,61	51,555
537,81	52,180
538,01	50,883
538,20	53,704
538,40	50,091
538,60	47,461
538,80	49,496
538,99	50,093
539,19	48,031
539,39	46,136
539,58	47,815
539,78	43,222
539,98	45,767
540,17	44,446
540,37	46,421
540,57	41,830
540,76	43,401
540,96	40,570
541,16	44,322
541,36	41,070
541,55	36,593
541,75	38,067
541,95	40,188
542,14	39,416
542,34	37,763
542,54	36,875
542,73	39,641
542,93	41,180
543,13	37,774
543,32	37,624
543,52	39,065
543,72	36,253
543,91	36,230
544,11	36,862
544,31	37,247
544,50	38,699
544,70	39,938
544,89	37,706
545,09	40,665
545,29	38,614
545,48	39,726
545,68	38,478
545,88	41,099
546,07	40,025
546,27	39,641
546,47	41,858
546,66	43,516
546,86	44,163
547,06	42,003
547,25	44,479
547,45	48,693
547,64	45,482
547,84	47,640
548,04	46,414
548,23	50,674
548,43	47,761
548,63	49,084
548,82	48,022
549,02	45,578
549,21	48,280
549,41	48,292
549,61	50,035
549,80	47,882
550,00	47,635
550,20	46,030
550,39	48,378
550,59	48,574
550,78	50,476
550,98	46,890
551,18	50,760
551,37	49,857
551,57	49,313
551,76	48,350
551,96	46,223
552,16	51,933
552,35	50,710
552,55	48,863
552,74	49,937
552,94	52,102
553,14	50,374
553,33	49,244
553,53	52,317
553,72	50,363
553,92	55,476
554,12	48,775
554,31	52,122
554,51	52,219
554,70	48,865
554,90	50,515
555,09	54,664
555,29	53,996
555,49	52,826
555,68	52,542
555,88	49,911
556,07	50,938
556,27	54,791
556,46	50,396
556,66	48,047
556,86	55,304
557,05	51,861
557,25	51,518
557,44	51,695
557,64	50,738
557,83	53,519
558,03	52,971
558,22	51,189
558,42	51,226
558,62	54,452
558,81	51,765
559,01	51,147
559,20	56,049
559,40	51,095
559,59	51,241
559,79	52,074
559,98	53,583
560,18	54,533
560,37	52,578
560,57	55,511
560,76	50,184
560,96	48,583
561,16	53,466
561,35	51,477
561,55	54,063
561,74	55,238
561,94	54,487
562,13	50,671
562,33	54,037
562,52	53,819
562,72	51,506
562,91	52,152
563,11	53,645
563,30	54,240
563,50	51,230
563,69	51,654
563,89	49,320
564,08	53,547
564,28	50,770
564,47	50,572
564,67	51,810
564,86	54,581
565,06	52,124
565,25	51,359
565,45	51,828
565,64	54,446
565,84	51,963
566,03	51,570
566,23	53,427
566,42	53,053
566,62	51,294
566,81	53,192
567,01	52,456
567,20	53,350
567,40	50,818
567,59	49,558
567,79	55,280
567,98	57,892
568,18	54,323
568,37	52,881
568,57	51,278
568,76	56,136
568,96	53,028
569,15	53,320
569,35	53,450
569,54	56,484
569,73	55,785
569,93	50,382
570,12	50,915
570,32	55,408
570,51	52,351
570,71	54,416
570,90	55,770
571,10	52,485
571,29	52,042
571,49	51,437
571,68	53,449
571,87	52,453
572,07	54,879
572,26	49,875
572,46	53,765
572,65	54,644
572,85	52,444
573,04	52,579
573,24	55,201
573,43	56,184
573,62	54,257
573,82	53,011
574,01	54,488
574,21	54,027
574,40	51,308
574,60	51,554
574,79	56,629
574,98	51,438
575,18	52,511
575,37	52,856
575,57	55,043
575,76	53,808
575,96	53,526
576,15	51,050
576,34	52,129
576,54	55,859
576,73	52,513
576,93	51,203
577,12	52,944
577,31	53,864
577,51	50,946
577,70	53,114
577,90	52,790
578,09	51,624
578,28	51,159
578,48	53,118
578,67	53,946
578,87	54,001
579,06	51,868
579,25	52,148
579,45	53,539
579,64	51,917
579,84	51,930
580,03	51,408
580,22	55,779
580,42	50,880
580,61	52,793
580,81	52,282
581,00	52,548
581,19	53,907
581,39	52,037
581,58	51,656
581,77	52,861
581,97	53,513
582,16	50,071
582,35	52,671
582,55	51,735
582,74	52,907
582,94	51,262
583,13	49,438
583,32	52,424
583,52	53,841
583,71	52,465
583,90	53,079
584,10	53,095
584,29	53,041
584,48	50,458
584,68	51,196
584,87	53,490
585,06	52,650
585,26	49,590
585,45	50,181
585,65	53,145
585,84	51,422
586,03	50,946
586,23	51,054
586,42	52,718
586,61	54,203
586,81	51,663
587,00	53,129
587,19	51,406
587,39	53,371
587,58	51,174
587,77	51,885
587,97	52,158
588,16	51,539
588,35	52,757
588,54	51,660
588,74	51,813
588,93	53,582
589,12	52,058
589,32	52,884
589,51	52,513
589,70	49,505
589,90	51,354
590,09	51,024
590,28	54,841
590,48	50,458
590,67	52,108
590,86	52,086
591,06	52,251
591,25	54,754
591,44	52,706
591,63	52,055
591,83	53,067
592,02	54,191
592,21	53,462
592,41	50,764
592,60	53,309
592,79	53,279
592,98	53,612
593,18	53,084
593,37	53,283
593,56	54,213
593,76	52,995
593,95	52,026
594,14	52,735
594,33	55,926
594,53	51,309
594,72	53,538
594,91	56,966
595,10	54,957
595,30	53,851
595,49	53,576
595,68	55,369
595,88	54,241
596,07	54,990
596,26	53,750
596,45	53,561
596,65	49,650
596,84	53,828
597,03	56,081
597,22	55,670
597,42	57,211
597,61	54,377
597,80	53,353
597,99	54,623
598,19	55,030
598,38	55,030
598,57	54,801
598,76	55,779
598,95	58,352
599,15	54,685
599,34	53,023
599,53	54,492
599,72	56,062
599,92	56,315
600,11	54,829
600,30	55,203
600,49	57,055
600,69	54,610
600,88	53,384
601,07	54,440
601,26	55,137
601,45	54,602
601,65	54,875
601,84	56,626
602,03	55,806
602,22	57,535
602,42	58,226
602,61	54,179
602,80	58,075
602,99	55,791
603,18	54,176
603,38	56,336
603,57	56,385
603,76	54,082
603,95	56,055
604,14	55,567
604,34	56,084
604,53	55,381
604,72	55,038
604,91	53,833
605,10	56,146
605,29	56,641
605,49	53,605
605,68	56,984
605,87	57,907
606,06	54,861
606,25	54,194
606,45	55,383
606,64	56,633
606,83	54,975
607,02	53,309
607,21	56,069
607,40	55,382
607,60	51,511
607,79	53,211
607,98	50,776
608,17	50,765
608,36	52,587
608,55	51,390
608,75	51,467
608,94	50,793
609,13	46,891
609,32	44,851
609,51	46,306
609,70	44,558
609,89	46,788
610,09	45,801
610,28	46,306
610,47	43,897
610,66	43,955
610,85	42,049
611,04	46,763
611,23	44,653
611,43	43,096
611,62	43,128
611,81	45,118
612,00	45,515
612,19	43,928
612,38	45,373
612,57	48,789
612,77	46,588
612,96	47,095
613,15	47,130
613,34	50,775
613,53	49,786
613,72	49,763
613,91	49,619
614,10	50,706
614,29	52,669
614,49	50,166
614,68	50,029
614,87	51,822
615,06	55,893
615,25	48,825
615,44	52,994
615,63	51,923
615,82	52,758
616,01	53,143
616,21	50,202
616,40	55,544
616,59	54,668
616,78	54,094
616,97	53,249
617,16	52,579
617,35	55,589
617,54	52,369
617,73	53,394
617,92	52,548
618,11	54,576
618,31	51,468
618,50	53,405
618,69	53,875
618,88	52,786
619,07	51,223
619,26	51,262
619,45	52,545
619,64	51,256
619,83	52,305
620,02	50,858
620,21	55,205
620,40	54,261
620,59	52,873
620,78	52,019
620,97	54,250
621,17	54,304
621,36	52,556
621,55	52,330
621,74	52,356
621,93	52,710
622,12	53,133
622,31	52,204
622,50	52,988
622,69	55,744
622,88	54,376
623,07	55,017
623,26	54,697
623,45	56,229
623,64	52,873
623,83	51,545
624,02	55,192
624,21	55,467
624,40	54,725
624,59	51,675
624,78	53,850
624,97	56,086
625,16	52,569
625,35	50,095
625,54	50,611
625,73	52,959
625,92	52,989
626,12	54,523
626,31	56,771
626,50	53,573
626,69	54,228
626,88	52,153
627,07	53,867
627,26	53,479
627,45	53,488
627,64	54,186
627,83	55,883
628,02	52,870
628,21	53,642
628,40	51,013
628,59	54,454
628,78	50,827
628,97	51,973
629,16	49,941
629,35	52,729
629,54	54,558
629,73	53,196
629,92	51,032
630,10	52,115
630,29	52,939
630,48	53,744
630,67	52,760
630,86	53,741
631,05	51,923
631,24	55,463
631,43	51,031
631,62	52,836
631,81	52,491
632,00	52,612
632,19	51,109
632,38	53,709
632,57	51,474
632,76	53,925
632,95	53,250
633,14	55,958
633,33	54,657
633,52	53,193
633,71	55,708
633,90	51,449
634,09	55,362
634,28	53,006
634,47	51,479
634,66	53,096
634,85	54,238
635,04	54,721
635,22	53,375
635,41	53,963
635,60	56,027
635,79	55,642
635,98	51,337
636,17	54,961
636,36	53,479
636,55	52,385
636,74	51,250
636,93	55,117
637,12	54,874
637,31	52,241
637,50	52,446
637,69	56,782
637,87	55,130
638,06	53,352
638,25	52,330
638,44	53,745
638,63	51,578
638,82	53,879
639,01	54,269
639,20	53,831
639,39	54,257
639,58	51,818
639,77	55,195
639,95	55,490
640,14	54,624
640,33	51,654
640,52	53,693
640,71	57,343
640,90	52,334
641,09	54,949
641,28	53,846
641,47	54,585
641,66	52,522
641,84	52,004
642,03	51,827
642,22	52,781
642,41	56,207
642,60	53,781
642,79	53,591
642,98	54,332
643,17	54,139
643,35	51,928
643,54	51,748
643,73	53,718
643,92	54,521
644,11	52,818
644,30	52,489
644,49	55,712
644,67	53,308
644,86	51,640
645,05	55,039
645,24	52,460
645,43	55,038
645,62	53,040
645,81	53,225
645,99	55,873
646,18	56,406
646,37	53,855
646,56	51,719
646,75	55,915
646,94	55,073
647,13	53,021
647,31	52,667
647,50	53,809
647,69	55,983
647,88	54,244
648,07	53,991
648,26	57,231
648,44	51,675
648,63	52,254
648,82	52,507
649,01	55,150
649,20	51,670
649,38	53,153
649,57	54,515
649,76	52,962
649,95	55,031
650,14	52,003
650,33	52,665
650,51	53,053
650,70	54,756
650,89	53,543
651,08	55,215
651,27	54,519
651,45	51,789
651,64	51,697
651,83	53,893
652,02	52,807
652,21	55,668
652,39	54,490
652,58	54,508
652,77	55,485
652,96	55,874
653,15	52,956
653,33	54,649
653,52	55,244
653,71	58,120
653,90	56,469
654,09	55,213
654,27	55,385
654,46	56,368
654,65	54,670
654,84	54,927
655,02	56,720
655,21	58,544
655,40	57,651
655,59	55,322
655,77	58,023
655,96	54,509
656,15	57,640
656,34	57,730
656,53	57,265
656,71	56,715
656,90	55,921
657,09	56,738
657,28	57,906
657,46	54,012
657,65	55,511
657,84	53,379
658,03	55,564
658,21	55,638
658,40	52,730
658,59	55,662
658,78	55,566
658,96	53,965
659,15	54,235
659,34	53,095
659,52	55,299
659,71	55,058
659,90	52,670
660,09	53,784
660,27	53,261
660,46	55,518
660,65	53,221
660,84	51,617
661,02	53,973
661,21	55,227
661,40	52,818
661,58	53,897
661,77	53,755
661,96	51,643
662,15	52,452
662,33	52,863
662,52	52,207
662,71	54,317
662,89	52,721
663,08	52,665
663,27	54,299
663,45	53,986
663,64	52,725
663,83	50,908
664,02	51,028
664,20	52,467
664,39	51,787
664,58	53,536
664,76	52,983
664,95	54,166
665,14	53,986
665,32	51,980
665,51	52,937
665,70	53,523
665,88	53,553
666,07	52,481
666,26	55,290
666,44	53,882
666,63	51,888
666,82	51,872
667,00	54,305
667,19	50,861
667,38	53,862
667,56	54,633
667,75	53,786
667,94	52,832
668,12	51,976
668,31	52,799
668,50	52,949
668,68	55,971
668,87	53,096
669,06	53,980
669,24	53,887
669,43	52,414
669,62	52,284
669,80	50,526
669,99	52,703
670,18	52,882
670,36	52,428
670,55	53,122
670,74	53,314
670,92	50,017
671,11	55,098
671,29	54,064
671,48	53,954
671,67	54,204
671,85	54,188
672,04	53,581
672,23	52,298
672,41	52,796
672,60	53,094
672,78	50,779
672,97	53,204
673,16	53,871
673,34	51,646
673,53	52,259
673,71	54,591
673,90	53,944
674,09	51,652
674,27	52,563
674,46	54,093
674,64	53,593
674,83	52,546
675,02	51,671
675,20	51,858
675,39	53,218
675,57	52,489
675,76	52,008
675,95	55,839
676,13	53,990
676,32	53,556
676,50	53,196
676,69	51,079
676,88	53,327
677,06	52,527
677,25	51,404
677,43	54,981
677,62	53,447
677,80	52,049
677,99	53,952
678,18	55,042
678,36	55,323
678,55	50,975
678,73	51,804
678,92	54,456
679,10	55,216
679,29	52,690
679,48	52,631
679,66	53,308
679,85	52,272
680,03	53,996
680,22	51,692
680,40	50,965
680,59	53,098
680,77	52,314
680,96	53,002
681,15	52,067
681,33	54,801
681,52	51,813
681,70	53,929
681,89	54,687
682,07	55,446
682,26	52,161
682,44	53,944
682,63	54,558
682,81	54,125
683,00	53,380
683,18	51,187
683,37	55,092
683,55	52,640
683,74	53,063
683,92	58,788
684,11	54,269
684,29	54,891
684,48	50,314
684,67	51,708
684,85	54,040
685,04	53,717
685,22	54,742
685,41	52,219
685,59	55,564
685,78	52,025
685,96	51,292
686,15	50,062
686,33	51,553
686,52	52,621
686,70	51,800
686,89	53,292
687,07	53,286
687,26	54,770
687,44	52,974
687,62	51,620
687,81	53,375
687,99	53,086
688,18	52,539
688,36	50,789
688,55	54,540
688,73	53,618
688,92	51,545
689,10	53,056
689,29	53,307
689,47	54,731
689,66	51,870
689,84	51,600
690,03	56,565
690,21	52,752
690,40	53,344
690,58	50,693
690,76	50,383
690,95	54,770
691,13	51,711
691,32	54,254
691,50	53,680
691,69	52,929
691,87	50,604
692,06	52,314
692,24	51,294
692,43	55,410
692,61	49,684
692,79	50,762
692,98	49,038
693,16	55,633
693,35	52,263
693,53	52,444
693,72	52,196
693,90	54,912
694,08	49,629
694,27	50,762
694,45	54,709
694,64	55,257
694,82	51,628
695,01	51,026
695,19	51,946
695,37	52,984
695,56	52,013
695,74	52,476
695,93	54,641
696,11	52,948
696,29	54,024
696,48	51,908
696,66	54,634
696,85	53,081
697,03	51,667
697,21	53,511
697,40	52,431
697,58	54,676
697,77	50,568
697,95	52,276
698,13	54,638
698,32	52,945
698,50	51,762
698,69	51,290
698,87	53,053
699,05	52,298
699,24	49,859
699,42	51,590
699,60	49,690
699,79	53,101
699,97	52,023
700,16	50,885
700,34	55,000
700,52	51,026
700,71	50,643
700,89	50,211
701,07	52,879
701,26	54,310
701,44	51,851
701,63	49,473
701,81	53,468
701,99	54,610
702,18	51,068
702,36	50,389
702,54	52,906
702,73	54,242
702,91	51,364
703,09	51,275
703,28	51,789
703,46	53,239
703,64	52,591
703,83	52,344
704,01	52,792
704,19	50,658
704,38	49,525
704,56	50,605
704,74	53,532
704,93	52,068
705,11	50,749
705,29	51,505
705,48	57,762
705,66	51,281
705,84	51,306
706,03	50,508
706,21	51,780
706,39	52,739
706,58	50,665
706,76	49,888
706,94	53,842
707,12	51,770
707,31	49,861
707,49	49,817
707,67	52,405
707,86	52,977
708,04	50,951
708,22	49,333
708,41	51,926
708,59	51,703
708,77	50,650
708,95	52,792
709,14	53,483
709,32	52,191
709,50	49,541
709,69	50,956
709,87	51,641
710,05	51,001
710,23	49,316
710,42	49,948
710,60	52,393
710,78	54,010
710,97	49,726
711,15	51,758
711,33	52,861
711,51	50,331
711,70	51,235
711,88	50,641
712,06	52,682
712,24	51,171
712,43	53,221
712,61	50,907
712,79	51,137
712,97	49,924
713,16	51,130
713,34	50,751
713,52	53,359
713,70	52,681
713,89	51,633
714,07	50,238
714,25	51,421
714,43	54,569
714,62	49,472
714,80	52,896
714,98	47,559
715,16	51,921
715,35	49,231
715,53	50,702
715,71	54,679
715,89	55,630
716,07	52,713
716,26	55,711
716,44	54,499
716,62	52,016
716,80	51,150
716,99	51,725
717,17	53,323
717,35	51,305
717,53	49,959
717,71	49,936
717,90	53,719
718,08	52,049
718,26	47,972
718,44	52,131
718,62	53,052
718,81	52,723
718,99	49,445
719,17	49,385
719,35	51,152
719,53	49,759
719,72	50,450
719,90	52,654
720,08	51,996
720,26	53,252
720,44	52,933
720,62	51,302
720,81	53,795
720,99	54,575
721,17	51,867
721,35	51,166
721,53	53,268
721,72	54,617
721,90	51,544
722,08	49,683
722,26	52,464
722,44	51,944
722,62	52,000
722,81	50,740
722,99	49,786
723,17	54,134
723,35	51,203
723,53	51,676
723,71	54,750
723,89	55,047
724,08	48,333
724,26	51,200
724,44	51,084
724,62	53,168
724,80	51,553
724,98	51,380
725,16	53,743
725,35	51,327
725,53	50,499
725,71	51,409
725,89	52,633
726,07	55,062
726,25	55,681
726,43	51,989
726,61	52,629
726,80	51,846
726,98	49,910
727,16	50,418
727,34	55,248
727,52	51,682
727,70	50,754
727,88	51,626
728,06	52,112
728,25	49,835
728,43	53,648
728,61	51,028
728,79	51,342
728,97	53,276
729,15	51,676
729,33	50,937
729,51	52,485
729,69	53,832
729,87	53,016
730,06	51,073
730,24	53,284
730,42	55,150
730,60	50,166
730,78	52,341
730,96	51,516
731,14	54,215
731,32	51,513
731,50	49,174
731,68	51,643
731,86	52,291
732,04	51,544
732,22	50,809
732,41	55,554
732,59	51,528
732,77	52,011
732,95	53,654
733,13	53,180
733,31	52,010
733,49	49,954
733,67	51,979
733,85	52,711
734,03	52,997
734,21	50,861
734,39	52,587
734,57	52,638
734,75	51,599
734,93	50,632
735,11	53,261
735,29	51,926
735,47	54,610
735,65	50,221
735,84	50,038
736,02	53,358
736,20	54,799
736,38	51,255
736,56	51,733
736,74	52,018
736,92	49,683
737,10	52,668
737,28	53,271
737,46	51,448
737,64	52,114
737,82	51,994
738,00	51,094
738,18	54,592
738,36	54,013
738,54	50,255
738,72	50,046
738,90	52,523
739,08	53,491
739,26	47,665
739,44	51,995
739,62	54,649
739,80	53,563
739,98	52,250
740,16	51,322
740,34	51,866
740,52	56,568
740,70	51,810
740,88	48,464
741,06	50,463
741,24	51,968
741,42	52,101
741,60	49,633
741,78	51,797
741,96	51,376
742,14	51,206
742,32	50,286
742,50	52,246
742,68	53,355
742,86	51,432
743,04	49,682
743,21	52,340
743,39	53,049
743,57	51,695
743,75	49,114
743,93	49,611
744,11	48,303
744,29	49,133
744,47	52,228
744,65	51,793
744,83	50,170
745,01	50,005
745,19	52,200
745,37	54,653
745,55	52,340
745,73	52,270
745,91	49,307
746,09	50,588
746,27	50,763
746,45	47,185
746,62	51,990
746,80	49,768
746,98	51,553
747,16	50,758
747,34	50,854
747,52	50,711
747,70	50,508
747,88	49,337
748,06	48,934
748,24	52,986
748,42	54,001
748,60	50,694
748,78	50,893
748,95	52,359
749,13	55,592
749,31	50,766
749,49	50,996
749,67	53,194
749,85	51,982
750,03	50,252
750,21	52,594
750,39	53,120
750,57	51,530
750,74	51,001
750,92	50,509
751,10	52,417
751,28	50,128
751,46	51,741
751,64	53,373
751,82	53,125
752,00	52,939
752,17	50,456
752,35	51,092
752,53	53,568
752,71	51,522
752,89	52,187
753,07	48,738
753,25	53,884
753,43	51,445
753,60	53,474
753,78	49,864
753,96	54,403
754,14	51,422
754,32	51,884
754,50	53,311
754,68	53,830
754,85	50,881
755,03	52,333
755,21	51,411
755,39	55,146
755,57	54,235
755,75	50,252
755,92	52,578
756,10	53,532
756,28	52,756
756,46	49,521
756,64	51,920
756,82	52,131
756,99	51,227
757,17	50,840
757,35	49,742
757,53	55,942
757,71	54,619
757,89	48,634
758,06	52,195
758,24	52,968
758,42	54,154
758,60	51,473
758,78	50,036
758,95	52,750
759,13	52,573
759,31	50,037
759,49	50,021
759,67	52,059
759,84	52,243
760,02	52,595
760,20	51,653
760,38	53,269
760,56	51,574
760,73	52,552
760,91	51,678
761,09	54,056
761,27	53,075
761,45	51,449
761,62	50,190
761,80	52,829
761,98	53,528
762,16	51,876
762,33	50,750
762,51	54,670
762,69	51,206
762,87	50,607
763,05	53,318
763,22	50,481
763,40	50,402
763,58	50,901
763,76	50,509
763,93	55,126
764,11	53,720
764,29	49,946
764,47	53,424
764,64	51,978
764,82	54,838
765,00	51,602
765,18	47,968
765,35	51,782
765,53	52,870
765,71	51,009
765,89	49,996
766,06	50,072
766,24	53,989
766,42	51,687
766,60	50,093
766,77	50,543
766,95	53,244
767,13	51,409
767,30	51,048
767,48	50,607
767,66	52,146
767,84	49,356
768,01	50,479
768,19	53,110
768,37	53,433
768,54	52,878
768,72	53,133
768,90	53,138
769,08	51,324
769,25	52,550
769,43	50,446
769,61	49,585
769,78	52,989
769,96	51,420
770,14	52,513
770,31	55,348
770,49	53,466
770,67	49,228
770,85	52,007
771,02	53,393
771,20	51,195
771,38	53,434
771,55	51,764
771,73	50,625
771,91	51,902
772,08	53,377
772,26	50,746
772,44	51,328
772,61	51,109
772,79	49,835
772,97	51,397
773,14	49,956
773,32	54,452
773,50	52,842
773,67	51,667
773,85	54,774
774,03	55,328
774,20	51,007
774,38	50,626
774,56	51,546
774,73	51,635
774,91	50,184
775,09	50,122
775,26	53,823
775,44	52,672
775,61	53,613
775,79	51,374
775,97	54,265
776,14	51,473
776,32	51,649
776,50	52,196
776,67	53,263
776,85	53,201
777,03	50,046
777,20	52,601
777,38	55,336
777,55	53,721
777,73	46,311
777,91	49,860
778,08	52,972
778,26	50,872
778,43	55,460
778,61	49,079
778,79	50,342
778,96	50,557
779,14	52,182
779,32	50,539
779,49	52,338
779,67	55,957
779,84	51,429
780,02	52,965
780,20	49,985
780,37	53,379
780,55	47,775
780,72	55,427
780,90	53,926
781,07	54,435
781,25	52,323
781,43	52,170
781,60	51,380
781,78	51,962
781,95	51,629
782,13	50,838
782,30	56,359
782,48	53,722
782,66	50,815
782,83	51,135
783,01	57,381
783,18	54,258
783,36	52,410
783,53	52,894
783,71	50,167
783,89	51,686
784,06	54,438
784,24	51,981
784,41	54,104
784,59	53,036
784,76	52,529
784,94	51,962
785,11	54,138
785,29	52,258
785,46	51,429
785,64	52,836
785,82	53,425
785,99	53,092
786,17	52,250
786,34	53,757
786,52	52,837
786,69	55,381
786,87	53,469
787,04	50,752
787,22	50,863
787,39	53,124
787,57	54,686
787,74	52,722
787,92	55,911
788,09	55,999
788,27	50,296
788,44	51,511
788,62	52,173
788,79	53,969
788,97	54,974
789,14	54,483
789,32	49,549
789,49	57,039
789,67	53,177
789,84	55,258
790,02	54,882
790,19	52,716
790,37	55,093
790,54	53,310
790,72	57,961
790,89	54,858
791,07	54,571
791,24	49,275
791,42	53,362
791,59	58,656
791,77	53,948
791,94	49,563
792,12	53,547
792,29	56,719
792,47	51,074
792,64	56,999
792,81	57,201
792,99	51,461
793,16	55,272
793,34	54,369
793,51	54,109
793,69	56,188
793,86	53,668
794,04	54,429
794,21	55,728
794,39	49,677
794,56	52,368
794,73	53,099
794,91	54,679
795,08	54,256
795,26	52,530
795,43	55,746
795,61	57,907
795,78	55,326
795,95	56,898
796,13	56,162
796,30	57,755
796,48	50,582
796,65	50,891
796,83	51,228
797,00	60,426
797,17	51,955
797,35	55,114
797,52	53,582
797,70	57,718
797,87	52,953
798,04	50,219
798,22	54,088
798,39	53,060
798,57	57,608
798,74	54,170
798,91	50,421
799,09	52,412
799,26	54,607
799,44	56,442
799,61	52,213
799,78	55,426
799,96	55,866
800,13	54,136
800,31	54,949
800,48	59,859
800,65	55,881
800,83	53,399
801,00	53,997
801,17	54,307
801,35	56,258
801,52	54,498
801,70	54,820
801,87	56,811
802,04	56,401
802,22	50,732
802,39	53,259
802,56	60,440
802,74	55,674
802,91	53,620
803,08	51,855
803,26	53,616
803,43	59,888
803,61	55,098
803,78	54,667
803,95	58,746
804,13	54,393
804,30	53,899
804,47	56,061
804,65	58,110
804,82	56,322
804,99	54,210
805,17	56,412
805,34	59,412
805,51	60,225
805,69	55,534
805,86	54,810
806,03	60,639
806,21	59,607
806,38	57,743
806,55	56,717
806,72	60,478
806,90	59,033
807,07	56,628
807,24	52,237
807,42	52,225
807,59	51,632
807,76	48,993
807,94	56,849
808,11	61,699
808,28	61,343
808,45	58,528
808,63	56,510
808,80	58,899
808,97	55,682
809,15	53,939
809,32	58,935
809,49	52,250
809,67	57,821
809,84	54,191
810,01	57,298
810,18	66,235
810,36	59,426
810,53	56,675
810,70	54,528
810,87	57,206
811,05	56,002
811,22	60,651
811,39	57,848
811,57	58,822
811,74	55,451
811,91	49,018
812,08	53,936
812,26	58,435
812,43	56,496
812,60	52,845
812,77	54,061
812,95	60,546
813,12	55,924
813,29	52,289
813,46	58,581
813,64	58,071
813,81	56,488
813,98	56,161
814,15	59,186
814,32	61,771
814,50	60,162
814,67	60,393
814,84	56,639
815,01	59,618
815,19	52,795
815,36	50,840
815,53	55,499
815,70	54,576
815,87	59,887
816,05	48,104
816,22	56,872
816,39	62,496
816,56	65,045
816,74	57,045
816,91	58,128
817,08	67,285
817,25	60,071
817,42	55,664
817,60	54,649
817,77	58,858
817,94	57,852
818,11	56,575
818,28	57,840
818,45	56,735
818,63	59,552
818,80	54,899
818,97	61,654
819,14	64,376
819,31	59,940
819,49	63,686
819,66	53,425
819,83	63,543
820,00	60,953
820,17	55,099
820,34	54,544
820,52	62,839
820,69	61,663
820,86	52,282
821,03	59,310
821,20	64,664
821,37	64,550
821,55	53,857
821,72	58,671
821,89	57,567
822,06	63,425
822,23	57,165
822,40	53,186
822,57	62,397
822,75	66,223
822,92	54,045
823,09	63,175
823,26	63,944
823,43	61,877
823,60	55,889
823,77	60,136
823,94	62,413
824,12	69,472
824,29	60,090
824,46	51,258
824,63	67,550
824,80	64,405
824,97	60,740
825,14	62,836
825,31	71,782
825,49	62,741
825,66	51,296
825,83	55,143
826,00	62,019
826,17	71,446
826,34	56,122
826,51	56,095
826,68	59,335
826,85	62,471
827,02	55,826
827,20	51,821
827,37	60,295
827,54	63,950
827,71	60,799
827,88	59,345
828,05	66,780
828,22	61,052
828,39	62,672
828,56	57,495
828,73	62,988
828,90	60,683
829,07	57,754
829,25	61,731
829,42	61,407
829,59	61,522
829,76	54,830
829,93	57,693
830,10	68,457
830,27	56,983
830,44	63,964
830,61	60,695
830,78	76,102
830,95	66,987
831,12	51,946
831,29	55,450
831,46	56,337
831,63	56,714
831,80	54,679
831,97	61,102
832,14	69,916
832,31	69,977
832,48	57,225
832,65	66,070
832,83	62,419
833,00	63,149
833,17	53,353
833,34	61,730
833,51	69,030
833,68	67,303
833,85	61,118
834,02	59,506
834,19	63,576
834,36	66,468
834,53	59,180
834,70	59,671
834,87	78,732
835,04	57,897
835,21	59,719
835,38	61,098
835,55	65,816
835,72	74,041
835,89	56,700
836,06	62,659
836,23	78,683
836,40	55,914
836,57	52,623
836,74	58,799
836,91	65,512
837,08	70,586
837,25	66,675
837,42	52,325
837,59	58,655
837,76	66,590
837,93	65,062
838,09	48,928
838,26	74,952
838,43	69,253
838,60	55,298
838,77	61,016
838,94	71,900
839,11	59,789
839,28	59,592
839,45	52,256
839,62	65,698
839,79	67,001
839,96	64,228
840,13	71,243
840,30	55,233
840,47	57,452
840,64	60,882
840,81	65,297
840,98	63,117
841,15	76,433
841,32	54,917
841,48	70,156
841,65	64,737
841,82	66,266
841,99	64,578
842,16	56,029
842,33	64,927
842,50	61,948
842,67	55,299
842,84	66,009
843,01	67,691
843,18	60,334
843,35	53,397
843,52	55,998
843,68	73,812
843,85	67,219
844,02	51,278
844,19	58,028
844,36	72,653
844,53	60,780
844,70	54,535
844,87	75,990
845,04	73,911
845,21	62,819
845,37	57,273
845,54	62,830
845,71	71,410
845,88	80,348
846,05	52,923
846,22	50,820
846,39	75,004
846,56	79,634
846,72	48,384
846,89	59,277
847,06	81,985
847,23	83,667
847,40	57,642
847,57	59,572
847,74	70,166
847,90	72,833
848,07	63,975
848,24	73,627
848,41	68,628
848,58	84,934
848,75	60,998
848,92	61,547
849,08	69,744
849,25	65,548
849,42	45,363
849,59	59,022
849,76	64,922
849,93	70,597
850,09	72,788
850,26	53,555
850,43	88,527
850,60	63,745
850,77	62,775
850,94	60,665
851,10	69,743
851,27	69,160
851,44	66,037
851,61	52,239
851,78	77,194
851,95	76,780
852,11	65,259
852,28	61,056
852,45	70,933
852,62	78,892
852,79	61,793
852,95	56,735
853,12	70,774
853,29	59,499
853,46	78,893
853,63	78,168
853,79	61,337
853,96	70,151
854,13	79,121
854,30	63,355
854,46	97,538
854,63	68,271
854,80	61,156
854,97	57,055
855,14	90,472
855,30	74,978
855,47	67,450
855,64	67,680
855,81	65,852
855,97	69,614
856,14	75,643
856,31	62,762
856,48	85,499
856,65	87,146
856,81	60,685
856,98	56,853
857,15	61,461
857,32	74,490
857,48	62,374
857,65	79,541
857,82	79,621
857,99	83,432
858,15	65,474
858,32	68,309
858,49	73,007
858,65	88,200
858,82	82,664
858,99	63,833
859,16	92,088
859,32	84,171
859,49	67,581
859,66	67,784
859,83	71,186
859,99	73,287
860,16	65,723
860,33	75,380
860,49	83,767
860,66	93,021
860,83	73,089
861,00	62,762
861,16	103,596
861,33	79,047
861,50	67,197
861,66	65,805
861,83	84,418
862,00	81,179
862,16	78,620
862,33	59,594
862,50	110,159
862,67	83,630
862,83	80,556
863,00	88,277
863,17	108,607
863,33	84,926
863,50	46,889
863,67	70,234
863,83	93,498
864,00	98,553
864,17	54,423
864,33	52,390
864,50	95,545
864,67	68,747
864,83	61,292
865,00	63,733
865,17	65,305
865,33	88,999
865,50	44,733
865,67	43,089
865,83	88,986
866,00	114,138
866,17	76,000
866,33	78,805
866,50	98,428
866,66	91,869
866,83	73,333
867,00	83,241
867,16	97,137
867,33	132,314
867,50	47,893
867,66	65,922
867,83	87,302
868,00	97,469
868,16	55,348
868,33	69,615
868,49	82,955
868,66	110,294
868,83	68,281
868,99	78,835
869,16	95,719
869,32	118,428
869,49	71,714
869,66	64,114
869,82	97,169
869,99	106,314
870,15	49,705
870,32	85,610
870,49	107,650
870,65	139,780
870,82	99,524
870,98	89,467
871,15	141,356
871,32	97,798
871,48	55,037
871,65	58,778
871,81	93,472
871,98	86,211
872,15	73,348
872,31	42,949
872,48	184,380
872,64	94,966
872,81	49,597
872,97	85,918
873,14	130,669
873,31	125,292
873,47	78,476
873,64	95,894
873,80	133,701
873,97	158,475
874,13	54,920
874,30	74,770
874,46	130,256
874,63	97,677
874,80	90,005
874,96	78,988
875,13	124,217
875,29	91,457
875,46	125,573
875,62	84,836
875,79	121,903
875,95	74,465
876,12	54,028
876,28	42,832
876,45	140,141
876,61	78,578
876,78	86,162
876,94	55,786
877,11	100,680
877,27	141,141
877,44	98,751
877,60	77,240
877,77	117,336
877,94	125,856
878,10	103,767
878,27	111,526
878,43	176,724
878,60	63,682
878,76	63,579
878,93	59,852
879,09	162,318
879,26	168,853
879,42	119,385
879,58	65,800
879,75	166,883
879,91	124,268
880,08	24,462
880,24	64,907
880,41	120,414
880,57	131,818
880,74	47,622
880,90	63,673
881,07	131,270
881,23	184,572
881,40	91,994
881,56	99,937
881,73	140,932
881,89	131,118
882,06	56,719
882,22	232,198
882,38	185,551
882,55	188,228
882,71	111,388
882,88	105,086
883,04	299,039
883,21	275,379
883,37	102,754
883,54	98,524
883,70	301,932
883,86	157,035
884,03	86,325
884,19	68,119
884,36	184,116
884,52	285,995
884,69	111,227
884,85	86,851
885,01	288,212
885,18	164,274
885,34	171,496
885,51	51,067
885,67	95,588
>>>>> Data<<<<< Espectral Procesado Extremo
