Fichero De Datos De SpectraSuite
++++++++++++++++++++++++++++++++++++
Fecha: Wed Apr 22 13:15:25 CEST 2009
Usuario: evoflor
Presente Oscuro Del Espectro: Sí
La Referencia de Presente Del Espectro De: Sí
Muestreados de los componentes de Número de espectros: 1
Espectrómetros: USB4F02353
Tiempo de integración (usec): 500000 (USB4F02353)
Promedio de Espectros Hechos un: 5 (USB4F02353)
El Alisar Del Furgón: 0 (USB4F02353)
Párrafo de de Corregir del la del del de Eléctrica del obscuridad: Sí (USB4F02353)
Estrobo/Lámpara Permitido: No (USB4F02353)
Correct for Detector Non-linearity: No (USB4F02353)
Párrafo de de Corregir del la del del de Externa del luz: No (USB4F02353)
Procesado del espectro de Número de pixeles en: 3648
>>>>> Comienza Data<<<<< Espectral Procesado Del EL
177,79	297,957
178,00	297,957
178,22	297,957
178,44	1519,670
178,66	-331,008
178,88	315,603
179,09	-323,021
179,31	135,148
179,53	739,350
179,75	364,187
179,96	778,534
180,18	-687,723
180,40	453,854
180,62	366,074
180,83	-147,479
181,05	-2747,683
181,27	-180310,000
181,49	-168,935
181,70	468,500
181,92	600,051
182,14	570,211
182,36	235,163
182,58	-174,100
182,79	1178,616
183,01	-147,427
183,23	202,092
183,45	-120,031
183,66	-176,593
183,88	610,647
184,10	-2492,909
184,32	232,450
184,53	341,199
184,75	-295,188
184,97	16,510
185,18	-90,244
185,40	-905,817
185,62	165,622
185,84	69,454
186,05	163,609
186,27	-177,941
186,49	3092,692
186,71	89,205
186,92	196,264
187,14	-244,251
187,36	194,890
187,58	164,930
187,79	-148,191
188,01	146,538
188,23	-394,631
188,45	122,492
188,66	326,830
188,88	-2018,364
189,10	-2145,100
189,31	10,222
189,53	94,179
189,75	436,386
189,97	416,577
190,18	47,682
190,40	833,000
190,62	-71,058
190,83	-343,794
191,05	193,657
191,27	36,886
191,49	366,114
191,70	-551,010
191,92	-1428,898
192,14	-63,419
192,35	588,090
192,57	4406,000
192,79	-68,715
193,01	239,567
193,22	126,978
193,44	-183,294
193,66	88,449
193,87	154,839
194,09	-2,296
194,31	140,959
194,53	1172,797
194,74	39,694
194,96	59,092
195,18	181,523
195,39	-447,256
195,61	-176,982
195,83	-241,326
196,04	117,650
196,26	-245,779
196,48	51,234
196,70	533,817
196,91	70,208
197,13	246,861
197,35	-72,327
197,56	861,950
197,78	2373,209
198,00	392,378
198,21	447,136
198,43	-1435,523
198,65	156,103
198,86	179,173
199,08	411,180
199,30	215,607
199,51	-358,664
199,73	230,257
199,95	533,193
200,16	804,269
200,38	242,722
200,60	112,140
200,81	359,122
201,03	216,060
201,25	-534,100
201,46	208,400
201,68	84,270
201,90	5427,500
202,11	-509,580
202,33	239,695
202,55	1297,625
202,76	-153,787
202,98	468,328
203,20	-40,433
203,41	-380,579
203,63	128,629
203,85	-155110,000
204,06	157,332
204,28	-258,819
204,50	192,595
204,71	394,894
204,93	-335,920
205,15	36,175
205,36	-325,832
205,58	140,518
205,80	-167,996
206,01	89,652
206,23	125,988
206,45	305,762
206,66	175,956
206,88	-44,387
207,10	152,068
207,31	374,715
207,53	306,886
207,75	-39,462
207,96	1130,672
208,18	-270,836
208,39	-2,741
208,61	3943,143
208,83	-357,276
209,04	445,846
209,26	-374,700
209,48	252,903
209,69	282,113
209,91	724,696
210,13	34,255
210,34	35,617
210,56	178,109
210,77	-1136,299
210,99	183,525
211,21	9547,647
211,42	-144,978
211,64	-87,052
211,86	273,011
212,07	293,078
212,29	317,932
212,50	156,501
212,72	184,654
212,94	45,193
213,15	193,220
213,37	160,733
213,58	-262,106
213,80	-2936,071
214,02	17277,059
214,23	302,755
214,45	393,475
214,67	-1518,415
214,88	-203,389
215,10	-385,581
215,31	-7,183
215,53	-91,341
215,75	138,278
215,96	1801,925
216,18	562,113
216,39	279,569
216,61	601,987
216,83	567,902
217,04	1277,640
217,26	36,790
217,47	195,368
217,69	376,763
217,91	54,871
218,12	-87610,000
218,34	253,222
218,55	420,981
218,77	69,553
218,99	168,046
219,20	-259,104
219,42	390,107
219,63	-46,716
219,85	9,556
220,06	136,192
220,28	208,963
220,50	20,872
220,71	63,044
220,93	4641,698
221,14	-2487,100
221,36	-22,964
221,58	9,255
221,79	305,835
222,01	1569,914
222,22	600,066
222,44	-997,640
222,65	157,786
222,87	398,671
223,09	146,899
223,30	95,665
223,52	189,083
223,73	190,923
223,95	37,197
224,16	210,330
224,38	410,213
224,60	74,425
224,81	305,592
225,03	158,932
225,24	159,898
225,46	-120,581
225,67	-0,459
225,89	19,254
226,10	686,777
226,32	297,680
226,54	8,348
226,75	-17,190
226,97	125,149
227,18	204,501
227,40	118,259
227,61	73,716
227,83	44,158
228,04	139,178
228,26	105,959
228,47	44,036
228,69	261,560
228,91	145,094
229,12	130,638
229,34	64,456
229,55	71,482
229,77	86,810
229,98	17,652
230,20	65,182
230,41	35,943
230,63	121,831
230,84	58,111
231,06	19,826
231,27	36,906
231,49	79,581
231,71	55,581
231,92	33,432
232,14	11,283
232,35	128,342
232,57	43,388
232,78	29,964
233,00	72,356
233,21	50,535
233,43	17,534
233,64	15,552
233,86	34,311
234,07	29,099
234,29	29,387
234,50	9,429
234,72	49,982
234,93	18,966
235,15	15,102
235,36	14,298
235,58	64,856
235,79	58,932
236,01	22,170
236,22	1,653
236,44	51,933
236,65	30,390
236,87	18,507
237,08	14,623
237,30	-2,771
237,51	32,652
237,73	-3,232
237,94	5,921
238,16	35,502
238,37	8,532
238,59	2,466
238,80	11,270
239,02	13,730
239,23	27,296
239,45	4,438
239,66	14,220
239,88	48,675
240,09	18,259
240,31	3,879
240,52	6,356
240,74	9,876
240,95	2,338
241,17	2,112
241,38	2,059
241,60	8,572
241,81	27,003
242,03	4,852
242,24	9,127
242,46	22,407
242,67	5,051
242,89	12,279
243,10	16,790
243,32	13,777
243,53	21,561
243,75	6,786
243,96	7,084
244,18	11,016
244,39	17,562
244,60	5,067
244,82	2,073
245,03	25,844
245,25	8,605
245,46	25,282
245,68	6,777
245,89	17,386
246,11	14,934
246,32	9,434
246,54	4,987
246,75	9,929
246,97	11,541
247,18	19,381
247,39	2,738
247,61	10,831
247,82	12,574
248,04	11,871
248,25	11,463
248,47	17,302
248,68	10,916
248,90	4,715
249,11	5,721
249,33	16,970
249,54	6,493
249,75	8,270
249,97	3,895
250,18	17,231
250,40	21,053
250,61	-3,236
250,83	0,118
251,04	2,729
251,25	15,450
251,47	1,577
251,68	9,565
251,90	11,530
252,11	14,754
252,33	4,641
252,54	8,346
252,76	6,560
252,97	2,350
253,18	1,037
253,40	9,432
253,61	2,629
253,83	12,870
254,04	6,384
254,25	1,553
254,47	2,932
254,68	8,047
254,90	3,921
255,11	7,921
255,33	6,135
255,54	1,799
255,75	2,834
255,97	7,323
256,18	4,066
256,40	9,082
256,61	10,702
256,82	0,107
257,04	13,472
257,25	2,741
257,47	6,763
257,68	7,038
257,89	12,304
258,11	9,198
258,32	4,237
258,54	8,896
258,75	11,051
258,96	16,023
259,18	5,307
259,39	0,315
259,61	8,950
259,82	4,935
260,03	6,792
260,25	2,928
260,46	9,332
260,68	4,769
260,89	2,094
261,10	4,427
261,32	5,780
261,53	6,220
261,75	6,726
261,96	-2,730
262,17	16,946
262,39	10,476
262,60	3,757
262,81	-0,775
263,03	9,253
263,24	10,190
263,46	1,982
263,67	3,227
263,88	7,084
264,10	4,298
264,31	1,425
264,52	5,161
264,74	11,048
264,95	6,538
265,17	-0,026
265,38	3,513
265,59	12,054
265,81	14,472
266,02	-0,902
266,23	2,392
266,45	12,769
266,66	10,691
266,87	8,143
267,09	3,435
267,30	9,745
267,52	12,763
267,73	7,045
267,94	3,916
268,16	9,640
268,37	4,958
268,58	7,323
268,80	0,569
269,01	1,964
269,22	10,328
269,44	7,140
269,65	4,803
269,86	4,310
270,08	8,067
270,29	3,495
270,50	5,707
270,72	11,112
270,93	4,664
271,14	1,912
271,36	4,525
271,57	9,025
271,78	2,993
272,00	7,495
272,21	8,519
272,42	5,532
272,64	11,188
272,85	0,013
273,06	5,987
273,28	5,111
273,49	8,122
273,70	6,242
273,92	9,995
274,13	10,737
274,34	4,035
274,56	8,352
274,77	3,110
274,98	9,900
275,20	7,891
275,41	6,993
275,62	3,836
275,84	3,416
276,05	13,054
276,26	2,481
276,47	1,250
276,69	10,060
276,90	6,962
277,11	2,273
277,33	3,030
277,54	9,549
277,75	7,467
277,97	1,213
278,18	1,770
278,39	9,535
278,61	5,215
278,82	4,853
279,03	4,054
279,24	7,671
279,46	4,200
279,67	6,606
279,88	6,876
280,10	8,898
280,31	0,853
280,52	4,815
280,73	0,308
280,95	7,519
281,16	8,143
281,37	8,217
281,59	8,512
281,80	11,098
282,01	4,834
282,22	5,431
282,44	2,068
282,65	10,743
282,86	10,026
283,08	4,239
283,29	4,910
283,50	5,566
283,71	5,023
283,93	5,417
284,14	7,232
284,35	4,455
284,56	5,859
284,78	0,439
284,99	5,895
285,20	11,661
285,42	6,999
285,63	6,509
285,84	0,503
286,05	3,601
286,27	6,133
286,48	4,264
286,69	2,612
286,90	4,194
287,12	2,992
287,33	1,057
287,54	5,013
287,75	7,891
287,97	6,037
288,18	3,434
288,39	4,033
288,60	6,881
288,82	4,295
289,03	5,311
289,24	4,328
289,45	6,572
289,67	6,861
289,88	4,639
290,09	6,076
290,30	4,506
290,52	4,668
290,73	4,074
290,94	1,301
291,15	2,029
291,37	8,433
291,58	3,161
291,79	3,185
292,00	8,349
292,21	7,448
292,43	3,063
292,64	3,253
292,85	4,214
293,06	6,595
293,28	0,035
293,49	2,648
293,70	7,535
293,91	3,317
294,12	6,956
294,34	3,405
294,55	6,405
294,76	4,247
294,97	7,069
295,19	1,432
295,40	7,337
295,61	6,801
295,82	0,267
296,03	5,290
296,25	5,241
296,46	2,003
296,67	0,412
296,88	1,983
297,09	8,191
297,31	4,632
297,52	4,957
297,73	3,911
297,94	7,467
298,15	6,868
298,37	4,083
298,58	4,641
298,79	6,915
299,00	3,840
299,21	3,716
299,43	3,072
299,64	10,823
299,85	6,279
300,06	4,136
300,27	2,435
300,49	7,864
300,70	5,031
300,91	6,749
301,12	3,290
301,33	5,869
301,54	3,732
301,76	6,013
301,97	0,525
302,18	2,272
302,39	7,099
302,60	12,742
302,82	2,292
303,03	8,585
303,24	4,151
303,45	4,840
303,66	4,174
303,87	2,456
304,09	8,164
304,30	3,727
304,51	3,202
304,72	2,360
304,93	8,132
305,14	5,680
305,36	1,277
305,57	1,294
305,78	5,210
305,99	2,264
306,20	4,423
306,41	1,619
306,62	4,113
306,84	2,608
307,05	-1,729
307,26	5,453
307,47	9,412
307,68	3,604
307,89	5,479
308,11	7,418
308,32	4,051
308,53	3,908
308,74	0,895
308,95	4,808
309,16	6,039
309,37	5,050
309,59	2,786
309,80	5,353
310,01	5,146
310,22	8,365
310,43	2,883
310,64	4,162
310,85	6,797
311,06	4,559
311,28	4,277
311,49	3,228
311,70	5,763
311,91	3,038
312,12	2,259
312,33	4,932
312,54	5,807
312,75	4,667
312,97	3,175
313,18	5,310
313,39	1,615
313,60	4,134
313,81	1,608
314,02	6,174
314,23	7,866
314,44	1,406
314,65	4,553
314,87	1,288
315,08	2,676
315,29	7,581
315,50	6,832
315,71	6,941
315,92	9,670
316,13	6,041
316,34	5,585
316,55	7,193
316,77	0,665
316,98	1,052
317,19	2,256
317,40	6,519
317,61	7,259
317,82	4,753
318,03	2,859
318,24	4,367
318,45	9,885
318,66	4,577
318,87	1,719
319,09	4,331
319,30	5,119
319,51	6,546
319,72	4,615
319,93	7,266
320,14	6,686
320,35	6,853
320,56	2,715
320,77	1,902
320,98	13,085
321,19	5,490
321,40	2,881
321,62	5,737
321,83	3,077
322,04	4,027
322,25	4,895
322,46	9,071
322,67	5,449
322,88	5,557
323,09	5,561
323,30	7,776
323,51	7,596
323,72	8,454
323,93	1,743
324,14	3,371
324,35	2,716
324,56	1,677
324,77	5,465
324,99	4,148
325,20	1,299
325,41	5,585
325,62	5,235
325,83	0,944
326,04	4,741
326,25	6,541
326,46	2,381
326,67	6,806
326,88	5,951
327,09	4,416
327,30	2,042
327,51	6,745
327,72	5,615
327,93	5,267
328,14	1,578
328,35	4,040
328,56	8,863
328,77	4,054
328,98	7,155
329,19	7,671
329,40	5,831
329,61	3,891
329,82	1,764
330,04	5,333
330,25	2,716
330,46	5,263
330,67	2,622
330,88	2,957
331,09	4,722
331,30	3,060
331,51	6,759
331,72	2,399
331,93	7,819
332,14	2,735
332,35	5,629
332,56	3,070
332,77	7,503
332,98	2,268
333,19	3,505
333,40	5,562
333,61	3,350
333,82	7,507
334,03	3,052
334,24	6,449
334,45	4,916
334,66	5,159
334,87	4,463
335,08	2,049
335,29	1,626
335,50	3,624
335,71	0,324
335,92	8,660
336,13	4,932
336,34	1,754
336,55	3,456
336,76	7,916
336,97	5,374
337,18	1,327
337,39	2,491
337,60	5,079
337,81	3,317
338,02	5,897
338,23	3,854
338,44	4,211
338,65	5,593
338,86	4,646
339,07	1,154
339,28	6,007
339,49	6,104
339,70	2,136
339,91	4,414
340,11	10,700
340,32	3,184
340,53	2,555
340,74	1,801
340,95	2,660
341,16	6,721
341,37	2,590
341,58	1,310
341,79	2,784
342,00	3,104
342,21	2,605
342,42	3,873
342,63	5,732
342,84	1,567
343,05	4,619
343,26	7,053
343,47	6,193
343,68	3,140
343,89	1,846
344,10	6,043
344,31	5,454
344,52	5,553
344,73	4,583
344,94	5,863
345,14	4,421
345,35	6,532
345,56	5,341
345,77	4,275
345,98	4,125
346,19	4,396
346,40	3,963
346,61	4,189
346,82	2,967
347,03	3,416
347,24	4,833
347,45	2,278
347,66	7,914
347,87	4,252
348,08	5,643
348,28	1,036
348,49	4,279
348,70	6,394
348,91	4,531
349,12	1,949
349,33	16,832
349,54	3,566
349,75	6,509
349,96	2,413
350,17	7,500
350,38	1,706
350,59	5,949
350,80	2,679
351,00	7,412
351,21	8,397
351,42	3,419
351,63	-0,441
351,84	9,336
352,05	7,751
352,26	3,624
352,47	2,696
352,68	8,697
352,89	8,448
353,09	4,464
353,30	0,973
353,51	4,384
353,72	9,694
353,93	7,521
354,14	1,336
354,35	2,955
354,56	10,457
354,77	5,684
354,98	2,373
355,18	6,446
355,39	7,859
355,60	1,251
355,81	3,384
356,02	6,629
356,23	3,341
356,44	3,429
356,65	7,726
356,85	9,221
357,06	9,927
357,27	7,573
357,48	1,450
357,69	8,970
357,90	4,956
358,11	0,881
358,32	3,799
358,52	6,937
358,73	4,648
358,94	4,050
359,15	4,463
359,36	5,411
359,57	3,651
359,78	4,271
359,98	4,123
360,19	3,655
360,40	2,390
360,61	6,334
360,82	4,907
361,03	8,760
361,24	7,316
361,44	2,430
361,65	4,340
361,86	1,791
362,07	6,190
362,28	2,452
362,49	-0,050
362,70	6,882
362,90	4,779
363,11	2,443
363,32	0,103
363,53	3,735
363,74	11,502
363,95	4,970
364,15	5,284
364,36	8,514
364,57	4,809
364,78	4,854
364,99	2,413
365,20	5,196
365,40	8,312
365,61	1,948
365,82	7,963
366,03	3,828
366,24	5,707
366,45	5,551
366,65	3,981
366,86	6,346
367,07	6,573
367,28	3,579
367,49	4,197
367,69	11,841
367,90	4,166
368,11	4,307
368,32	3,126
368,53	7,436
368,73	7,867
368,94	2,711
369,15	6,261
369,36	7,256
369,57	4,728
369,78	4,132
369,98	6,008
370,19	8,185
370,40	4,025
370,61	1,875
370,82	3,628
371,02	8,401
371,23	9,625
371,44	1,368
371,65	7,691
371,85	9,151
372,06	3,886
372,27	4,383
372,48	3,359
372,69	3,608
372,89	2,227
373,10	4,171
373,31	2,600
373,52	5,506
373,73	7,536
373,93	3,279
374,14	4,897
374,35	8,161
374,56	7,464
374,76	4,093
374,97	3,798
375,18	6,108
375,39	7,777
375,60	7,364
375,80	5,141
376,01	4,663
376,22	7,470
376,43	4,747
376,63	1,227
376,84	2,949
377,05	7,072
377,26	3,049
377,46	1,208
377,67	4,213
377,88	5,535
378,09	3,508
378,29	0,304
378,50	6,861
378,71	5,167
378,92	-0,322
379,12	3,257
379,33	5,194
379,54	2,626
379,75	5,343
379,95	5,509
380,16	6,379
380,37	6,871
380,58	2,946
380,78	5,617
380,99	4,137
381,20	3,942
381,41	6,148
381,61	7,145
381,82	5,371
382,03	6,092
382,24	3,696
382,44	3,210
382,65	9,720
382,86	6,243
383,06	6,243
383,27	5,295
383,48	3,865
383,69	5,448
383,89	2,669
384,10	3,456
384,31	3,926
384,51	6,138
384,72	6,450
384,93	2,511
385,14	1,992
385,34	5,016
385,55	2,204
385,76	1,347
385,96	8,294
386,17	7,932
386,38	9,327
386,59	7,664
386,79	4,767
387,00	9,545
387,21	9,124
387,41	4,718
387,62	3,796
387,83	10,079
388,03	3,704
388,24	2,510
388,45	6,210
388,66	6,367
388,86	5,884
389,07	4,851
389,28	7,775
389,48	7,916
389,69	5,698
389,90	3,453
390,10	8,732
390,31	6,835
390,52	0,244
390,72	4,971
390,93	6,475
391,14	4,035
391,34	3,855
391,55	5,775
391,76	10,477
391,96	9,487
392,17	1,514
392,38	9,685
392,58	6,583
392,79	5,646
393,00	2,415
393,20	1,497
393,41	6,689
393,62	6,464
393,82	4,227
394,03	4,785
394,24	5,340
394,44	8,377
394,65	6,685
394,86	1,945
395,06	8,460
395,27	0,382
395,48	-0,056
395,68	4,189
395,89	7,090
396,10	10,314
396,30	0,486
396,51	1,491
396,72	7,417
396,92	3,622
397,13	4,557
397,34	3,409
397,54	7,008
397,75	3,970
397,95	2,000
398,16	5,956
398,37	4,586
398,57	3,941
398,78	4,805
398,99	6,551
399,19	7,616
399,40	7,839
399,60	0,545
399,81	2,036
400,02	6,515
400,22	5,577
400,43	5,091
400,64	3,707
400,84	2,348
401,05	8,357
401,25	6,478
401,46	3,538
401,67	7,188
401,87	5,886
402,08	1,900
402,29	1,238
402,49	9,533
402,70	8,170
402,90	1,138
403,11	5,192
403,32	3,051
403,52	3,271
403,73	6,834
403,93	3,717
404,14	11,464
404,35	8,496
404,55	-1,096
404,76	0,834
404,96	6,924
405,17	10,234
405,38	10,463
405,58	3,818
405,79	6,856
405,99	8,055
406,20	2,954
406,40	1,372
406,61	8,380
406,82	4,116
407,02	7,018
407,23	3,240
407,43	3,949
407,64	0,808
407,85	1,892
408,05	1,101
408,26	11,357
408,46	6,179
408,67	2,238
408,87	2,471
409,08	5,190
409,29	6,922
409,49	7,742
409,70	2,381
409,90	6,456
410,11	5,096
410,31	10,388
410,52	4,651
410,72	2,045
410,93	6,598
411,14	1,944
411,34	1,518
411,55	6,000
411,75	7,464
411,96	5,901
412,16	3,601
412,37	2,887
412,57	5,383
412,78	8,143
412,99	2,492
413,19	1,164
413,40	6,703
413,60	0,754
413,81	1,966
414,01	5,646
414,22	4,318
414,42	4,759
414,63	-4,517
414,83	5,420
415,04	14,598
415,24	4,301
415,45	3,443
415,65	6,286
415,86	5,593
416,07	4,841
416,27	4,835
416,48	10,112
416,68	9,640
416,89	-0,647
417,09	1,311
417,30	8,050
417,50	1,333
417,71	4,319
417,91	5,947
418,12	5,738
418,32	8,850
418,53	4,942
418,73	4,029
418,94	2,354
419,14	6,755
419,35	-0,133
419,55	3,694
419,76	6,429
419,96	6,953
420,17	4,084
420,37	3,380
420,58	8,709
420,78	6,124
420,99	7,945
421,19	7,959
421,40	6,915
421,60	10,948
421,81	1,992
422,01	-0,968
422,22	3,848
422,42	7,073
422,63	6,963
422,83	2,627
423,04	11,667
423,24	10,345
423,45	1,353
423,65	8,187
423,86	9,279
424,06	7,070
424,27	1,281
424,47	0,982
424,67	-0,514
424,88	8,965
425,08	4,813
425,29	9,870
425,49	1,282
425,70	-2,495
425,90	6,738
426,11	3,407
426,31	3,832
426,52	6,310
426,72	-0,024
426,93	1,103
427,13	13,191
427,33	2,736
427,54	3,160
427,74	9,411
427,95	10,223
428,15	2,903
428,36	5,457
428,56	3,853
428,77	6,042
428,97	4,777
429,18	5,647
429,38	4,850
429,58	6,251
429,79	4,993
429,99	2,432
430,20	-0,851
430,40	10,468
430,61	3,501
430,81	2,818
431,01	8,434
431,22	8,606
431,42	9,490
431,63	0,625
431,83	4,153
432,04	5,207
432,24	9,703
432,44	2,769
432,65	2,128
432,85	3,077
433,06	9,738
433,26	5,567
433,47	3,645
433,67	4,197
433,87	4,976
434,08	1,321
434,28	3,126
434,49	2,285
434,69	9,185
434,89	2,752
435,10	3,088
435,30	9,226
435,51	2,645
435,71	3,774
435,91	6,320
436,12	5,112
436,32	5,176
436,53	4,181
436,73	2,603
436,93	6,844
437,14	6,759
437,34	9,133
437,55	0,696
437,75	3,607
437,95	9,428
438,16	5,176
438,36	2,099
438,57	2,782
438,77	1,199
438,97	6,585
439,18	8,899
439,38	3,023
439,58	1,008
439,79	5,128
439,99	4,626
440,20	9,497
440,40	5,069
440,60	1,894
440,81	6,849
441,01	3,335
441,21	7,540
441,42	7,705
441,62	6,490
441,83	2,787
442,03	2,618
442,23	4,302
442,44	2,986
442,64	8,897
442,84	2,381
443,05	5,289
443,25	3,132
443,45	3,890
443,66	6,195
443,86	3,779
444,06	4,108
444,27	4,587
444,47	4,152
444,67	-1,046
444,88	5,397
445,08	8,033
445,28	3,659
445,49	3,378
445,69	1,932
445,90	5,647
446,10	9,332
446,30	7,906
446,51	5,989
446,71	11,542
446,91	9,878
447,12	8,635
447,32	1,058
447,52	8,909
447,72	3,200
447,93	5,151
448,13	2,390
448,33	11,880
448,54	9,611
448,74	0,339
448,94	4,309
449,15	11,108
449,35	11,751
449,55	6,735
449,76	10,778
449,96	7,545
450,16	9,719
450,37	3,539
450,57	7,326
450,77	1,166
450,98	7,931
451,18	10,577
451,38	6,528
451,58	8,108
451,79	5,784
451,99	9,896
452,19	8,595
452,40	9,729
452,60	0,526
452,80	5,124
453,00	8,538
453,21	9,210
453,41	4,926
453,61	7,109
453,82	7,338
454,02	4,257
454,22	14,873
454,42	5,119
454,63	3,077
454,83	5,392
455,03	7,614
455,24	6,366
455,44	5,012
455,64	2,545
455,84	2,700
456,05	0,348
456,25	2,667
456,45	5,909
456,65	4,737
456,86	7,911
457,06	10,241
457,26	12,392
457,47	13,669
457,67	5,812
457,87	4,223
458,07	10,270
458,28	9,253
458,48	11,019
458,68	2,917
458,88	8,965
459,09	9,204
459,29	9,228
459,49	4,323
459,69	9,841
459,90	10,159
460,10	3,635
460,30	8,156
460,50	4,198
460,71	9,973
460,91	5,524
461,11	5,973
461,31	6,884
461,52	12,682
461,72	4,540
461,92	7,507
462,12	19,889
462,32	2,110
462,53	6,396
462,73	2,671
462,93	11,433
463,13	11,797
463,34	6,509
463,54	8,334
463,74	9,579
463,94	11,931
464,14	7,697
464,35	5,920
464,55	16,035
464,75	17,841
464,95	11,536
465,16	4,996
465,36	11,917
465,56	8,307
465,76	8,190
465,96	10,142
466,17	11,754
466,37	8,688
466,57	8,738
466,77	11,549
466,97	8,077
467,18	15,465
467,38	12,187
467,58	11,954
467,78	17,665
467,98	13,577
468,19	16,280
468,39	13,228
468,59	15,442
468,79	13,228
468,99	10,150
469,19	10,035
469,40	15,446
469,60	13,826
469,80	9,598
470,00	15,988
470,20	16,529
470,41	15,052
470,61	16,063
470,81	12,629
471,01	11,230
471,21	15,387
471,41	10,851
471,62	13,130
471,82	13,162
472,02	11,697
472,22	13,332
472,42	14,621
472,62	17,647
472,83	13,569
473,03	18,581
473,23	14,142
473,43	20,384
473,63	19,058
473,83	16,283
474,03	15,924
474,24	22,559
474,44	15,934
474,64	18,191
474,84	13,254
475,04	19,154
475,24	21,690
475,45	15,753
475,65	16,426
475,85	24,428
476,05	13,185
476,25	19,749
476,45	18,213
476,65	25,292
476,85	20,116
477,06	18,580
477,26	17,203
477,46	20,504
477,66	22,966
477,86	22,718
478,06	17,671
478,26	27,835
478,46	20,109
478,67	24,725
478,87	22,134
479,07	21,759
479,27	26,197
479,47	18,878
479,67	15,380
479,87	19,518
480,07	25,320
480,28	22,985
480,48	19,522
480,68	26,636
480,88	27,358
481,08	26,299
481,28	24,265
481,48	24,068
481,68	24,730
481,88	21,332
482,08	20,558
482,29	29,032
482,49	23,449
482,69	24,304
482,89	24,142
483,09	27,515
483,29	24,125
483,49	23,585
483,69	24,991
483,89	24,667
484,09	22,728
484,29	21,880
484,50	23,920
484,70	28,301
484,90	27,856
485,10	22,825
485,30	28,920
485,50	31,538
485,70	27,919
485,90	28,239
486,10	24,236
486,30	25,742
486,50	26,636
486,70	26,026
486,90	27,733
487,10	30,473
487,30	28,077
487,51	27,410
487,71	25,920
487,91	28,103
488,11	33,502
488,31	24,674
488,51	29,726
488,71	28,889
488,91	31,950
489,11	27,757
489,31	29,680
489,51	31,798
489,71	30,419
489,91	30,057
490,11	30,213
490,31	32,399
490,51	32,714
490,71	33,342
490,91	30,857
491,11	29,499
491,31	30,031
491,51	31,788
491,72	33,242
491,92	34,951
492,12	36,191
492,32	35,945
492,52	34,414
492,72	33,468
492,92	34,040
493,12	36,358
493,32	30,632
493,52	32,101
493,72	35,771
493,92	35,854
494,12	34,223
494,32	36,521
494,52	33,520
494,72	35,602
494,92	33,010
495,12	37,487
495,32	39,613
495,52	35,763
495,72	35,558
495,92	39,751
496,12	40,481
496,32	35,589
496,52	37,137
496,72	35,498
496,92	42,641
497,12	38,909
497,32	40,037
497,52	39,596
497,72	41,422
497,92	42,403
498,12	35,857
498,32	36,092
498,52	40,380
498,72	39,455
498,92	38,447
499,12	43,022
499,32	38,284
499,52	42,700
499,72	39,017
499,92	42,795
500,12	42,468
500,32	41,276
500,52	39,372
500,72	46,411
500,91	46,350
501,11	41,185
501,31	36,672
501,51	46,413
501,71	44,890
501,91	41,849
502,11	41,784
502,31	40,751
502,51	43,869
502,71	44,642
502,91	41,982
503,11	43,362
503,31	47,309
503,51	39,175
503,71	42,218
503,91	45,866
504,11	44,433
504,31	44,345
504,51	44,474
504,71	49,375
504,91	42,134
505,10	44,065
505,30	43,956
505,50	47,003
505,70	45,146
505,90	44,367
506,10	41,099
506,30	45,138
506,50	47,777
506,70	46,433
506,90	42,228
507,10	44,600
507,30	45,841
507,50	43,837
507,70	47,618
507,89	46,346
508,09	43,227
508,29	44,949
508,49	47,029
508,69	46,209
508,89	44,120
509,09	44,121
509,29	47,274
509,49	47,717
509,69	50,161
509,89	45,001
510,09	44,308
510,28	44,345
510,48	44,443
510,68	43,462
510,88	48,233
511,08	45,802
511,28	47,385
511,48	44,850
511,68	44,583
511,88	44,237
512,07	50,469
512,27	46,763
512,47	44,343
512,67	46,774
512,87	43,689
513,07	47,991
513,27	42,555
513,47	44,272
513,67	41,605
513,86	47,578
514,06	47,240
514,26	47,303
514,46	47,613
514,66	43,957
514,86	45,696
515,06	49,448
515,26	49,729
515,45	46,188
515,65	45,713
515,85	48,769
516,05	46,945
516,25	47,456
516,45	50,648
516,65	44,449
516,84	50,202
517,04	49,512
517,24	48,234
517,44	47,253
517,64	50,737
517,84	49,392
518,04	48,812
518,23	50,705
518,43	49,321
518,63	44,810
518,83	44,897
519,03	48,555
519,23	48,596
519,42	46,498
519,62	48,411
519,82	48,451
520,02	45,446
520,22	45,393
520,42	45,563
520,61	51,973
520,81	49,837
521,01	51,772
521,21	46,763
521,41	48,971
521,61	50,046
521,80	44,991
522,00	47,851
522,20	49,392
522,40	50,356
522,60	48,372
522,79	46,565
522,99	50,639
523,19	43,484
523,39	44,727
523,59	45,433
523,78	50,389
523,98	46,249
524,18	46,644
524,38	45,352
524,58	46,508
524,77	50,438
524,97	47,907
525,17	47,421
525,37	47,849
525,57	53,299
525,76	45,853
525,96	50,929
526,16	45,038
526,36	46,726
526,56	46,003
526,75	45,087
526,95	49,835
527,15	47,349
527,35	49,154
527,55	48,052
527,74	47,050
527,94	46,537
528,14	43,509
528,34	45,102
528,53	47,362
528,73	49,052
528,93	48,078
529,13	45,167
529,32	47,659
529,52	48,836
529,72	47,889
529,92	46,715
530,12	47,074
530,31	43,790
530,51	46,387
530,71	50,651
530,91	48,521
531,10	45,091
531,30	46,129
531,50	44,925
531,70	51,246
531,89	47,348
532,09	46,821
532,29	44,540
532,49	46,177
532,68	47,506
532,88	44,490
533,08	46,095
533,28	48,044
533,47	45,966
533,67	44,948
533,87	42,819
534,06	51,853
534,26	46,226
534,46	45,306
534,66	47,342
534,85	49,307
535,05	42,355
535,25	44,677
535,45	45,451
535,64	48,935
535,84	46,257
536,04	42,873
536,23	45,536
536,43	50,144
536,63	43,219
536,83	45,600
537,02	46,303
537,22	43,885
537,42	41,744
537,61	41,204
537,81	44,747
538,01	45,674
538,20	44,279
538,40	41,822
538,60	43,473
538,80	42,217
538,99	42,130
539,19	40,577
539,39	40,446
539,58	43,965
539,78	38,392
539,98	39,526
540,17	36,269
540,37	40,090
540,57	37,762
540,76	37,845
540,96	34,484
541,16	37,454
541,36	35,810
541,55	32,197
541,75	32,871
541,95	35,381
542,14	32,655
542,34	32,848
542,54	32,510
542,73	33,680
542,93	33,992
543,13	34,280
543,32	32,310
543,52	35,101
543,72	33,067
543,91	33,228
544,11	33,167
544,31	31,493
544,50	33,153
544,70	35,192
544,89	31,892
545,09	35,360
545,29	34,085
545,48	34,593
545,68	34,443
545,88	35,024
546,07	36,097
546,27	34,308
546,47	34,883
546,66	38,389
546,86	38,668
547,06	36,679
547,25	36,306
547,45	40,448
547,64	40,160
547,84	42,335
548,04	38,586
548,23	43,958
548,43	41,217
548,63	43,183
548,82	41,997
549,02	41,790
549,21	40,588
549,41	42,729
549,61	41,573
549,80	40,690
550,00	42,612
550,20	38,700
550,39	41,064
550,59	40,138
550,78	44,181
550,98	38,689
551,18	43,598
551,37	44,132
551,57	43,570
551,76	42,051
551,96	41,560
552,16	41,712
552,35	41,754
552,55	44,007
552,74	42,385
552,94	45,059
553,14	43,572
553,33	42,212
553,53	44,864
553,72	44,002
553,92	45,638
554,12	40,456
554,31	42,973
554,51	43,963
554,70	41,748
554,90	45,757
555,09	46,737
555,29	45,859
555,49	46,365
555,68	45,784
555,88	43,930
556,07	44,870
556,27	47,392
556,46	43,350
556,66	41,311
556,86	46,576
557,05	43,056
557,25	42,940
557,44	45,146
557,64	43,678
557,83	46,550
558,03	43,412
558,22	41,190
558,42	44,494
558,62	48,247
558,81	44,048
559,01	44,372
559,20	45,407
559,40	42,057
559,59	43,238
559,79	41,849
559,98	45,442
560,18	44,453
560,37	45,888
560,57	45,682
560,76	43,507
560,96	42,532
561,16	43,792
561,35	42,982
561,55	49,564
561,74	44,629
561,94	45,776
562,13	43,852
562,33	46,334
562,52	45,016
562,72	43,554
562,91	42,209
563,11	44,814
563,30	48,000
563,50	40,154
563,69	43,435
563,89	43,390
564,08	44,160
564,28	44,428
564,47	43,001
564,67	41,120
564,86	44,573
565,06	43,303
565,25	43,570
565,45	43,965
565,64	48,769
565,84	44,030
566,03	43,337
566,23	46,875
566,42	46,509
566,62	46,914
566,81	44,093
567,01	44,332
567,20	47,407
567,40	42,163
567,59	42,820
567,79	46,685
567,98	48,302
568,18	47,068
568,37	45,520
568,57	44,614
568,76	47,490
568,96	44,303
569,15	44,992
569,35	46,918
569,54	49,021
569,73	46,621
569,93	44,026
570,12	44,578
570,32	47,084
570,51	46,522
570,71	47,000
570,90	48,050
571,10	46,293
571,29	45,264
571,49	43,220
571,68	47,346
571,87	45,708
572,07	45,109
572,26	42,735
572,46	45,805
572,65	46,191
572,85	42,738
573,04	44,971
573,24	45,101
573,43	48,966
573,62	47,312
573,82	45,262
574,01	46,088
574,21	45,397
574,40	44,406
574,60	44,626
574,79	50,070
574,98	45,894
575,18	45,903
575,37	43,652
575,57	45,937
575,76	47,499
575,96	44,862
576,15	45,271
576,34	46,935
576,54	46,320
576,73	47,137
576,93	45,360
577,12	47,151
577,31	44,991
577,51	44,724
577,70	45,570
577,90	46,713
578,09	45,809
578,28	45,063
578,48	45,340
578,67	47,580
578,87	46,052
579,06	45,539
579,25	45,537
579,45	48,933
579,64	43,808
579,84	45,300
580,03	46,507
580,22	48,769
580,42	44,386
580,61	46,342
580,81	44,053
581,00	46,364
581,19	47,519
581,39	46,749
581,58	44,670
581,77	45,680
581,97	47,627
582,16	44,075
582,35	45,226
582,55	47,050
582,74	48,029
582,94	45,667
583,13	44,174
583,32	48,024
583,52	46,200
583,71	45,478
583,90	44,997
584,10	46,960
584,29	47,013
584,48	44,218
584,68	46,239
584,87	48,063
585,06	47,109
585,26	45,439
585,45	45,823
585,65	49,401
585,84	45,756
586,03	45,788
586,23	43,881
586,42	46,450
586,61	48,352
586,81	46,422
587,00	46,499
587,19	44,710
587,39	47,635
587,58	45,484
587,77	47,312
587,97	46,967
588,16	45,311
588,35	45,238
588,54	47,441
588,74	46,465
588,93	47,899
589,12	45,623
589,32	46,321
589,51	46,016
589,70	45,062
589,90	46,018
590,09	45,399
590,28	50,389
590,48	44,846
590,67	45,307
590,86	47,860
591,06	46,980
591,25	49,342
591,44	48,485
591,63	46,860
591,83	48,136
592,02	46,453
592,21	47,227
592,41	46,970
592,60	47,777
592,79	49,308
592,98	48,907
593,18	47,667
593,37	46,760
593,56	48,969
593,76	47,984
593,95	47,044
594,14	47,799
594,33	51,495
594,53	47,947
594,72	47,173
594,91	50,622
595,10	48,080
595,30	48,995
595,49	48,317
595,68	51,724
595,88	50,048
596,07	48,970
596,26	50,154
596,45	49,127
596,65	46,372
596,84	48,032
597,03	49,803
597,22	52,313
597,42	52,901
597,61	49,393
597,80	48,986
597,99	49,861
598,19	52,226
598,38	49,809
598,57	48,448
598,76	50,953
598,95	52,453
599,15	51,171
599,34	49,100
599,53	49,413
599,72	50,393
599,92	50,813
600,11	49,254
600,30	50,130
600,49	51,406
600,69	50,178
600,88	50,669
601,07	50,333
601,26	49,269
601,45	48,639
601,65	48,797
601,84	50,730
602,03	51,282
602,22	51,454
602,42	52,304
602,61	50,061
602,80	51,028
602,99	53,011
603,18	49,189
603,38	52,173
603,57	49,374
603,76	50,175
603,95	49,524
604,14	50,543
604,34	50,941
604,53	49,027
604,72	50,172
604,91	50,908
605,10	51,076
605,29	51,593
605,49	48,241
605,68	52,746
605,87	53,397
606,06	49,842
606,25	47,930
606,45	51,109
606,64	50,539
606,83	51,449
607,02	48,944
607,21	51,379
607,40	52,324
607,60	46,662
607,79	47,661
607,98	47,216
608,17	47,612
608,36	47,478
608,55	47,459
608,75	47,560
608,94	47,462
609,13	44,380
609,32	42,696
609,51	44,296
609,70	42,080
609,89	43,204
610,09	41,897
610,28	46,682
610,47	42,810
610,66	42,805
610,85	41,828
611,04	44,221
611,23	41,589
611,43	41,370
611,62	40,592
611,81	42,228
612,00	43,552
612,19	40,514
612,38	41,759
612,57	43,568
612,77	43,490
612,96	44,075
613,15	43,190
613,34	46,208
613,53	46,576
613,72	47,766
613,91	46,502
614,10	47,022
614,29	48,105
614,49	45,586
614,68	46,558
614,87	47,864
615,06	47,679
615,25	46,048
615,44	49,068
615,63	48,792
615,82	46,923
616,01	47,524
616,21	48,634
616,40	49,329
616,59	52,197
616,78	47,311
616,97	48,048
617,16	48,763
617,35	49,389
617,54	49,811
617,73	49,791
617,92	49,445
618,11	51,461
618,31	46,760
618,50	50,422
618,69	49,213
618,88	48,819
619,07	48,480
619,26	46,589
619,45	48,739
619,64	48,391
619,83	46,366
620,02	47,818
620,21	49,430
620,40	50,119
620,59	48,266
620,78	47,682
620,97	49,093
621,17	48,547
621,36	48,601
621,55	49,508
621,74	49,396
621,93	49,338
622,12	49,064
622,31	47,785
622,50	49,301
622,69	50,887
622,88	48,916
623,07	51,416
623,26	49,908
623,45	51,247
623,64	48,536
623,83	49,416
624,02	51,163
624,21	51,447
624,40	49,922
624,59	48,412
624,78	50,886
624,97	52,230
625,16	49,266
625,35	47,337
625,54	47,439
625,73	48,706
625,92	48,124
626,12	50,560
626,31	50,951
626,50	50,198
626,69	50,135
626,88	49,139
627,07	49,453
627,26	49,089
627,45	47,434
627,64	48,732
627,83	49,370
628,02	48,835
628,21	48,556
628,40	48,086
628,59	49,590
628,78	49,315
628,97	47,208
629,16	47,949
629,35	48,460
629,54	49,733
629,73	47,756
629,92	46,803
630,10	48,999
630,29	50,225
630,48	47,701
630,67	49,094
630,86	51,092
631,05	47,877
631,24	51,214
631,43	45,495
631,62	49,298
631,81	47,596
632,00	49,039
632,19	47,118
632,38	48,783
632,57	46,233
632,76	49,140
632,95	47,972
633,14	51,280
633,33	52,021
633,52	50,972
633,71	51,321
633,90	47,472
634,09	49,593
634,28	50,625
634,47	48,738
634,66	50,898
634,85	50,078
635,04	51,222
635,22	49,237
635,41	49,475
635,60	52,166
635,79	50,555
635,98	47,501
636,17	50,406
636,36	49,517
636,55	47,401
636,74	47,528
636,93	48,801
637,12	50,426
637,31	49,818
637,50	47,214
637,69	50,710
637,87	50,035
638,06	49,266
638,25	48,969
638,44	50,643
638,63	47,384
638,82	48,918
639,01	48,972
639,20	50,469
639,39	51,809
639,58	49,932
639,77	50,213
639,95	49,016
640,14	50,804
640,33	47,566
640,52	46,931
640,71	52,464
640,90	49,472
641,09	51,418
641,28	48,806
641,47	50,205
641,66	51,013
641,84	49,850
642,03	48,858
642,22	48,668
642,41	53,486
642,60	50,423
642,79	50,137
642,98	49,432
643,17	48,096
643,35	47,825
643,54	49,741
643,73	49,472
643,92	50,316
644,11	46,705
644,30	48,763
644,49	52,468
644,67	47,383
644,86	47,191
645,05	49,052
645,24	48,827
645,43	47,796
645,62	49,449
645,81	50,525
645,99	50,796
646,18	50,917
646,37	48,801
646,56	47,312
646,75	50,580
646,94	51,688
647,13	48,472
647,31	47,836
647,50	49,923
647,69	52,452
647,88	50,485
648,07	49,819
648,26	54,224
648,44	50,233
648,63	48,413
648,82	49,727
649,01	52,628
649,20	48,733
649,38	48,889
649,57	50,340
649,76	47,494
649,95	49,683
650,14	48,013
650,33	48,654
650,51	48,786
650,70	50,195
650,89	50,055
651,08	49,527
651,27	50,230
651,45	47,129
651,64	49,093
651,83	49,957
652,02	49,017
652,21	49,691
652,39	48,865
652,58	49,953
652,77	50,728
652,96	50,751
653,15	51,684
653,33	49,626
653,52	50,857
653,71	52,952
653,90	52,418
654,09	51,253
654,27	51,064
654,46	52,654
654,65	51,144
654,84	51,330
655,02	53,844
655,21	51,824
655,40	52,113
655,59	49,714
655,77	54,287
655,96	52,343
656,15	52,486
656,34	53,846
656,53	51,941
656,71	50,880
656,90	52,318
657,09	52,956
657,28	52,411
657,46	51,578
657,65	50,350
657,84	48,059
658,03	51,010
658,21	50,464
658,40	50,094
658,59	48,515
658,78	52,003
658,96	48,211
659,15	49,672
659,34	48,155
659,52	50,027
659,71	50,408
659,90	48,353
660,09	50,605
660,27	49,850
660,46	52,106
660,65	48,060
660,84	49,614
661,02	49,881
661,21	50,351
661,40	47,613
661,58	48,789
661,77	48,439
661,96	46,164
662,15	49,775
662,33	49,658
662,52	47,562
662,71	49,595
662,89	48,118
663,08	48,884
663,27	48,214
663,45	48,260
663,64	49,256
663,83	47,328
664,02	49,073
664,20	49,150
664,39	47,834
664,58	50,026
664,76	47,609
664,95	50,061
665,14	47,259
665,32	48,504
665,51	50,235
665,70	50,674
665,88	50,624
666,07	48,693
666,26	52,410
666,44	50,231
666,63	46,702
666,82	48,284
667,00	48,803
667,19	46,854
667,38	48,991
667,56	49,882
667,75	51,362
667,94	50,115
668,12	47,344
668,31	49,217
668,50	49,464
668,68	50,613
668,87	48,236
669,06	49,999
669,24	52,736
669,43	48,608
669,62	47,323
669,80	47,657
669,99	47,794
670,18	48,854
670,36	46,093
670,55	48,684
670,74	48,350
670,92	46,879
671,11	48,756
671,29	46,430
671,48	48,766
671,67	50,358
671,85	49,141
672,04	46,297
672,23	47,677
672,41	48,191
672,60	48,396
672,78	47,738
672,97	48,432
673,16	50,425
673,34	49,586
673,53	47,361
673,71	49,428
673,90	48,035
674,09	47,449
674,27	47,931
674,46	49,258
674,64	46,957
674,83	48,454
675,02	47,341
675,20	48,860
675,39	47,695
675,57	46,842
675,76	46,150
675,95	51,681
676,13	50,414
676,32	51,287
676,50	48,125
676,69	48,252
676,88	47,073
677,06	48,164
677,25	48,450
677,43	52,697
677,62	50,259
677,80	48,790
677,99	47,279
678,18	51,718
678,36	48,433
678,55	46,548
678,73	47,692
678,92	48,993
679,10	49,231
679,29	48,274
679,48	47,317
679,66	47,789
679,85	47,878
680,03	48,286
680,22	48,514
680,40	47,406
680,59	49,425
680,77	48,156
680,96	50,369
681,15	47,261
681,33	49,754
681,52	46,938
681,70	47,501
681,89	49,870
682,07	50,205
682,26	46,470
682,44	48,992
682,63	48,512
682,81	49,624
683,00	49,384
683,18	47,369
683,37	50,052
683,55	49,498
683,74	49,164
683,92	53,683
684,11	48,134
684,29	48,498
684,48	47,557
684,67	48,268
684,85	49,332
685,04	49,907
685,22	48,370
685,41	47,783
685,59	50,964
685,78	48,111
685,96	48,095
686,15	47,960
686,33	48,125
686,52	48,563
686,70	47,245
686,89	49,673
687,07	50,289
687,26	48,684
687,44	51,381
687,62	48,582
687,81	51,180
687,99	49,512
688,18	48,644
688,36	49,519
688,55	50,637
688,73	49,265
688,92	45,936
689,10	48,220
689,29	49,438
689,47	50,424
689,66	47,481
689,84	47,697
690,03	50,635
690,21	49,568
690,40	49,683
690,58	47,084
690,76	46,504
690,95	49,525
691,13	46,880
691,32	47,358
691,50	48,922
691,69	50,294
691,87	48,303
692,06	48,948
692,24	47,234
692,43	49,467
692,61	46,883
692,79	46,547
692,98	46,592
693,16	50,032
693,35	47,077
693,53	47,423
693,72	50,356
693,90	49,799
694,08	47,441
694,27	48,282
694,45	50,453
694,64	51,526
694,82	48,266
695,01	47,051
695,19	48,192
695,37	48,700
695,56	46,035
695,74	49,316
695,93	49,346
696,11	47,241
696,29	49,558
696,48	48,330
696,66	48,961
696,85	47,366
697,03	46,424
697,21	50,252
697,40	49,265
697,58	50,515
697,77	46,660
697,95	48,194
698,13	48,532
698,32	46,977
698,50	46,897
698,69	48,195
698,87	49,870
699,05	48,391
699,24	46,120
699,42	47,725
699,60	45,729
699,79	48,881
699,97	46,872
700,16	44,623
700,34	49,600
700,52	49,477
700,71	47,440
700,89	47,570
701,07	46,957
701,26	48,893
701,44	46,523
701,63	46,005
701,81	48,009
701,99	48,606
702,18	46,218
702,36	45,960
702,54	48,129
702,73	48,372
702,91	46,829
703,09	47,769
703,28	47,897
703,46	48,979
703,64	47,494
703,83	47,742
704,01	48,488
704,19	46,897
704,38	47,384
704,56	47,721
704,74	49,502
704,93	47,334
705,11	47,707
705,29	48,115
705,48	54,232
705,66	49,047
705,84	47,896
706,03	45,063
706,21	48,741
706,39	45,767
706,58	47,026
706,76	47,550
706,94	48,746
707,12	47,534
707,31	46,204
707,49	45,683
707,67	47,886
707,86	51,165
708,04	46,099
708,22	45,347
708,41	49,484
708,59	48,683
708,77	46,863
708,95	48,072
709,14	50,217
709,32	48,308
709,50	45,802
709,69	46,134
709,87	47,459
710,05	48,360
710,23	45,409
710,42	45,625
710,60	47,763
710,78	48,747
710,97	46,886
711,15	46,581
711,33	49,638
711,51	46,914
711,70	45,395
711,88	46,027
712,06	48,397
712,24	47,657
712,43	49,026
712,61	45,509
712,79	49,038
712,97	46,619
713,16	48,674
713,34	45,467
713,52	49,548
713,70	48,043
713,89	47,591
714,07	47,333
714,25	47,841
714,43	48,516
714,62	46,303
714,80	47,889
714,98	45,337
715,16	45,856
715,35	46,678
715,53	46,971
715,71	49,611
715,89	48,663
716,07	46,326
716,26	49,151
716,44	48,236
716,62	47,825
716,80	48,403
716,99	46,108
717,17	50,930
717,35	48,562
717,53	45,366
717,71	46,262
717,90	47,439
718,08	48,076
718,26	43,342
718,44	49,015
718,62	48,264
718,81	49,271
718,99	46,406
719,17	46,234
719,35	46,948
719,53	47,503
719,72	45,984
719,90	44,891
720,08	48,991
720,26	50,045
720,44	45,490
720,62	45,844
720,81	49,998
720,99	50,697
721,17	45,741
721,35	49,042
721,53	47,913
721,72	50,149
721,90	47,170
722,08	47,553
722,26	49,711
722,44	48,202
722,62	46,477
722,81	45,416
722,99	46,563
723,17	47,237
723,35	47,111
723,53	46,125
723,71	47,914
723,89	49,257
724,08	45,458
724,26	46,167
724,44	47,051
724,62	47,851
724,80	46,325
724,98	47,297
725,16	50,347
725,35	47,805
725,53	45,641
725,71	46,506
725,89	49,683
726,07	51,225
726,25	50,538
726,43	46,631
726,61	48,465
726,80	48,688
726,98	46,277
727,16	48,611
727,34	50,454
727,52	47,895
727,70	45,208
727,88	46,796
728,06	46,026
728,25	47,403
728,43	47,648
728,61	47,647
728,79	48,804
728,97	47,145
729,15	46,881
729,33	47,450
729,51	48,556
729,69	49,803
729,87	47,383
730,06	45,948
730,24	49,116
730,42	49,893
730,60	45,277
730,78	47,852
730,96	46,127
731,14	48,250
731,32	46,806
731,50	45,879
731,68	48,823
731,86	49,732
732,04	48,824
732,22	47,264
732,41	51,976
732,59	50,129
732,77	47,943
732,95	49,671
733,13	48,533
733,31	48,153
733,49	45,791
733,67	47,876
733,85	47,505
734,03	46,633
734,21	48,516
734,39	47,773
734,57	50,848
734,75	49,792
734,93	46,561
735,11	46,660
735,29	47,205
735,47	49,294
735,65	47,169
735,84	46,262
736,02	48,054
736,20	52,658
736,38	45,648
736,56	47,559
736,74	48,656
736,92	47,333
737,10	46,316
737,28	48,838
737,46	46,637
737,64	47,602
737,82	48,407
738,00	49,113
738,18	48,559
738,36	47,927
738,54	45,112
738,72	45,633
738,90	46,665
739,08	49,157
739,26	44,027
739,44	43,550
739,62	47,566
739,80	47,888
739,98	46,481
740,16	47,530
740,34	49,239
740,52	51,185
740,70	48,382
740,88	44,540
741,06	48,828
741,24	49,344
741,42	48,555
741,60	46,761
741,78	48,172
741,96	48,062
742,14	46,310
742,32	43,831
742,50	47,535
742,68	46,631
742,86	46,504
743,04	45,381
743,21	48,353
743,39	47,261
743,57	45,422
743,75	45,781
743,93	46,841
744,11	44,351
744,29	47,064
744,47	48,579
744,65	46,363
744,83	46,322
745,01	45,125
745,19	47,281
745,37	50,492
745,55	50,315
745,73	48,491
745,91	47,512
746,09	45,682
746,27	46,291
746,45	42,120
746,62	46,722
746,80	44,612
746,98	46,957
747,16	45,703
747,34	48,432
747,52	47,669
747,70	46,866
747,88	46,049
748,06	47,996
748,24	45,680
748,42	50,015
748,60	47,748
748,78	44,273
748,95	47,269
749,13	50,953
749,31	46,789
749,49	46,797
749,67	49,272
749,85	49,227
750,03	46,121
750,21	46,976
750,39	47,724
750,57	50,781
750,74	48,006
750,92	46,420
751,10	49,727
751,28	44,400
751,46	47,652
751,64	48,174
751,82	48,659
752,00	49,315
752,17	47,376
752,35	46,018
752,53	46,770
752,71	50,753
752,89	47,155
753,07	45,426
753,25	48,759
753,43	43,983
753,60	49,272
753,78	45,078
753,96	49,638
754,14	45,541
754,32	46,902
754,50	46,219
754,68	51,684
754,85	47,810
755,03	48,031
755,21	47,376
755,39	51,089
755,57	47,566
755,75	46,353
755,92	46,872
756,10	49,526
756,28	47,895
756,46	44,523
756,64	46,725
756,82	47,903
756,99	47,188
757,17	45,958
757,35	45,140
757,53	51,377
757,71	51,050
757,89	47,001
758,06	48,121
758,24	48,615
758,42	49,014
758,60	46,550
758,78	47,636
758,95	47,732
759,13	49,840
759,31	46,779
759,49	44,883
759,67	47,201
759,84	47,984
760,02	48,228
760,20	45,936
760,38	48,629
760,56	46,287
760,73	49,432
760,91	48,012
761,09	50,457
761,27	46,797
761,45	47,995
761,62	46,829
761,80	48,728
761,98	47,946
762,16	48,337
762,33	46,822
762,51	51,423
762,69	47,694
762,87	46,455
763,05	48,088
763,22	46,645
763,40	46,886
763,58	45,711
763,76	46,885
763,93	48,530
764,11	48,124
764,29	45,733
764,47	48,136
764,64	46,199
764,82	51,570
765,00	47,279
765,18	44,663
765,35	46,974
765,53	48,036
765,71	47,488
765,89	46,019
766,06	46,273
766,24	49,311
766,42	47,183
766,60	45,442
766,77	46,811
766,95	46,190
767,13	48,345
767,30	46,427
767,48	46,704
767,66	46,216
767,84	45,278
768,01	46,221
768,19	48,011
768,37	46,973
768,54	47,054
768,72	49,416
768,90	46,939
769,08	49,218
769,25	48,354
769,43	45,237
769,61	45,088
769,78	48,319
769,96	46,128
770,14	47,472
770,31	48,319
770,49	49,506
770,67	47,161
770,85	44,921
771,02	47,712
771,20	47,952
771,38	49,115
771,55	45,684
771,73	47,830
771,91	50,234
772,08	49,312
772,26	46,848
772,44	48,990
772,61	47,791
772,79	45,754
772,97	46,314
773,14	46,241
773,32	48,800
773,50	46,090
773,67	46,816
773,85	48,289
774,03	51,355
774,20	47,273
774,38	46,854
774,56	47,620
774,73	48,148
774,91	45,624
775,09	45,819
775,26	47,955
775,44	46,846
775,61	47,489
775,79	44,822
775,97	48,353
776,14	45,358
776,32	46,375
776,50	44,303
776,67	47,608
776,85	48,395
777,03	44,285
777,20	47,809
777,38	48,600
777,55	46,997
777,73	44,821
777,91	47,903
778,08	48,067
778,26	47,339
778,43	47,343
778,61	45,853
778,79	46,335
778,96	47,491
779,14	47,065
779,32	43,680
779,49	45,724
779,67	51,436
779,84	46,785
780,02	49,065
780,20	44,161
780,37	47,231
780,55	39,821
780,72	50,356
780,90	49,835
781,07	48,930
781,25	48,713
781,43	47,575
781,60	46,242
781,78	49,332
781,95	45,994
782,13	48,791
782,30	52,476
782,48	50,498
782,66	45,910
782,83	45,469
783,01	53,437
783,18	48,338
783,36	46,419
783,53	48,667
783,71	49,387
783,89	49,483
784,06	46,980
784,24	46,094
784,41	50,253
784,59	45,988
784,76	48,443
784,94	47,193
785,11	49,680
785,29	44,369
785,46	48,029
785,64	47,397
785,82	48,033
785,99	50,561
786,17	48,046
786,34	47,473
786,52	50,573
786,69	48,112
786,87	45,710
787,04	47,899
787,22	45,133
787,39	49,239
787,57	48,263
787,74	50,057
787,92	50,961
788,09	49,796
788,27	47,506
788,44	45,697
788,62	49,778
788,79	49,520
788,97	49,853
789,14	47,754
789,32	47,847
789,49	48,233
789,67	47,795
789,84	50,443
790,02	49,902
790,19	46,758
790,37	46,678
790,54	49,367
790,72	54,780
790,89	53,765
791,07	50,119
791,24	45,316
791,42	50,654
791,59	51,878
791,77	48,394
791,94	45,213
792,12	49,075
792,29	50,834
792,47	47,434
792,64	52,428
792,81	51,392
792,99	49,065
793,16	47,997
793,34	51,683
793,51	50,099
793,69	50,485
793,86	47,595
794,04	50,112
794,21	52,388
794,39	46,471
794,56	46,859
794,73	47,550
794,91	53,625
795,08	51,125
795,26	48,003
795,43	48,147
795,61	51,583
795,78	50,341
795,95	51,926
796,13	51,272
796,30	50,822
796,48	46,142
796,65	48,084
796,83	47,981
797,00	55,867
797,17	48,356
797,35	49,759
797,52	50,300
797,70	53,081
797,87	50,328
798,04	45,017
798,22	45,974
798,39	47,550
798,57	49,774
798,74	48,319
798,91	48,936
799,09	49,075
799,26	53,421
799,44	52,652
799,61	46,233
799,78	49,489
799,96	54,542
800,13	47,240
800,31	48,381
800,48	50,288
800,65	55,348
800,83	44,087
801,00	47,243
801,17	50,272
801,35	49,982
801,52	45,955
801,70	49,305
801,87	49,278
802,04	52,916
802,22	44,450
802,39	48,527
802,56	55,468
802,74	50,379
802,91	47,559
803,08	44,519
803,26	50,202
803,43	56,481
803,61	50,044
803,78	46,626
803,95	53,539
804,13	48,068
804,30	45,204
804,47	53,807
804,65	53,696
804,82	51,398
804,99	51,099
805,17	52,027
805,34	56,723
805,51	51,750
805,69	49,964
805,86	49,915
806,03	60,690
806,21	53,087
806,38	50,634
806,55	50,259
806,72	55,490
806,90	53,187
807,07	52,489
807,24	49,617
807,42	47,021
807,59	54,119
807,76	44,854
807,94	48,924
808,11	55,500
808,28	55,630
808,45	49,757
808,63	49,073
808,80	55,005
808,97	46,533
809,15	44,420
809,32	49,388
809,49	46,415
809,67	50,856
809,84	51,367
810,01	50,299
810,18	60,354
810,36	55,271
810,53	51,899
810,70	54,194
810,87	49,943
811,05	50,106
811,22	54,740
811,39	52,244
811,57	56,415
811,74	49,960
811,91	49,556
812,08	51,923
812,26	56,484
812,43	44,767
812,60	53,928
812,77	48,926
812,95	55,139
813,12	55,376
813,29	52,043
813,46	51,741
813,64	56,745
813,81	54,061
813,98	54,166
814,15	51,160
814,32	54,578
814,50	54,849
814,67	54,554
814,84	53,310
815,01	52,641
815,19	44,407
815,36	46,620
815,53	51,447
815,70	51,202
815,87	52,861
816,05	41,354
816,22	55,137
816,39	56,901
816,56	58,691
816,74	50,492
816,91	52,559
817,08	63,107
817,25	55,046
817,42	52,343
817,60	50,120
817,77	52,907
817,94	52,245
818,11	52,609
818,28	50,738
818,45	51,814
818,63	55,325
818,80	52,333
818,97	53,366
819,14	56,170
819,31	62,707
819,49	56,148
819,66	51,670
819,83	50,281
820,00	50,754
820,17	50,147
820,34	52,029
820,52	58,061
820,69	53,965
820,86	46,124
821,03	52,447
821,20	60,001
821,37	57,472
821,55	43,455
821,72	50,195
821,89	56,895
822,06	57,110
822,23	48,837
822,40	49,567
822,57	60,496
822,75	59,517
822,92	44,979
823,09	52,570
823,26	64,391
823,43	61,351
823,60	48,801
823,77	51,801
823,94	71,385
824,12	61,776
824,29	51,422
824,46	51,649
824,63	63,991
824,80	57,974
824,97	52,400
825,14	55,435
825,31	62,263
825,49	53,983
825,66	53,083
825,83	51,510
826,00	56,638
826,17	63,473
826,34	50,218
826,51	47,367
826,68	51,830
826,85	54,148
827,02	51,436
827,20	46,820
827,37	53,866
827,54	56,733
827,71	60,076
827,88	56,459
828,05	58,031
828,22	55,003
828,39	53,361
828,56	59,969
828,73	59,751
828,90	59,006
829,07	51,466
829,25	53,485
829,42	57,173
829,59	48,866
829,76	50,022
829,93	47,140
830,10	56,566
830,27	51,301
830,44	46,793
830,61	55,783
830,78	63,486
830,95	55,221
831,12	50,050
831,29	53,412
831,46	47,188
831,63	50,227
831,80	54,159
831,97	54,696
832,14	61,369
832,31	68,753
832,48	52,701
832,65	57,159
832,83	54,918
833,00	67,020
833,17	52,889
833,34	57,293
833,51	63,816
833,68	66,854
833,85	60,919
834,02	47,896
834,19	56,083
834,36	61,302
834,53	50,970
834,70	53,505
834,87	69,759
835,04	55,309
835,21	50,085
835,38	53,056
835,55	55,756
835,72	70,169
835,89	47,970
836,06	53,351
836,23	66,157
836,40	45,481
836,57	50,162
836,74	60,463
836,91	60,390
837,08	72,432
837,25	55,844
837,42	43,208
837,59	53,858
837,76	56,069
837,93	48,345
838,09	44,548
838,26	50,643
838,43	73,028
838,60	47,353
838,77	54,320
838,94	60,809
839,11	49,504
839,28	50,589
839,45	53,022
839,62	55,753
839,79	56,283
839,96	57,739
840,13	65,072
840,30	46,629
840,47	48,160
840,64	60,373
840,81	56,706
840,98	61,629
841,15	67,986
841,32	44,285
841,48	60,967
841,65	53,152
841,82	56,499
841,99	60,911
842,16	50,753
842,33	57,293
842,50	57,798
842,67	50,878
842,84	57,805
843,01	64,173
843,18	59,849
843,35	57,811
843,52	51,158
843,68	56,262
843,85	60,218
844,02	50,385
844,19	52,610
844,36	71,497
844,53	57,918
844,70	58,809
844,87	68,075
845,04	64,323
845,21	50,222
845,37	60,500
845,54	57,493
845,71	58,840
845,88	78,230
846,05	54,445
846,22	45,658
846,39	63,969
846,56	61,081
846,72	52,088
846,89	63,562
847,06	73,314
847,23	67,133
847,40	54,332
847,57	58,829
847,74	56,890
847,90	73,139
848,07	55,154
848,24	53,664
848,41	66,771
848,58	74,707
848,75	55,522
848,92	51,539
849,08	62,788
849,25	58,279
849,42	48,205
849,59	55,446
849,76	68,431
849,93	69,287
850,09	59,942
850,26	51,315
850,43	77,411
850,60	50,383
850,77	53,296
850,94	57,300
851,10	62,491
851,27	53,092
851,44	51,464
851,61	61,449
851,78	74,570
851,95	71,219
852,11	52,329
852,28	61,319
852,45	74,214
852,62	63,506
852,79	60,161
852,95	47,143
853,12	78,992
853,29	56,442
853,46	55,407
853,63	67,173
853,79	63,632
853,96	54,274
854,13	67,127
854,30	59,203
854,46	84,586
854,63	61,444
854,80	61,000
854,97	39,285
855,14	79,829
855,30	64,848
855,47	47,566
855,64	60,899
855,81	56,415
855,97	75,075
856,14	69,226
856,31	55,564
856,48	83,534
856,65	82,247
856,81	65,256
856,98	53,341
857,15	65,137
857,32	72,867
857,48	58,670
857,65	77,803
857,82	86,491
857,99	67,813
858,15	59,775
858,32	71,893
858,49	58,641
858,65	80,005
858,82	59,232
858,99	55,642
859,16	77,330
859,32	80,669
859,49	59,315
859,66	60,271
859,83	78,464
859,99	61,542
860,16	62,035
860,33	63,507
860,49	81,857
860,66	75,876
860,83	52,406
861,00	58,716
861,16	78,738
861,33	73,964
861,50	31,283
861,66	72,350
861,83	100,538
862,00	77,901
862,16	65,717
862,33	59,846
862,50	112,134
862,67	67,679
862,83	68,258
863,00	73,747
863,17	109,752
863,33	68,909
863,50	53,823
863,67	57,810
863,83	71,104
864,00	87,136
864,17	52,134
864,33	56,007
864,50	75,480
864,67	79,047
864,83	58,167
865,00	61,606
865,17	66,475
865,33	61,977
865,50	58,085
865,67	56,419
865,83	90,893
866,00	104,142
866,17	69,445
866,33	65,011
866,50	110,667
866,66	76,484
866,83	71,686
867,00	80,534
867,16	90,084
867,33	117,951
867,50	41,870
867,66	77,401
867,83	95,876
868,00	79,363
868,16	49,986
868,33	60,587
868,49	80,186
868,66	96,645
868,83	68,973
868,99	68,018
869,16	81,551
869,32	102,738
869,49	70,385
869,66	49,037
869,82	102,324
869,99	99,318
870,15	54,665
870,32	75,812
870,49	103,745
870,65	147,040
870,82	76,849
870,98	64,045
871,15	149,746
871,32	70,005
871,48	49,971
871,65	40,838
871,81	95,403
871,98	59,669
872,15	47,109
872,31	59,772
872,48	144,191
872,64	73,603
872,81	57,438
872,97	53,735
873,14	114,259
873,31	80,853
873,47	66,502
873,64	95,800
873,80	130,825
873,97	129,101
874,13	61,048
874,30	79,039
874,46	157,077
874,63	73,842
874,80	68,625
874,96	58,246
875,13	142,160
875,29	66,690
875,46	99,523
875,62	77,661
875,79	117,910
875,95	58,619
876,12	65,034
876,28	25,301
876,45	117,701
876,61	75,241
876,78	55,251
876,94	51,173
877,11	145,169
877,27	106,852
877,44	100,262
877,60	26,495
877,77	134,237
877,94	102,606
878,10	49,962
878,27	89,378
878,43	166,092
878,60	59,338
878,76	74,178
878,93	53,689
879,09	112,097
879,26	106,838
879,42	104,945
879,58	85,663
879,75	126,420
879,91	122,193
880,08	4,465
880,24	66,592
880,41	86,788
880,57	123,698
880,74	36,406
880,90	126,064
881,07	112,638
881,23	179,969
881,40	102,281
881,56	123,253
881,73	122,536
881,89	102,615
882,06	48,626
882,22	201,052
882,38	223,691
882,55	220,934
882,71	110,091
882,88	50,892
883,04	244,056
883,21	198,235
883,37	78,803
883,54	85,786
883,70	256,094
883,86	164,604
884,03	84,175
884,19	47,999
884,36	184,568
884,52	340,107
884,69	103,640
884,85	75,165
885,01	310,419
885,18	179,429
885,34	149,338
885,51	11,435
885,67	81,679
>>>>> Data<<<<< Espectral Procesado Extremo
