Fichero De Datos De SpectraSuite
++++++++++++++++++++++++++++++++++++
Fecha: Wed Apr 22 13:17:20 CEST 2009
Usuario: evoflor
Presente Oscuro Del Espectro: Sí
La Referencia de Presente Del Espectro De: Sí
Muestreados de los componentes de Número de espectros: 1
Espectrómetros: USB4F02353
Tiempo de integración (usec): 500000 (USB4F02353)
Promedio de Espectros Hechos un: 5 (USB4F02353)
El Alisar Del Furgón: 0 (USB4F02353)
Párrafo de de Corregir del la del del de Eléctrica del obscuridad: Sí (USB4F02353)
Estrobo/Lámpara Permitido: No (USB4F02353)
Correct for Detector Non-linearity: No (USB4F02353)
Párrafo de de Corregir del la del del de Externa del luz: No (USB4F02353)
Procesado del espectro de Número de pixeles en: 3648
>>>>> Comienza Data<<<<< Espectral Procesado Del EL
177,79	310,068
178,00	310,068
178,22	310,068
178,44	1885,055
178,66	-426,366
178,88	183,518
179,09	44,426
179,31	310,539
179,53	594,613
179,75	348,072
179,96	786,724
180,18	-585,415
180,40	643,185
180,62	569,125
180,83	8,926
181,05	-1639,756
181,27	-110160,000
181,49	-34,043
181,70	364,846
181,92	778,477
182,14	762,831
182,36	164,512
182,58	320,400
182,79	712,768
183,01	-89,380
183,23	124,718
183,45	-125,723
183,66	-144,956
183,88	356,824
184,10	-2281,091
184,32	20,941
184,53	254,133
184,75	-275,957
184,97	31,652
185,18	-110,639
185,40	-789,231
185,62	229,041
185,84	81,354
186,05	122,194
186,27	-235,709
186,49	3129,231
186,71	12,019
186,92	164,764
187,14	-161,326
187,36	104,378
187,58	129,369
187,79	-42,948
188,01	280,155
188,23	-231,136
188,45	113,730
188,66	475,714
188,88	-2706,545
189,10	-2487,600
189,31	-82,014
189,53	72,920
189,75	279,000
189,97	351,000
190,18	-237,940
190,40	663,882
190,62	-259,345
190,83	-468,210
191,05	175,135
191,27	170,743
191,49	482,079
191,70	-724,327
191,92	-643,729
192,14	-36,288
192,35	662,228
192,57	4227,429
192,79	-72,463
193,01	246,304
193,22	135,000
193,44	-191,058
193,66	93,094
193,87	-91,734
194,09	-0,392
194,31	141,018
194,53	1361,958
194,74	63,000
194,96	62,609
195,18	158,816
195,39	-547,124
195,61	-68,037
195,83	-370,565
196,04	142,250
196,26	-69,648
196,48	24,239
196,70	320,994
196,91	99,170
197,13	199,139
197,35	-38,853
197,56	513,808
197,78	2031,045
198,00	329,790
198,21	560,971
198,43	-1325,930
198,65	119,594
198,86	279,712
199,08	157,574
199,30	284,939
199,51	-490,749
199,73	158,431
199,95	214,752
200,16	697,154
200,38	356,481
200,60	114,779
200,81	395,846
201,03	162,391
201,25	-2271,600
201,46	158,400
201,68	18,153
201,90	1276,364
202,11	-283,053
202,33	241,400
202,55	308,250
202,76	-155,904
202,98	277,213
203,20	-334,904
203,41	-916,105
203,63	176,307
203,85	-213660,000
204,06	249,327
204,28	70,699
204,50	101,327
204,71	194,629
204,93	17,280
205,15	163,735
205,36	-153,843
205,58	176,891
205,80	-190,626
206,01	33,158
206,23	180,480
206,45	285,964
206,66	230,115
206,88	9,983
207,10	248,318
207,31	375,974
207,53	80,743
207,75	95,167
207,96	694,478
208,18	-369,215
208,39	62,339
208,61	4098,857
208,83	-471,876
209,04	365,011
209,26	-163,410
209,48	285,209
209,69	343,161
209,91	816,081
210,13	14,944
210,34	101,114
210,56	200,479
210,77	-1434,331
210,99	205,919
211,21	7432,941
211,42	-138,482
211,64	-36,523
211,86	239,214
212,07	252,832
212,29	150,882
212,50	176,882
212,72	271,385
212,94	75,972
213,15	186,956
213,37	139,329
213,58	-116,541
213,80	-1555,714
214,02	13944,706
214,23	320,912
214,45	576,590
214,67	-1354,390
214,88	-457,248
215,10	-271,585
215,31	-24,760
215,53	125,591
215,75	241,670
215,96	1936,398
216,18	-628,732
216,39	174,492
216,61	438,996
216,83	447,589
217,04	1925,393
217,26	129,774
217,47	154,368
217,69	278,710
217,91	-128,505
218,12	-98460,000
218,34	163,486
218,55	514,218
218,77	58,378
218,99	124,810
219,20	-91,925
219,42	490,335
219,63	-167,719
219,85	-180,250
220,06	150,231
220,28	215,796
220,50	22,073
220,71	114,156
220,93	3929,434
221,14	-1722,600
221,36	-14,455
221,58	-61,200
221,79	177,385
222,01	623,793
222,22	547,105
222,44	-582,472
222,65	119,935
222,87	468,252
223,09	121,450
223,30	70,686
223,52	168,059
223,73	231,289
223,95	61,352
224,16	171,464
224,38	384,739
224,60	112,255
224,81	144,919
225,03	119,339
225,24	278,565
225,46	67,874
225,67	49,969
225,89	39,346
226,10	505,301
226,32	780,480
226,54	-12,952
226,75	-55,321
226,97	181,912
227,18	146,961
227,40	101,733
227,61	40,577
227,83	25,103
228,04	158,639
228,26	78,512
228,47	84,453
228,69	205,030
228,91	196,087
229,12	122,927
229,34	32,755
229,55	61,034
229,77	31,846
229,98	29,822
230,20	29,559
230,41	13,342
230,63	163,464
230,84	69,377
231,06	44,357
231,27	18,537
231,49	43,696
231,71	9,969
231,92	37,323
232,14	33,940
232,35	50,650
232,57	71,100
232,78	24,008
233,00	53,596
233,21	56,187
233,43	5,997
233,64	13,819
233,86	49,857
234,07	32,367
234,29	17,697
234,50	29,307
234,72	41,398
234,93	12,611
235,15	16,380
235,36	26,230
235,58	40,596
235,79	41,780
236,01	33,761
236,22	22,113
236,44	72,624
236,65	32,203
236,87	23,873
237,08	7,201
237,30	3,080
237,51	21,053
237,73	-0,902
237,94	3,659
238,16	32,195
238,37	7,886
238,59	13,093
238,80	5,792
239,02	3,050
239,23	17,569
239,45	-6,545
239,66	20,701
239,88	33,126
240,09	15,903
240,31	4,205
240,52	3,870
240,74	17,126
240,95	16,153
241,17	-2,795
241,38	11,708
241,60	7,154
241,81	28,146
242,03	6,525
242,24	10,098
242,46	23,824
242,67	6,547
242,89	6,922
243,10	18,536
243,32	20,209
243,53	13,672
243,75	6,422
243,96	9,837
244,18	11,820
244,39	16,245
244,60	5,421
244,82	-4,208
245,03	18,958
245,25	12,359
245,46	23,506
245,68	5,962
245,89	15,767
246,11	17,893
246,32	8,576
246,54	6,455
246,75	10,676
246,97	10,083
247,18	18,658
247,39	3,689
247,61	7,392
247,82	16,398
248,04	7,642
248,25	2,954
248,47	9,067
248,68	12,855
248,90	2,519
249,11	6,780
249,33	18,523
249,54	10,012
249,75	9,975
249,97	3,898
250,18	10,793
250,40	18,519
250,61	-8,887
250,83	0,979
251,04	6,306
251,25	11,091
251,47	0,070
251,68	10,465
251,90	6,069
252,11	8,713
252,33	4,162
252,54	6,524
252,76	5,226
252,97	-0,838
253,18	2,206
253,40	5,337
253,61	-0,171
253,83	11,295
254,04	6,929
254,25	4,089
254,47	1,841
254,68	9,065
254,90	8,851
255,11	4,975
255,33	7,370
255,54	6,166
255,75	1,494
255,97	7,193
256,18	2,043
256,40	7,428
256,61	7,786
256,82	-3,602
257,04	8,616
257,25	2,273
257,47	3,926
257,68	-0,950
257,89	9,397
258,11	8,306
258,32	2,901
258,54	5,673
258,75	16,740
258,96	8,330
259,18	0,229
259,39	1,263
259,61	11,040
259,82	3,561
260,03	8,934
260,25	3,335
260,46	1,919
260,68	2,310
260,89	0,976
261,10	0,259
261,32	4,774
261,53	3,568
261,75	5,050
261,96	-1,148
262,17	8,948
262,39	9,449
262,60	1,196
262,81	-1,229
263,03	7,463
263,24	8,547
263,46	1,656
263,67	0,283
263,88	5,207
264,10	6,690
264,31	1,510
264,52	3,762
264,74	9,218
264,95	1,381
265,17	2,703
265,38	3,157
265,59	10,599
265,81	7,567
266,02	-0,183
266,23	0,706
266,45	9,341
266,66	13,158
266,87	5,300
267,09	3,278
267,30	8,367
267,52	7,506
267,73	0,242
267,94	3,472
268,16	3,560
268,37	6,205
268,58	3,651
268,80	2,239
269,01	2,234
269,22	5,940
269,44	9,615
269,65	5,380
269,86	-2,875
270,08	5,193
270,29	2,476
270,50	4,295
270,72	6,719
270,93	4,061
271,14	-0,058
271,36	2,436
271,57	7,859
271,78	5,824
272,00	6,539
272,21	7,067
272,42	5,207
272,64	3,957
272,85	0,968
273,06	1,301
273,28	3,413
273,49	2,921
273,70	7,784
273,92	4,338
274,13	7,814
274,34	3,342
274,56	4,293
274,77	-0,377
274,98	6,166
275,20	4,471
275,41	6,685
275,62	3,768
275,84	4,716
276,05	12,093
276,26	3,188
276,47	0,757
276,69	8,225
276,90	5,681
277,11	1,962
277,33	1,471
277,54	7,637
277,75	6,300
277,97	1,729
278,18	2,846
278,39	5,250
278,61	3,576
278,82	3,866
279,03	5,517
279,24	3,925
279,46	3,404
279,67	4,836
279,88	4,220
280,10	8,768
280,31	0,790
280,52	4,975
280,73	0,013
280,95	8,894
281,16	6,493
281,37	3,493
281,59	6,962
281,80	11,691
282,01	0,683
282,22	2,474
282,44	0,867
282,65	7,579
282,86	7,162
283,08	3,024
283,29	2,834
283,50	5,154
283,71	5,177
283,93	5,507
284,14	6,624
284,35	3,826
284,56	4,616
284,78	-1,792
284,99	7,194
285,20	11,216
285,42	5,451
285,63	2,917
285,84	-1,526
286,05	0,347
286,27	2,386
286,48	0,458
286,69	0,362
286,90	1,958
287,12	2,477
287,33	1,285
287,54	0,879
287,75	5,000
287,97	6,039
288,18	2,043
288,39	1,169
288,60	3,647
288,82	4,494
289,03	5,118
289,24	3,667
289,45	7,397
289,67	5,410
289,88	0,693
290,09	4,462
290,30	4,616
290,52	4,670
290,73	0,199
290,94	-1,693
291,15	3,728
291,37	4,909
291,58	1,393
291,79	3,480
292,00	4,620
292,21	5,878
292,43	2,308
292,64	0,891
292,85	2,314
293,06	8,448
293,28	3,060
293,49	-0,860
293,70	8,928
293,91	1,484
294,12	1,792
294,34	5,549
294,55	2,744
294,76	4,459
294,97	5,239
295,19	1,782
295,40	3,971
295,61	4,666
295,82	-0,995
296,03	4,245
296,25	3,430
296,46	0,138
296,67	0,262
296,88	-2,065
297,09	6,324
297,31	2,525
297,52	3,949
297,73	0,648
297,94	6,021
298,15	5,278
298,37	2,768
298,58	3,741
298,79	5,560
299,00	2,203
299,21	1,574
299,43	0,545
299,64	7,325
299,85	6,329
300,06	0,340
300,27	1,262
300,49	7,866
300,70	2,936
300,91	3,441
301,12	2,943
301,33	8,362
301,54	3,808
301,76	1,548
301,97	2,026
302,18	1,105
302,39	5,813
302,60	12,767
302,82	1,483
303,03	8,345
303,24	4,325
303,45	4,577
303,66	0,309
303,87	3,376
304,09	6,707
304,30	2,586
304,51	2,050
304,72	2,504
304,93	5,146
305,14	2,703
305,36	-0,722
305,57	0,447
305,78	5,016
305,99	1,984
306,20	3,254
306,41	0,718
306,62	0,383
306,84	2,562
307,05	-1,141
307,26	5,218
307,47	7,547
307,68	2,658
307,89	2,696
308,11	6,835
308,32	2,820
308,53	2,031
308,74	-0,039
308,95	2,811
309,16	5,312
309,37	5,714
309,59	-0,734
309,80	4,043
310,01	4,472
310,22	6,713
310,43	1,140
310,64	3,638
310,85	4,487
311,06	2,705
311,28	3,692
311,49	2,673
311,70	5,982
311,91	0,779
312,12	1,692
312,33	3,380
312,54	3,422
312,75	1,699
312,97	0,109
313,18	5,965
313,39	3,637
313,60	1,017
313,81	2,021
314,02	4,465
314,23	7,892
314,44	1,118
314,65	2,354
314,87	0,863
315,08	2,501
315,29	3,279
315,50	5,399
315,71	4,063
315,92	6,946
316,13	3,682
316,34	4,162
316,55	5,582
316,77	-0,368
316,98	1,973
317,19	0,590
317,40	4,782
317,61	6,960
317,82	0,153
318,03	1,910
318,24	3,768
318,45	7,345
318,66	2,975
318,87	0,254
319,09	5,950
319,30	4,773
319,51	4,950
319,72	3,849
319,93	7,691
320,14	5,837
320,35	4,804
320,56	1,649
320,77	2,687
320,98	7,947
321,19	3,639
321,40	3,322
321,62	3,613
321,83	2,179
322,04	6,078
322,25	3,018
322,46	8,331
322,67	4,281
322,88	1,808
323,09	1,880
323,30	7,279
323,51	10,048
323,72	6,564
323,93	0,622
324,14	3,269
324,35	1,517
324,56	-0,268
324,77	2,652
324,99	1,896
325,20	-1,812
325,41	2,881
325,62	2,381
325,83	1,787
326,04	2,245
326,25	4,628
326,46	0,526
326,67	3,854
326,88	3,776
327,09	1,830
327,30	1,206
327,51	4,110
327,72	3,028
327,93	5,244
328,14	-0,453
328,35	2,656
328,56	3,937
328,77	3,850
328,98	4,800
329,19	4,780
329,40	5,037
329,61	2,985
329,82	-2,055
330,04	4,360
330,25	4,531
330,46	3,168
330,67	1,485
330,88	2,828
331,09	3,135
331,30	4,361
331,51	3,266
331,72	2,808
331,93	4,971
332,14	0,576
332,35	5,885
332,56	4,190
332,77	4,875
332,98	-0,384
333,19	2,350
333,40	3,474
333,61	4,010
333,82	6,633
334,03	4,494
334,24	6,608
334,45	4,783
334,66	4,850
334,87	2,397
335,08	1,468
335,29	0,700
335,50	3,009
335,71	2,239
335,92	6,863
336,13	6,871
336,34	1,407
336,55	1,469
336,76	5,954
336,97	2,745
337,18	0,564
337,39	2,362
337,60	4,553
337,81	3,815
338,02	3,845
338,23	4,532
338,44	1,928
338,65	3,303
338,86	5,050
339,07	1,714
339,28	5,642
339,49	1,185
339,70	-0,716
339,91	2,569
340,11	7,720
340,32	-0,206
340,53	-0,659
340,74	-0,471
340,95	-1,492
341,16	6,399
341,37	1,967
341,58	0,066
341,79	3,691
342,00	3,078
342,21	0,614
342,42	3,712
342,63	3,826
342,84	2,983
343,05	2,180
343,26	5,774
343,47	4,133
343,68	-0,017
343,89	3,383
344,10	4,570
344,31	4,826
344,52	3,326
344,73	0,649
344,94	3,922
345,14	0,618
345,35	5,390
345,56	4,017
345,77	4,837
345,98	3,687
346,19	4,056
346,40	5,368
346,61	3,271
346,82	1,983
347,03	4,544
347,24	4,470
347,45	2,868
347,66	9,169
347,87	1,290
348,08	4,936
348,28	0,240
348,49	4,676
348,70	4,074
348,91	5,190
349,12	-0,702
349,33	15,292
349,54	3,328
349,75	8,457
349,96	2,714
350,17	2,985
350,38	0,918
350,59	4,763
350,80	2,650
351,00	6,665
351,21	4,852
351,42	2,994
351,63	-2,045
351,84	5,068
352,05	7,295
352,26	2,981
352,47	1,530
352,68	8,044
352,89	4,551
353,09	5,951
353,30	-0,078
353,51	2,618
353,72	3,658
353,93	7,142
354,14	0,906
354,35	5,811
354,56	7,190
354,77	3,785
354,98	-3,128
355,18	8,563
355,39	11,630
355,60	3,649
355,81	4,793
356,02	6,390
356,23	2,184
356,44	0,162
356,65	3,092
356,85	9,252
357,06	8,202
357,27	2,038
357,48	-0,918
357,69	7,645
357,90	6,930
358,11	-0,104
358,32	4,487
358,52	6,587
358,73	2,966
358,94	2,376
359,15	4,344
359,36	4,850
359,57	2,773
359,78	5,186
359,98	1,033
360,19	1,307
360,40	4,330
360,61	6,738
360,82	3,776
361,03	9,294
361,24	9,388
361,44	0,194
361,65	1,798
361,86	-0,540
362,07	2,564
362,28	2,036
362,49	1,320
362,70	3,270
362,90	2,878
363,11	-0,700
363,32	0,382
363,53	2,387
363,74	10,158
363,95	6,724
364,15	2,988
364,36	5,798
364,57	4,811
364,78	2,330
364,99	3,147
365,20	3,686
365,40	6,979
365,61	0,561
365,82	5,086
366,03	5,603
366,24	1,631
366,45	1,172
366,65	4,424
366,86	1,688
367,07	3,956
367,28	2,766
367,49	2,892
367,69	7,399
367,90	0,990
368,11	3,077
368,32	0,925
368,53	8,178
368,73	5,817
368,94	1,812
369,15	3,244
369,36	8,126
369,57	2,703
369,78	3,978
369,98	7,637
370,19	9,066
370,40	2,127
370,61	1,255
370,82	0,681
371,02	5,295
371,23	6,644
371,44	0,455
371,65	4,446
371,85	8,733
372,06	3,825
372,27	3,030
372,48	5,918
372,69	4,016
372,89	3,597
373,10	3,689
373,31	4,220
373,52	4,541
373,73	9,304
373,93	4,380
374,14	3,646
374,35	4,561
374,56	6,553
374,76	1,243
374,97	2,235
375,18	5,198
375,39	5,798
375,60	3,079
375,80	4,801
376,01	4,356
376,22	5,862
376,43	6,089
376,63	3,510
376,84	2,388
377,05	3,030
377,26	1,740
377,46	0,233
377,67	2,739
377,88	5,595
378,09	3,264
378,29	2,159
378,50	4,164
378,71	5,957
378,92	2,818
379,12	4,047
379,33	2,573
379,54	-0,392
379,75	7,510
379,95	2,684
380,16	6,565
380,37	5,842
380,58	4,540
380,78	4,030
380,99	1,726
381,20	2,526
381,41	2,779
381,61	5,263
381,82	0,944
382,03	4,590
382,24	4,210
382,44	4,542
382,65	5,985
382,86	5,052
383,06	2,499
383,27	3,525
383,48	4,255
383,69	6,188
383,89	4,622
384,10	6,268
384,31	4,783
384,51	9,104
384,72	5,464
384,93	4,025
385,14	2,676
385,34	4,376
385,55	2,206
385,76	0,848
385,96	3,656
386,17	4,898
386,38	5,056
386,59	5,712
386,79	4,605
387,00	8,861
387,21	9,059
387,41	2,483
387,62	2,207
387,83	7,598
388,03	3,150
388,24	-0,886
388,45	5,527
388,66	3,780
388,86	7,061
389,07	0,284
389,28	11,216
389,48	6,169
389,69	6,778
389,90	2,701
390,10	9,402
390,31	7,717
390,52	-1,679
390,72	3,798
390,93	5,913
391,14	4,621
391,34	6,900
391,55	7,605
391,76	9,266
391,96	8,016
392,17	3,114
392,38	6,671
392,58	7,745
392,79	6,774
393,00	2,116
393,20	2,533
393,41	3,467
393,62	5,844
393,82	8,045
394,03	7,023
394,24	5,080
394,44	9,105
394,65	6,062
394,86	3,945
395,06	10,071
395,27	4,020
395,48	5,680
395,68	7,757
395,89	8,017
396,10	10,088
396,30	2,989
396,51	3,443
396,72	5,480
396,92	3,927
397,13	5,240
397,34	4,244
397,54	10,037
397,75	4,261
397,95	5,424
398,16	6,960
398,37	7,753
398,57	8,363
398,78	9,124
398,99	11,214
399,19	8,732
399,40	9,822
399,60	7,483
399,81	5,091
400,02	9,380
400,22	9,847
400,43	4,130
400,64	6,105
400,84	6,829
401,05	11,635
401,25	7,985
401,46	8,763
401,67	11,974
401,87	7,481
402,08	5,810
402,29	7,916
402,49	11,560
402,70	12,852
402,90	7,163
403,11	8,958
403,32	11,169
403,52	6,404
403,73	11,055
403,93	10,294
404,14	16,966
404,35	10,512
404,55	3,614
404,76	7,622
404,96	7,937
405,17	13,415
405,38	14,405
405,58	8,953
405,79	14,333
405,99	9,498
406,20	8,156
406,40	3,799
406,61	13,465
406,82	11,671
407,02	15,474
407,23	12,716
407,43	11,297
407,64	10,941
407,85	10,575
408,05	5,810
408,26	18,808
408,46	15,233
408,67	6,354
408,87	10,777
409,08	11,638
409,29	19,369
409,49	16,314
409,70	17,205
409,90	15,863
410,11	11,853
410,31	14,663
410,52	10,408
410,72	13,440
410,93	15,290
411,14	15,832
411,34	7,042
411,55	15,428
411,75	13,811
411,96	13,826
412,16	14,126
412,37	12,672
412,57	15,810
412,78	14,270
412,99	10,934
413,19	15,983
413,40	14,979
413,60	12,054
413,81	12,052
414,01	15,860
414,22	11,836
414,42	15,885
414,63	8,396
414,83	19,327
415,04	18,965
415,24	15,912
415,45	15,380
415,65	14,249
415,86	19,057
416,07	14,249
416,27	14,736
416,48	20,712
416,68	23,566
416,89	11,599
417,09	11,324
417,30	18,136
417,50	15,674
417,71	19,796
417,91	20,492
418,12	14,514
418,32	15,444
418,53	17,287
418,73	17,357
418,94	12,772
419,14	16,973
419,35	15,352
419,55	16,205
419,76	17,526
419,96	17,057
420,17	9,745
420,37	15,754
420,58	21,270
420,78	18,095
420,99	14,602
421,19	18,841
421,40	21,056
421,60	19,619
421,81	16,698
422,01	17,474
422,22	14,925
422,42	19,432
422,63	15,263
422,83	14,659
423,04	20,773
423,24	22,284
423,45	13,493
423,65	18,711
423,86	20,444
424,06	22,167
424,27	14,072
424,47	13,960
424,67	16,061
424,88	19,841
425,08	15,899
425,29	22,009
425,49	13,976
425,70	13,794
425,90	18,409
426,11	18,636
426,31	16,520
426,52	21,196
426,72	18,641
426,93	16,961
427,13	22,498
427,33	16,181
427,54	20,302
427,74	20,571
427,95	25,248
428,15	12,024
428,36	20,586
428,56	15,214
428,77	20,889
428,97	20,190
429,18	16,063
429,38	13,773
429,58	20,481
429,79	19,155
429,99	15,051
430,20	12,480
430,40	20,549
430,61	15,749
430,81	15,879
431,01	21,190
431,22	23,150
431,42	23,760
431,63	14,660
431,83	18,108
432,04	20,828
432,24	22,662
432,44	17,795
432,65	17,149
432,85	16,465
433,06	19,895
433,26	15,901
433,47	17,773
433,67	15,983
433,87	18,629
434,08	16,348
434,28	16,947
434,49	17,801
434,69	20,313
434,89	18,050
435,10	17,017
435,30	21,720
435,51	15,368
435,71	18,283
435,91	14,888
436,12	20,354
436,32	18,300
436,53	15,765
436,73	18,432
436,93	24,628
437,14	15,578
437,34	17,466
437,55	16,396
437,75	18,060
437,95	20,008
438,16	14,509
438,36	17,601
438,57	15,759
438,77	19,009
438,97	21,475
439,18	22,820
439,38	19,391
439,58	15,797
439,79	18,064
439,99	14,351
440,20	24,512
440,40	20,641
440,60	15,107
440,81	22,948
441,01	22,262
441,21	22,598
441,42	21,612
441,62	20,926
441,83	19,114
442,03	17,327
442,23	18,472
442,44	19,215
442,64	21,858
442,84	15,764
443,05	20,093
443,25	17,567
443,45	18,664
443,66	16,221
443,86	16,277
444,06	19,467
444,27	15,582
444,47	20,326
444,67	16,235
444,88	22,333
445,08	18,512
445,28	19,966
445,49	14,857
445,69	18,653
445,90	21,232
446,10	21,566
446,30	19,924
446,51	22,249
446,71	24,665
446,91	25,243
447,12	26,398
447,32	19,229
447,52	18,389
447,72	21,995
447,93	17,047
448,13	12,992
448,33	26,209
448,54	19,289
448,74	14,549
448,94	20,853
449,15	26,253
449,35	23,338
449,55	19,657
449,76	25,615
449,96	16,725
450,16	22,294
450,37	20,611
450,57	22,861
450,77	15,869
450,98	19,617
451,18	20,204
451,38	15,635
451,58	21,289
451,79	21,047
451,99	24,401
452,19	21,374
452,40	23,702
452,60	17,130
452,80	17,378
453,00	23,142
453,21	18,232
453,41	23,841
453,61	18,894
453,82	23,147
454,02	18,562
454,22	25,807
454,42	20,749
454,63	17,698
454,83	22,298
455,03	25,827
455,24	20,185
455,44	19,462
455,64	16,839
455,84	18,518
456,05	12,366
456,25	17,609
456,45	22,496
456,65	21,414
456,86	23,145
457,06	21,777
457,26	23,959
457,47	26,990
457,67	24,325
457,87	16,778
458,07	16,838
458,28	22,557
458,48	24,760
458,68	16,065
458,88	25,323
459,09	17,905
459,29	24,628
459,49	18,163
459,69	21,322
459,90	22,752
460,10	17,371
460,30	17,447
460,50	18,280
460,71	24,823
460,91	13,947
461,11	20,411
461,31	18,879
461,52	24,661
461,72	20,520
461,92	20,848
462,12	28,029
462,32	15,595
462,53	18,367
462,73	20,001
462,93	23,145
463,13	24,090
463,34	19,238
463,54	21,260
463,74	18,007
463,94	19,408
464,14	20,872
464,35	19,071
464,55	23,198
464,75	24,310
464,95	21,012
465,16	14,703
465,36	21,982
465,56	20,571
465,76	18,705
465,96	19,819
466,17	20,608
466,37	19,365
466,57	23,041
466,77	20,212
466,97	18,784
467,18	24,607
467,38	22,346
467,58	22,740
467,78	23,538
467,98	22,162
468,19	23,064
468,39	24,931
468,59	24,391
468,79	20,580
468,99	19,759
469,19	18,070
469,40	20,433
469,60	21,476
469,80	15,060
470,00	20,367
470,20	24,619
470,41	20,872
470,61	20,180
470,81	21,277
471,01	18,087
471,21	22,738
471,41	15,025
471,62	19,839
471,82	15,998
472,02	18,116
472,22	19,783
472,42	20,522
472,62	23,141
472,83	18,262
473,03	22,659
473,23	16,881
473,43	24,102
473,63	20,525
473,83	21,426
474,03	16,259
474,24	26,291
474,44	19,285
474,64	19,044
474,84	14,557
475,04	20,871
475,24	22,684
475,45	19,975
475,65	16,686
475,85	23,553
476,05	15,055
476,25	20,078
476,45	16,004
476,65	25,807
476,85	19,379
477,06	16,299
477,26	17,012
477,46	21,800
477,66	18,751
477,86	21,331
478,06	15,686
478,26	25,934
478,46	17,087
478,67	21,912
478,87	18,478
479,07	16,089
479,27	23,826
479,47	18,566
479,67	13,737
479,87	14,114
480,07	22,031
480,28	20,056
480,48	14,999
480,68	23,174
480,88	23,992
481,08	19,143
481,28	19,645
481,48	19,025
481,68	17,687
481,88	14,877
482,08	16,581
482,29	21,515
482,49	15,901
482,69	19,315
482,89	19,832
483,09	21,560
483,29	17,605
483,49	15,568
483,69	17,030
483,89	17,428
484,09	16,371
484,29	15,981
484,50	17,588
484,70	19,543
484,90	17,473
485,10	16,881
485,30	21,506
485,50	21,129
485,70	18,970
485,90	19,380
486,10	14,078
486,30	17,820
486,50	18,234
486,70	15,682
486,90	17,242
487,10	19,612
487,30	18,991
487,51	17,806
487,71	13,982
487,91	16,044
488,11	20,806
488,31	11,821
488,51	19,414
488,71	16,137
488,91	17,755
489,11	15,511
489,31	16,052
489,51	19,658
489,71	16,812
489,91	17,947
490,11	16,168
490,31	16,780
490,51	19,499
490,71	17,170
490,91	17,885
491,11	18,301
491,31	16,113
491,51	16,042
491,72	18,380
491,92	17,293
492,12	22,942
492,32	19,084
492,52	19,248
492,72	19,117
492,92	18,244
493,12	19,991
493,32	15,614
493,52	14,860
493,72	15,758
493,92	18,806
494,12	18,031
494,32	20,639
494,52	17,823
494,72	16,088
494,92	13,905
495,12	20,799
495,32	21,011
495,52	18,913
495,72	18,327
495,92	22,390
496,12	20,807
496,32	15,162
496,52	15,987
496,72	17,305
496,92	19,776
497,12	16,940
497,32	19,814
497,52	19,513
497,72	22,132
497,92	18,659
498,12	16,704
498,32	18,212
498,52	19,726
498,72	16,882
498,92	14,611
499,12	19,187
499,32	16,189
499,52	17,776
499,72	17,274
499,92	20,055
500,12	20,763
500,32	19,680
500,52	18,791
500,72	22,993
500,91	20,866
501,11	16,881
501,31	14,629
501,51	19,891
501,71	20,771
501,91	19,687
502,11	16,529
502,31	18,480
502,51	19,105
502,71	17,109
502,91	16,926
503,11	19,520
503,31	19,685
503,51	13,996
503,71	16,638
503,91	20,737
504,11	17,679
504,31	18,006
504,51	18,765
504,71	21,829
504,91	17,382
505,10	19,152
505,30	17,831
505,50	21,325
505,70	16,616
505,90	16,947
506,10	15,342
506,30	19,658
506,50	21,580
506,70	20,960
506,90	18,056
507,10	16,036
507,30	16,661
507,50	18,264
507,70	18,759
507,89	19,746
508,09	15,614
508,29	16,231
508,49	15,435
508,69	16,860
508,89	16,622
509,09	16,189
509,29	16,640
509,49	20,473
509,69	22,933
509,89	17,357
510,09	17,839
510,28	20,143
510,48	19,872
510,68	13,820
510,88	14,518
511,08	16,620
511,28	18,237
511,48	15,770
511,68	13,736
511,88	12,944
512,07	16,902
512,27	18,889
512,47	13,969
512,67	15,623
512,87	14,642
513,07	17,766
513,27	13,539
513,47	16,110
513,67	14,341
513,86	20,292
514,06	16,629
514,26	14,171
514,46	18,802
514,66	15,636
514,86	18,319
515,06	22,110
515,26	19,371
515,45	15,991
515,65	14,672
515,85	19,273
516,05	13,462
516,25	16,535
516,45	17,323
516,65	14,059
516,84	16,589
517,04	20,176
517,24	17,009
517,44	17,491
517,64	19,268
517,84	17,905
518,04	16,384
518,23	18,689
518,43	20,665
518,63	15,537
518,83	15,841
519,03	14,659
519,23	18,024
519,42	16,964
519,62	15,853
519,82	15,554
520,02	14,282
520,22	15,366
520,42	14,240
520,61	18,830
520,81	18,170
521,01	19,955
521,21	13,405
521,41	18,828
521,61	18,135
521,80	14,412
522,00	17,705
522,20	18,289
522,40	18,102
522,60	16,669
522,79	13,664
522,99	18,707
523,19	13,012
523,39	16,610
523,59	14,563
523,78	17,742
523,98	14,929
524,18	16,632
524,38	16,802
524,58	15,261
524,77	18,477
524,97	17,675
525,17	15,252
525,37	14,466
525,57	18,496
525,76	15,911
525,96	15,816
526,16	15,797
526,36	12,652
526,56	17,130
526,75	13,570
526,95	17,209
527,15	17,388
527,35	17,335
527,55	15,747
527,74	17,025
527,94	12,953
528,14	13,920
528,34	15,705
528,53	13,464
528,73	15,246
528,93	17,240
529,13	14,151
529,32	14,168
529,52	17,368
529,72	11,165
529,92	13,749
530,12	14,712
530,31	13,470
530,51	13,559
530,71	13,890
530,91	16,442
531,10	11,742
531,30	12,937
531,50	12,446
531,70	16,337
531,89	15,166
532,09	13,043
532,29	15,620
532,49	15,545
532,68	16,448
532,88	13,433
533,08	15,950
533,28	14,932
533,47	15,637
533,67	17,082
533,87	12,204
534,06	21,457
534,26	14,564
534,46	13,756
534,66	12,983
534,85	16,910
535,05	9,925
535,25	12,802
535,45	10,694
535,64	16,519
535,84	14,048
536,04	11,945
536,23	12,624
536,43	15,472
536,63	12,206
536,83	14,044
537,02	12,171
537,22	13,705
537,42	13,528
537,61	12,250
537,81	14,795
538,01	15,843
538,20	15,619
538,40	9,990
538,60	13,896
538,80	13,352
538,99	15,294
539,19	12,228
539,39	12,401
539,58	14,060
539,78	10,228
539,98	12,713
540,17	11,256
540,37	12,350
540,57	11,404
540,76	11,792
540,96	9,092
541,16	12,351
541,36	11,017
541,55	6,533
541,75	8,087
541,95	9,177
542,14	8,288
542,34	8,106
542,54	8,171
542,73	11,015
542,93	11,842
543,13	9,495
543,32	9,980
543,52	11,369
543,72	8,979
543,91	10,096
544,11	8,175
544,31	8,033
544,50	8,135
544,70	8,436
544,89	8,961
545,09	12,099
545,29	11,290
545,48	9,770
545,68	7,722
545,88	10,956
546,07	7,993
546,27	8,513
546,47	10,460
546,66	11,807
546,86	12,516
547,06	9,784
547,25	10,954
547,45	12,072
547,64	9,946
547,84	15,736
548,04	11,758
548,23	14,180
548,43	13,024
548,63	12,920
548,82	13,050
549,02	10,174
549,21	10,967
549,41	14,147
549,61	12,651
549,80	11,637
550,00	13,580
550,20	11,169
550,39	13,414
550,59	12,997
550,78	12,643
550,98	10,063
551,18	15,433
551,37	12,176
551,57	13,137
551,76	13,035
551,96	11,658
552,16	11,433
552,35	13,679
552,55	9,946
552,74	13,798
552,94	14,098
553,14	11,870
553,33	12,632
553,53	11,790
553,72	12,555
553,92	15,925
554,12	10,579
554,31	12,708
554,51	13,534
554,70	9,746
554,90	12,526
555,09	14,851
555,29	14,425
555,49	13,872
555,68	15,840
555,88	11,258
556,07	11,049
556,27	17,057
556,46	13,831
556,66	9,717
556,86	17,152
557,05	13,142
557,25	12,758
557,44	11,012
557,64	11,957
557,83	13,109
558,03	13,762
558,22	11,089
558,42	16,086
558,62	17,263
558,81	13,495
559,01	14,210
559,20	16,130
559,40	11,197
559,59	12,543
559,79	9,378
559,98	12,381
560,18	14,775
560,37	13,067
560,57	10,623
560,76	10,398
560,96	11,602
561,16	15,322
561,35	13,959
561,55	18,108
561,74	13,275
561,94	14,499
562,13	13,651
562,33	18,995
562,52	14,806
562,72	12,915
562,91	12,141
563,11	13,263
563,30	17,152
563,50	9,539
563,69	12,405
563,89	13,999
564,08	13,824
564,28	12,576
564,47	12,749
564,67	13,429
564,86	14,475
565,06	12,364
565,25	11,212
565,45	14,355
565,64	17,675
565,84	12,212
566,03	10,594
566,23	14,094
566,42	14,978
566,62	13,854
566,81	12,048
567,01	12,484
567,20	14,444
567,40	9,571
567,59	11,390
567,79	15,721
567,98	15,618
568,18	12,377
568,37	13,736
568,57	12,651
568,76	14,970
568,96	12,820
569,15	11,891
569,35	14,803
569,54	17,306
569,73	13,669
569,93	11,278
570,12	11,701
570,32	13,893
570,51	13,163
570,71	14,404
570,90	15,169
571,10	12,834
571,29	12,281
571,49	13,040
571,68	13,388
571,87	12,840
572,07	12,072
572,26	10,267
572,46	12,840
572,65	14,374
572,85	9,454
573,04	12,585
573,24	13,042
573,43	15,852
573,62	14,765
573,82	12,007
574,01	12,139
574,21	12,754
574,40	10,493
574,60	10,563
574,79	16,503
574,98	11,662
575,18	14,743
575,37	12,166
575,57	13,072
575,76	13,424
575,96	13,921
576,15	11,159
576,34	12,770
576,54	14,374
576,73	13,840
576,93	13,533
577,12	14,445
577,31	13,422
577,51	12,752
577,70	12,131
577,90	12,924
578,09	10,860
578,28	12,598
578,48	11,548
578,67	15,979
578,87	13,434
579,06	12,617
579,25	13,403
579,45	14,246
579,64	12,312
579,84	11,615
580,03	11,732
580,22	15,910
580,42	12,922
580,61	13,612
580,81	12,860
581,00	15,409
581,19	14,487
581,39	11,232
581,58	11,866
581,77	12,758
581,97	13,199
582,16	11,691
582,35	11,527
582,55	13,457
582,74	15,975
582,94	12,812
583,13	10,652
583,32	13,621
583,52	14,241
583,71	13,560
583,90	12,173
584,10	13,536
584,29	14,326
584,48	12,246
584,68	11,707
584,87	14,965
585,06	13,524
585,26	12,445
585,45	11,999
585,65	15,965
585,84	13,948
586,03	13,194
586,23	11,742
586,42	13,352
586,61	15,904
586,81	13,081
587,00	13,643
587,19	13,243
587,39	16,472
587,58	13,903
587,77	13,253
587,97	13,368
588,16	14,158
588,35	14,740
588,54	14,211
588,74	13,482
588,93	15,282
589,12	14,330
589,32	14,302
589,51	14,053
589,70	12,235
589,90	13,764
590,09	13,412
590,28	16,554
590,48	12,757
590,67	14,165
590,86	14,334
591,06	14,065
591,25	16,844
591,44	14,852
591,63	13,426
591,83	15,094
592,02	15,183
592,21	13,578
592,41	14,307
592,60	15,327
592,79	14,879
592,98	14,133
593,18	13,196
593,37	13,886
593,56	16,014
593,76	14,775
593,95	14,399
594,14	15,176
594,33	18,817
594,53	13,505
594,72	13,449
594,91	17,874
595,10	15,048
595,30	14,469
595,49	15,075
595,68	16,375
595,88	17,351
596,07	15,537
596,26	15,145
596,45	14,982
596,65	10,311
596,84	13,843
597,03	15,122
597,22	17,188
597,42	18,470
597,61	15,464
597,80	16,570
597,99	14,854
598,19	16,694
598,38	15,576
598,57	14,914
598,76	16,653
598,95	17,907
599,15	16,332
599,34	15,008
599,53	16,111
599,72	14,764
599,92	17,224
600,11	16,090
600,30	16,403
600,49	18,513
600,69	13,825
600,88	17,255
601,07	17,286
601,26	15,727
601,45	15,789
601,65	15,123
601,84	16,075
602,03	16,185
602,22	17,852
602,42	17,231
602,61	16,816
602,80	18,660
602,99	15,917
603,18	15,719
603,38	18,585
603,57	15,875
603,76	15,542
603,95	14,956
604,14	17,254
604,34	16,533
604,53	15,565
604,72	16,336
604,91	17,539
605,10	16,602
605,29	18,002
605,49	15,978
605,68	16,950
605,87	18,903
606,06	15,961
606,25	15,692
606,45	16,966
606,64	14,345
606,83	16,965
607,02	16,399
607,21	17,669
607,40	17,039
607,60	15,309
607,79	14,900
607,98	14,987
608,17	14,617
608,36	16,728
608,55	18,155
608,75	18,025
608,94	16,069
609,13	13,643
609,32	13,047
609,51	15,525
609,70	14,338
609,89	14,929
610,09	14,208
610,28	16,859
610,47	14,270
610,66	14,111
610,85	13,544
611,04	16,451
611,23	14,487
611,43	13,391
611,62	12,869
611,81	13,864
612,00	13,849
612,19	13,731
612,38	15,490
612,57	14,507
612,77	15,239
612,96	14,710
613,15	15,271
613,34	16,748
613,53	16,163
613,72	16,273
613,91	15,761
614,10	16,154
614,29	18,206
614,49	14,920
614,68	14,325
614,87	17,339
615,06	19,495
615,25	14,693
615,44	18,371
615,63	16,457
615,82	16,037
616,01	16,182
616,21	15,221
616,40	19,784
616,59	19,622
616,78	15,843
616,97	17,536
617,16	18,362
617,35	18,858
617,54	18,319
617,73	18,025
617,92	18,060
618,11	19,578
618,31	15,975
618,50	19,822
618,69	18,760
618,88	18,613
619,07	16,192
619,26	17,610
619,45	18,784
619,64	16,993
619,83	16,489
620,02	16,771
620,21	20,467
620,40	19,534
620,59	16,701
620,78	15,936
620,97	17,727
621,17	17,163
621,36	16,704
621,55	18,109
621,74	17,398
621,93	19,580
622,12	18,865
622,31	16,736
622,50	17,925
622,69	22,693
622,88	18,424
623,07	19,761
623,26	19,973
623,45	22,482
623,64	17,645
623,83	19,040
624,02	19,811
624,21	20,291
624,40	19,295
624,59	16,987
624,78	21,558
624,97	21,208
625,16	17,976
625,35	18,111
625,54	18,728
625,73	18,887
625,92	19,891
626,12	21,160
626,31	21,037
626,50	19,835
626,69	19,767
626,88	18,117
627,07	20,127
627,26	19,558
627,45	18,547
627,64	19,310
627,83	19,221
628,02	19,477
628,21	18,624
628,40	18,423
628,59	20,825
628,78	17,875
628,97	17,429
629,16	16,052
629,35	20,425
629,54	22,482
629,73	18,531
629,92	17,759
630,10	19,950
630,29	21,146
630,48	19,841
630,67	18,920
630,86	20,712
631,05	18,358
631,24	21,885
631,43	17,372
631,62	20,690
631,81	20,854
632,00	18,404
632,19	16,748
632,38	19,402
632,57	20,904
632,76	18,974
632,95	20,582
633,14	22,819
633,33	22,026
633,52	20,241
633,71	20,938
633,90	17,626
634,09	21,107
634,28	19,814
634,47	20,920
634,66	20,430
634,85	21,083
635,04	22,594
635,22	19,707
635,41	19,974
635,60	22,454
635,79	22,683
635,98	18,823
636,17	20,954
636,36	20,549
636,55	20,918
636,74	18,084
636,93	19,656
637,12	21,476
637,31	19,693
637,50	20,083
637,69	22,103
637,87	21,200
638,06	20,691
638,25	20,225
638,44	22,148
638,63	18,148
638,82	19,094
639,01	21,533
639,20	20,724
639,39	20,957
639,58	18,514
639,77	21,359
639,95	18,445
640,14	21,489
640,33	19,595
640,52	20,024
640,71	22,522
640,90	21,616
641,09	22,552
641,28	20,249
641,47	22,040
641,66	22,911
641,84	22,299
642,03	19,413
642,22	19,916
642,41	24,515
642,60	21,225
642,79	21,616
642,98	22,214
643,17	21,712
643,35	19,906
643,54	21,731
643,73	21,509
643,92	20,933
644,11	21,477
644,30	20,178
644,49	23,980
644,67	20,457
644,86	18,591
645,05	21,639
645,24	20,647
645,43	21,156
645,62	20,376
645,81	22,131
645,99	24,162
646,18	21,302
646,37	20,257
646,56	20,529
646,75	22,501
646,94	24,107
647,13	21,187
647,31	21,438
647,50	21,580
647,69	24,389
647,88	21,026
648,07	21,271
648,26	25,799
648,44	21,785
648,63	20,122
648,82	20,564
649,01	23,275
649,20	20,407
649,38	19,454
649,57	21,352
649,76	20,511
649,95	22,654
650,14	19,123
650,33	20,264
650,51	20,688
650,70	22,837
650,89	21,421
651,08	20,782
651,27	22,087
651,45	22,400
651,64	20,880
651,83	21,570
652,02	21,218
652,21	22,330
652,39	22,605
652,58	23,317
652,77	22,474
652,96	22,343
653,15	20,500
653,33	20,738
653,52	21,319
653,71	23,537
653,90	22,461
654,09	21,634
654,27	21,979
654,46	23,752
654,65	20,372
654,84	22,307
655,02	24,080
655,21	22,034
655,40	23,701
655,59	22,047
655,77	23,618
655,96	21,973
656,15	22,200
656,34	23,107
656,53	22,121
656,71	23,487
656,90	21,893
657,09	23,447
657,28	23,064
657,46	22,060
657,65	21,797
657,84	21,066
658,03	22,857
658,21	22,651
658,40	21,192
658,59	20,552
658,78	22,419
658,96	22,795
659,15	23,130
659,34	22,826
659,52	21,341
659,71	23,739
659,90	20,145
660,09	21,603
660,27	21,749
660,46	24,401
660,65	20,730
660,84	20,347
661,02	22,796
661,21	23,581
661,40	22,108
661,58	22,556
661,77	22,954
661,96	20,167
662,15	20,834
662,33	20,276
662,52	20,640
662,71	22,394
662,89	20,223
663,08	21,226
663,27	21,300
663,45	20,934
663,64	21,422
663,83	20,058
664,02	20,688
664,20	22,522
664,39	20,055
664,58	20,831
664,76	21,220
664,95	20,530
665,14	21,500
665,32	20,116
665,51	21,485
665,70	22,173
665,88	22,473
666,07	19,876
666,26	22,795
666,44	23,303
666,63	17,595
666,82	20,987
667,00	22,006
667,19	20,293
667,38	21,530
667,56	21,792
667,75	21,207
667,94	22,507
668,12	20,339
668,31	21,456
668,50	21,864
668,68	22,522
668,87	19,904
669,06	21,416
669,24	22,324
669,43	20,143
669,62	20,106
669,80	20,747
669,99	20,294
670,18	22,574
670,36	20,136
670,55	20,215
670,74	20,234
670,92	18,777
671,11	21,461
671,29	19,663
671,48	20,009
671,67	21,911
671,85	22,289
672,04	18,961
672,23	19,279
672,41	21,565
672,60	20,963
672,78	19,576
672,97	20,651
673,16	21,436
673,34	20,384
673,53	18,360
673,71	20,210
673,90	22,240
674,09	20,027
674,27	20,538
674,46	21,787
674,64	20,886
674,83	20,123
675,02	20,386
675,20	22,201
675,39	19,866
675,57	20,221
675,76	18,581
675,95	21,067
676,13	21,442
676,32	21,538
676,50	20,146
676,69	18,592
676,88	20,011
677,06	18,735
677,25	20,275
677,43	22,911
677,62	20,324
677,80	21,291
677,99	19,773
678,18	22,436
678,36	23,173
678,55	19,465
678,73	21,128
678,92	22,307
679,10	20,854
679,29	19,940
679,48	19,632
679,66	18,998
679,85	18,800
680,03	19,252
680,22	19,902
680,40	20,457
680,59	20,174
680,77	21,010
680,96	20,256
681,15	20,464
681,33	22,346
681,52	19,873
681,70	21,915
681,89	22,261
682,07	22,614
682,26	20,006
682,44	19,984
682,63	22,497
682,81	21,710
683,00	22,019
683,18	19,558
683,37	22,472
683,55	20,106
683,74	20,779
683,92	26,798
684,11	21,944
684,29	22,094
684,48	20,235
684,67	21,215
684,85	21,758
685,04	22,165
685,22	21,408
685,41	21,316
685,59	22,542
685,78	21,439
685,96	21,800
686,15	21,267
686,33	20,765
686,52	21,627
686,70	20,197
686,89	22,076
687,07	21,970
687,26	22,808
687,44	22,657
687,62	20,476
687,81	22,782
687,99	21,744
688,18	20,757
688,36	21,840
688,55	22,972
688,73	23,082
688,92	20,528
689,10	22,787
689,29	23,371
689,47	23,708
689,66	22,615
689,84	21,429
690,03	25,850
690,21	21,762
690,40	22,586
690,58	20,448
690,76	20,199
690,95	22,159
691,13	20,747
691,32	22,430
691,50	23,466
691,69	23,076
691,87	21,231
692,06	21,293
692,24	21,322
692,43	21,861
692,61	20,855
692,79	21,370
692,98	21,139
693,16	24,303
693,35	21,368
693,53	22,360
693,72	22,388
693,90	24,576
694,08	20,613
694,27	21,914
694,45	24,736
694,64	25,206
694,82	20,854
695,01	22,035
695,19	22,130
695,37	22,395
695,56	21,268
695,74	23,302
695,93	25,205
696,11	22,024
696,29	22,525
696,48	23,252
696,66	24,802
696,85	22,373
697,03	21,077
697,21	23,956
697,40	23,524
697,58	23,108
697,77	23,181
697,95	22,690
698,13	25,040
698,32	23,289
698,50	21,333
698,69	21,331
698,87	24,483
699,05	23,283
699,24	22,354
699,42	23,069
699,60	20,767
699,79	22,407
699,97	21,032
700,16	20,808
700,34	26,507
700,52	21,591
700,71	22,312
700,89	22,153
701,07	21,971
701,26	23,281
701,44	22,458
701,63	20,241
701,81	22,964
701,99	23,396
702,18	20,745
702,36	21,716
702,54	23,864
702,73	22,821
702,91	20,600
703,09	20,928
703,28	21,967
703,46	25,261
703,64	23,301
703,83	22,686
704,01	23,231
704,19	22,580
704,38	21,813
704,56	22,390
704,74	25,189
704,93	23,282
705,11	21,106
705,29	22,054
705,48	28,995
705,66	23,881
705,84	23,239
706,03	19,829
706,21	22,843
706,39	22,213
706,58	22,715
706,76	22,130
706,94	24,154
707,12	23,071
707,31	20,899
707,49	20,433
707,67	22,999
707,86	24,359
708,04	22,263
708,22	22,198
708,41	22,803
708,59	22,146
708,77	19,708
708,95	23,764
709,14	26,227
709,32	24,534
709,50	20,960
709,69	20,563
709,87	22,540
710,05	24,588
710,23	22,757
710,42	21,944
710,60	23,633
710,78	25,768
710,97	20,932
711,15	23,811
711,33	23,625
711,51	22,340
711,70	20,495
711,88	23,108
712,06	24,915
712,24	25,174
712,43	23,208
712,61	22,459
712,79	21,927
712,97	22,973
713,16	22,845
713,34	22,018
713,52	24,284
713,70	23,455
713,89	21,773
714,07	23,208
714,25	23,414
714,43	26,825
714,62	20,881
714,80	22,592
714,98	20,584
715,16	21,324
715,35	21,694
715,53	23,237
715,71	23,856
715,89	23,756
716,07	23,999
716,26	26,905
716,44	23,629
716,62	24,292
716,80	22,385
716,99	22,870
717,17	23,403
717,35	22,427
717,53	22,100
717,71	19,826
717,90	23,588
718,08	22,739
718,26	19,166
718,44	23,017
718,62	24,104
718,81	23,965
718,99	21,299
719,17	20,890
719,35	24,051
719,53	21,375
719,72	21,588
719,90	22,848
720,08	22,225
720,26	25,742
720,44	20,706
720,62	21,314
720,81	24,825
720,99	24,814
721,17	20,338
721,35	24,043
721,53	24,573
721,72	24,405
721,90	22,496
722,08	22,252
722,26	26,201
722,44	23,778
722,62	22,967
722,81	21,659
722,99	23,221
723,17	23,193
723,35	23,133
723,53	23,392
723,71	24,281
723,89	26,173
724,08	19,594
724,26	22,282
724,44	22,465
724,62	21,427
724,80	22,129
724,98	23,104
725,16	25,763
725,35	22,213
725,53	21,948
725,71	21,057
725,89	22,475
726,07	27,233
726,25	25,085
726,43	20,306
726,61	23,880
726,80	23,133
726,98	23,009
727,16	22,711
727,34	23,505
727,52	23,841
727,70	22,497
727,88	21,032
728,06	21,573
728,25	21,368
728,43	22,002
728,61	23,203
728,79	23,681
728,97	23,351
729,15	22,038
729,33	21,337
729,51	23,458
729,69	25,190
729,87	22,812
730,06	22,284
730,24	22,731
730,42	23,799
730,60	20,621
730,78	24,057
730,96	22,378
731,14	23,716
731,32	21,858
731,50	22,105
731,68	22,153
731,86	25,708
732,04	25,471
732,22	21,448
732,41	27,164
732,59	23,487
732,77	24,040
732,95	23,430
733,13	23,244
733,31	25,693
733,49	20,862
733,67	24,933
733,85	24,642
734,03	24,188
734,21	21,380
734,39	23,200
734,57	24,645
734,75	24,305
734,93	20,700
735,11	23,080
735,29	20,326
735,47	25,737
735,65	21,858
735,84	20,530
736,02	25,254
736,20	27,242
736,38	22,169
736,56	20,709
736,74	23,923
736,92	23,373
737,10	22,051
737,28	23,055
737,46	23,925
737,64	22,876
737,82	22,789
738,00	23,233
738,18	23,691
738,36	23,453
738,54	22,535
738,72	22,242
738,90	23,362
739,08	24,909
739,26	20,396
739,44	24,401
739,62	26,810
739,80	23,922
739,98	21,905
740,16	21,675
740,34	24,147
740,52	25,187
740,70	23,068
740,88	21,855
741,06	23,654
741,24	24,030
741,42	23,869
741,60	21,554
741,78	25,442
741,96	23,435
742,14	22,413
742,32	19,932
742,50	23,463
742,68	22,919
742,86	22,517
743,04	21,481
743,21	24,880
743,39	23,660
743,57	22,527
743,75	22,275
743,93	21,314
744,11	20,529
744,29	21,269
744,47	22,805
744,65	22,354
744,83	22,511
745,01	22,601
745,19	23,813
745,37	28,047
745,55	25,050
745,73	23,397
745,91	21,598
746,09	22,987
746,27	23,599
746,45	19,728
746,62	23,191
746,80	21,517
746,98	23,572
747,16	24,502
747,34	22,779
747,52	24,163
747,70	23,347
747,88	22,550
748,06	21,910
748,24	23,487
748,42	25,763
748,60	22,235
748,78	22,765
748,95	27,361
749,13	27,158
749,31	21,842
749,49	22,549
749,67	23,221
749,85	25,799
750,03	22,584
750,21	22,018
750,39	24,287
750,57	24,765
750,74	24,513
750,92	22,059
751,10	24,276
751,28	20,773
751,46	22,941
751,64	22,817
751,82	24,725
752,00	24,026
752,17	23,201
752,35	21,893
752,53	23,021
752,71	23,230
752,89	22,430
753,07	21,378
753,25	24,270
753,43	21,353
753,60	25,105
753,78	22,005
753,96	26,065
754,14	23,134
754,32	23,447
754,50	24,019
754,68	23,937
754,85	23,537
755,03	23,752
755,21	22,613
755,39	26,342
755,57	23,032
755,75	22,343
755,92	22,034
756,10	23,475
756,28	23,587
756,46	20,609
756,64	23,191
756,82	25,198
756,99	21,890
757,17	22,029
757,35	21,731
757,53	26,449
757,71	26,455
757,89	21,907
758,06	22,038
758,24	25,015
758,42	22,810
758,60	22,041
758,78	23,231
758,95	24,747
759,13	24,266
759,31	21,913
759,49	21,808
759,67	23,873
759,84	24,467
760,02	23,208
760,20	23,318
760,38	23,354
760,56	23,908
760,73	24,062
760,91	23,696
761,09	24,862
761,27	23,558
761,45	23,074
761,62	22,862
761,80	24,189
761,98	22,832
762,16	22,876
762,33	24,395
762,51	24,577
762,69	22,756
762,87	22,604
763,05	22,137
763,22	21,099
763,40	21,030
763,58	21,425
763,76	22,773
763,93	26,610
764,11	25,335
764,29	23,173
764,47	24,030
764,64	24,611
764,82	26,754
765,00	21,901
765,18	18,724
765,35	24,251
765,53	22,824
765,71	22,441
765,89	23,188
766,06	23,089
766,24	23,311
766,42	21,590
766,60	21,045
766,77	22,957
766,95	23,980
767,13	24,870
767,30	22,599
767,48	23,861
767,66	22,470
767,84	22,220
768,01	22,467
768,19	23,415
768,37	22,318
768,54	23,078
768,72	24,246
768,90	23,207
769,08	24,218
769,25	23,804
769,43	22,138
769,61	21,088
769,78	24,521
769,96	22,907
770,14	23,886
770,31	27,540
770,49	26,643
770,67	23,449
770,85	21,464
771,02	23,420
771,20	21,935
771,38	25,616
771,55	22,522
771,73	22,002
771,91	23,073
772,08	25,556
772,26	23,187
772,44	24,323
772,61	23,609
772,79	22,362
772,97	22,887
773,14	21,460
773,32	23,960
773,50	21,997
773,67	23,027
773,85	24,019
774,03	27,176
774,20	24,312
774,38	22,062
774,56	23,743
774,73	21,688
774,91	22,490
775,09	24,496
775,26	25,068
775,44	27,142
775,61	24,964
775,79	21,979
775,97	26,202
776,14	21,758
776,32	21,905
776,50	23,358
776,67	24,635
776,85	24,262
777,03	18,752
777,20	22,545
777,38	25,622
777,55	25,483
777,73	19,276
777,91	20,523
778,08	26,182
778,26	23,743
778,43	25,384
778,61	20,294
778,79	20,836
778,96	21,732
779,14	23,075
779,32	23,332
779,49	23,014
779,67	25,471
779,84	24,271
780,02	22,693
780,20	21,219
780,37	26,534
780,55	17,457
780,72	24,877
780,90	24,718
781,07	24,618
781,25	24,972
781,43	25,031
781,60	23,576
781,78	23,973
781,95	24,941
782,13	25,358
782,30	26,806
782,48	25,946
782,66	23,194
782,83	21,223
783,01	31,412
783,18	25,352
783,36	22,552
783,53	26,037
783,71	22,822
783,89	25,049
784,06	22,092
784,24	24,735
784,41	28,375
784,59	22,375
784,76	24,069
784,94	24,395
785,11	25,766
785,29	22,408
785,46	23,405
785,64	23,979
785,82	24,271
785,99	28,710
786,17	24,914
786,34	23,813
786,52	24,592
786,69	26,403
786,87	24,687
787,04	24,001
787,22	22,525
787,39	27,240
787,57	26,511
787,74	23,670
787,92	25,022
788,09	27,775
788,27	21,428
788,44	23,535
788,62	25,126
788,79	24,431
788,97	25,475
789,14	24,681
789,32	23,963
789,49	21,255
789,67	25,748
789,84	23,518
790,02	24,101
790,19	25,950
790,37	23,787
790,54	26,285
790,72	30,668
790,89	27,607
791,07	24,944
791,24	22,005
791,42	24,924
791,59	26,988
791,77	21,592
791,94	21,022
792,12	22,848
792,29	26,467
792,47	24,029
792,64	28,550
792,81	28,091
792,99	24,227
793,16	25,072
793,34	26,653
793,51	21,966
793,69	29,082
793,86	23,110
794,04	22,921
794,21	28,157
794,39	19,979
794,56	23,669
794,73	25,726
794,91	31,019
795,08	25,503
795,26	23,096
795,43	23,691
795,61	27,726
795,78	26,923
795,95	25,065
796,13	22,435
796,30	26,350
796,48	21,641
796,65	23,626
796,83	23,078
797,00	28,693
797,17	21,625
797,35	24,131
797,52	24,180
797,70	31,144
797,87	27,599
798,04	22,698
798,22	27,145
798,39	26,416
798,57	26,891
798,74	24,275
798,91	22,058
799,09	25,340
799,26	29,038
799,44	24,915
799,61	21,338
799,78	26,915
799,96	26,997
800,13	23,584
800,31	22,611
800,48	27,740
800,65	27,159
800,83	23,796
801,00	22,048
801,17	25,664
801,35	28,024
801,52	24,148
801,70	25,757
801,87	26,534
802,04	27,318
802,22	20,091
802,39	26,082
802,56	31,942
802,74	27,564
802,91	24,960
803,08	20,420
803,26	29,031
803,43	30,023
803,61	24,554
803,78	27,411
803,95	26,682
804,13	26,225
804,30	24,819
804,47	27,294
804,65	28,017
804,82	25,045
804,99	24,614
805,17	28,113
805,34	31,820
805,51	31,385
805,69	22,701
805,86	23,549
806,03	31,523
806,21	27,843
806,38	25,521
806,55	28,607
806,72	29,901
806,90	28,245
807,07	22,038
807,24	22,951
807,42	25,275
807,59	26,304
807,76	21,566
807,94	24,136
808,11	29,614
808,28	29,977
808,45	27,589
808,63	29,642
808,80	27,564
808,97	28,997
809,15	22,083
809,32	29,417
809,49	23,904
809,67	28,177
809,84	25,140
810,01	29,417
810,18	34,409
810,36	28,688
810,53	27,739
810,70	22,783
810,87	25,828
811,05	26,614
811,22	26,719
811,39	23,900
811,57	30,286
811,74	31,572
811,91	24,547
812,08	25,243
812,26	26,039
812,43	24,517
812,60	29,606
812,77	24,816
812,95	30,140
813,12	29,204
813,29	25,200
813,46	27,317
813,64	30,175
813,81	27,781
813,98	23,398
814,15	28,786
814,32	32,281
814,50	29,947
814,67	27,126
814,84	24,641
815,01	28,644
815,19	20,450
815,36	18,072
815,53	24,713
815,70	27,843
815,87	30,146
816,05	22,444
816,22	28,594
816,39	33,739
816,56	34,255
816,74	28,317
816,91	24,196
817,08	31,403
817,25	28,635
817,42	28,303
817,60	28,672
817,77	30,934
817,94	26,436
818,11	27,384
818,28	26,429
818,45	25,980
818,63	27,866
818,80	22,798
818,97	26,890
819,14	35,028
819,31	34,926
819,49	29,236
819,66	23,497
819,83	27,212
820,00	32,038
820,17	26,296
820,34	31,319
820,52	35,111
820,69	32,022
820,86	22,671
821,03	31,115
821,20	27,159
821,37	30,615
821,55	18,048
821,72	28,230
821,89	28,645
822,06	32,371
822,23	20,546
822,40	27,346
822,57	26,074
822,75	32,394
822,92	20,929
823,09	29,376
823,26	35,416
823,43	35,497
823,60	24,973
823,77	28,128
823,94	29,466
824,12	36,346
824,29	23,706
824,46	24,114
824,63	40,069
824,80	33,551
824,97	27,582
825,14	27,801
825,31	32,196
825,49	25,522
825,66	21,350
825,83	21,174
826,00	31,180
826,17	39,235
826,34	28,112
826,51	26,498
826,68	26,645
826,85	31,262
827,02	24,661
827,20	20,929
827,37	28,325
827,54	30,191
827,71	24,456
827,88	27,436
828,05	34,137
828,22	30,937
828,39	31,755
828,56	31,191
828,73	32,820
828,90	32,493
829,07	22,911
829,25	30,381
829,42	30,955
829,59	22,021
829,76	30,219
829,93	18,538
830,10	36,536
830,27	28,984
830,44	27,251
830,61	23,447
830,78	29,231
830,95	30,736
831,12	27,051
831,29	27,139
831,46	24,194
831,63	23,263
831,80	29,785
831,97	24,807
832,14	35,921
832,31	44,241
832,48	24,114
832,65	28,261
832,83	23,430
833,00	36,225
833,17	28,724
833,34	27,512
833,51	39,928
833,68	38,128
833,85	34,831
834,02	24,196
834,19	31,320
834,36	36,582
834,53	19,548
834,70	32,676
834,87	38,499
835,04	31,914
835,21	23,870
835,38	22,123
835,55	28,707
835,72	41,493
835,89	25,655
836,06	24,781
836,23	45,864
836,40	23,612
836,57	23,439
836,74	32,652
836,91	32,558
837,08	36,263
837,25	27,215
837,42	21,018
837,59	24,357
837,76	35,333
837,93	33,691
838,09	23,986
838,26	37,582
838,43	43,992
838,60	28,811
838,77	25,127
838,94	39,251
839,11	26,129
839,28	22,681
839,45	25,901
839,62	30,122
839,79	27,493
839,96	32,705
840,13	41,133
840,30	31,694
840,47	24,362
840,64	31,133
840,81	29,567
840,98	27,836
841,15	38,721
841,32	19,913
841,48	41,154
841,65	38,295
841,82	33,749
841,99	32,558
842,16	28,246
842,33	34,786
842,50	34,979
842,67	28,385
842,84	25,515
843,01	38,266
843,18	36,639
843,35	26,208
843,52	21,912
843,68	39,475
843,85	33,806
844,02	28,392
844,19	23,204
844,36	41,193
844,53	51,643
844,70	30,086
844,87	39,619
845,04	37,361
845,21	30,685
845,37	31,808
845,54	31,880
845,71	32,390
845,88	55,383
846,05	26,669
846,22	27,094
846,39	35,216
846,56	43,052
846,72	21,461
846,89	27,249
847,06	56,917
847,23	43,671
847,40	24,307
847,57	20,286
847,74	27,540
847,90	43,883
848,07	37,495
848,24	33,833
848,41	31,681
848,58	40,138
848,75	26,800
848,92	25,985
849,08	23,809
849,25	30,992
849,42	16,935
849,59	23,103
849,76	29,256
849,93	34,813
850,09	38,467
850,26	19,543
850,43	52,719
850,60	30,438
850,77	30,541
850,94	30,290
851,10	49,452
851,27	43,459
851,44	14,009
851,61	30,596
851,78	41,835
851,95	42,393
852,11	15,948
852,28	23,096
852,45	47,557
852,62	34,697
852,79	26,763
852,95	31,123
853,12	44,319
853,29	39,172
853,46	32,442
853,63	35,701
853,79	29,659
853,96	37,684
854,13	35,112
854,30	19,533
854,46	57,263
854,63	41,723
854,80	27,177
854,97	27,584
855,14	57,865
855,30	44,348
855,47	25,309
855,64	39,083
855,81	30,392
855,97	55,166
856,14	33,075
856,31	27,689
856,48	48,354
856,65	57,510
856,81	25,613
856,98	22,708
857,15	12,248
857,32	42,773
857,48	27,341
857,65	42,859
857,82	37,780
857,99	42,999
858,15	35,004
858,32	27,839
858,49	33,942
858,65	65,476
858,82	50,511
858,99	36,750
859,16	63,967
859,32	47,470
859,49	25,437
859,66	35,427
859,83	41,976
859,99	40,226
860,16	33,197
860,33	36,337
860,49	55,781
860,66	40,147
860,83	40,501
861,00	45,145
861,16	60,784
861,33	50,392
861,50	23,577
861,66	30,855
861,83	49,993
862,00	37,509
862,16	38,273
862,33	19,786
862,50	80,389
862,67	54,042
862,83	39,387
863,00	49,482
863,17	66,230
863,33	45,965
863,50	9,456
863,67	26,515
863,83	58,004
864,00	67,267
864,17	10,575
864,33	30,313
864,50	49,911
864,67	35,926
864,83	27,595
865,00	29,797
865,17	35,650
865,33	68,256
865,50	21,154
865,67	22,335
865,83	57,289
866,00	74,794
866,17	49,451
866,33	42,560
866,50	65,476
866,66	50,256
866,83	23,624
867,00	65,224
867,16	48,954
867,33	78,867
867,50	34,575
867,66	27,401
867,83	42,288
868,00	60,798
868,16	29,330
868,33	29,512
868,49	36,564
868,66	70,455
868,83	36,153
868,99	35,599
869,16	72,873
869,32	72,633
869,49	42,452
869,66	8,398
869,82	76,956
869,99	84,518
870,15	5,627
870,32	55,510
870,49	81,412
870,65	100,358
870,82	53,610
870,98	54,082
871,15	103,731
871,32	44,037
871,48	-5,424
871,65	28,032
871,81	64,535
871,98	29,465
872,15	31,522
872,31	31,369
872,48	86,084
872,64	68,891
872,81	30,637
872,97	67,538
873,14	80,840
873,31	76,645
873,47	69,626
873,64	66,872
873,80	74,381
873,97	81,042
874,13	23,240
874,30	50,231
874,46	90,404
874,63	66,547
874,80	42,112
874,96	-7,638
875,13	113,765
875,29	50,810
875,46	65,578
875,62	26,990
875,79	97,919
875,95	88,207
876,12	19,714
876,28	-2,038
876,45	135,283
876,61	60,309
876,78	32,973
876,94	31,529
877,11	69,322
877,27	87,254
877,44	24,958
877,60	25,285
877,77	56,689
877,94	107,030
878,10	36,951
878,27	76,167
878,43	143,490
878,60	46,058
878,76	22,306
878,93	28,522
879,09	111,610
879,26	132,054
879,42	82,735
879,58	24,089
879,75	89,163
879,91	104,446
880,08	-11,023
880,24	45,644
880,41	70,661
880,57	64,331
880,74	8,935
880,90	76,985
881,07	75,696
881,23	112,926
881,40	54,269
881,56	63,542
881,73	93,479
881,89	92,106
882,06	-44,869
882,22	216,537
882,38	170,085
882,55	136,879
882,71	17,716
882,88	51,388
883,04	80,292
883,21	136,632
883,37	77,615
883,54	92,792
883,70	272,597
883,86	118,254
884,03	56,585
884,19	23,462
884,36	93,168
884,52	181,229
884,69	95,671
884,85	54,793
885,01	259,880
885,18	87,254
885,34	100,692
885,51	-15,313
885,67	66,114
>>>>> Data<<<<< Espectral Procesado Extremo
