Fichero De Datos De SpectraSuite
++++++++++++++++++++++++++++++++++++
Fecha: Wed Apr 22 13:20:40 CEST 2009
Usuario: evoflor
Presente Oscuro Del Espectro: Sí
La Referencia de Presente Del Espectro De: Sí
Muestreados de los componentes de Número de espectros: 1
Espectrómetros: USB4F02353
Tiempo de integración (usec): 500000 (USB4F02353)
Promedio de Espectros Hechos un: 5 (USB4F02353)
El Alisar Del Furgón: 0 (USB4F02353)
Párrafo de de Corregir del la del del de Eléctrica del obscuridad: Sí (USB4F02353)
Estrobo/Lámpara Permitido: No (USB4F02353)
Correct for Detector Non-linearity: No (USB4F02353)
Párrafo de de Corregir del la del del de Externa del luz: No (USB4F02353)
Procesado del espectro de Número de pixeles en: 3648
>>>>> Comienza Data<<<<< Espectral Procesado Del EL
177,79	284,337
178,00	284,337
178,22	284,337
178,44	1300,275
178,66	-457,095
178,88	511,482
179,09	-82,447
179,31	293,522
179,53	745,433
179,75	421,611
179,96	1059,267
180,18	-364,231
180,40	399,920
180,62	323,541
180,83	-585,640
181,05	-2453,354
181,27	-135475,000
181,49	137,880
181,70	382,596
181,92	875,000
182,14	380,949
182,36	107,505
182,58	-193,750
182,79	1151,228
183,01	-121,235
183,23	205,007
183,45	-173,154
183,66	-348,562
183,88	611,618
184,10	-3379,545
184,32	355,384
184,53	165,860
184,75	-128,041
184,97	-14,010
185,18	-151,457
185,40	-638,341
185,62	174,056
185,84	120,906
186,05	96,622
186,27	-171,486
186,49	-85,577
186,71	93,760
186,92	89,813
187,14	-282,097
187,36	148,963
187,58	125,642
187,79	-67,743
188,01	267,813
188,23	-469,247
188,45	-13,786
188,66	203,013
188,88	-3477,727
189,10	-1849,750
189,31	-71,459
189,53	36,998
189,75	604,489
189,97	275,288
190,18	63,841
190,40	352,206
190,62	-189,358
190,83	-289,835
191,05	268,323
191,27	129,929
191,49	350,928
191,70	-750,841
191,92	-736,229
192,14	-32,393
192,35	786,671
192,57	5773,571
192,79	-79,925
193,01	130,748
193,22	105,881
193,44	-324,872
193,66	134,656
193,87	160,974
194,09	-12,269
194,31	181,627
194,53	815,210
194,74	161,895
194,96	38,587
195,18	170,596
195,39	-704,156
195,61	-154,014
195,83	-278,859
196,04	142,327
196,26	-47,613
196,48	-0,592
196,70	405,318
196,91	85,802
197,13	299,684
197,35	84,275
197,56	1007,353
197,78	2421,455
198,00	708,217
198,21	539,684
198,43	-1232,413
198,65	137,984
198,86	671,853
199,08	81,230
199,30	272,419
199,51	-473,534
199,73	340,906
199,95	272,958
200,16	714,904
200,38	372,895
200,60	238,195
200,81	309,368
201,03	-40,285
201,25	-1993,750
201,46	177,829
201,68	92,059
201,90	3344,886
202,11	-482,729
202,33	131,732
202,55	1187,187
202,76	-51,001
202,98	283,885
203,20	32,332
203,41	-263,026
203,63	164,768
203,85	-165175,000
204,06	67,923
204,28	-77,048
204,50	160,268
204,71	279,108
204,93	18,200
205,15	294,202
205,36	-119,646
205,58	213,388
205,80	-173,122
206,01	66,108
206,23	195,796
206,45	270,542
206,66	245,778
206,88	29,454
207,10	168,807
207,31	478,642
207,53	181,357
207,75	121,142
207,96	1239,366
208,18	-393,985
208,39	126,462
208,61	2970,714
208,83	-495,555
209,04	243,844
209,26	-603,571
209,48	233,549
209,69	298,347
209,91	950,253
210,13	-11,657
210,34	114,467
210,56	236,762
210,77	-1747,047
210,99	99,677
211,21	6063,235
211,42	-159,672
211,64	-56,229
211,86	237,930
212,07	234,790
212,29	272,587
212,50	135,359
212,72	143,750
212,94	39,032
213,15	158,636
213,37	170,410
213,58	-212,583
213,80	-3231,250
214,02	15433,824
214,23	413,093
214,45	320,246
214,67	-1827,744
214,88	-255,285
215,10	-376,364
215,31	71,779
215,53	93,125
215,75	320,130
215,96	2020,963
216,18	-436,972
216,39	301,078
216,61	566,976
216,83	568,638
217,04	2745,787
217,26	8,024
217,47	153,740
217,69	321,885
217,91	12,693
218,12	-79675,000
218,34	90,338
218,55	342,639
218,77	69,725
218,99	139,354
219,20	-112,533
219,42	395,846
219,63	68,070
219,85	-80,548
220,06	-309,712
220,28	222,691
220,50	34,735
220,71	55,579
220,93	3252,358
221,14	-2182,750
221,36	-78,346
221,58	-40,136
221,79	118,826
222,01	989,440
222,22	861,678
222,44	-75,562
222,65	137,554
222,87	425,000
223,09	179,955
223,30	156,017
223,52	270,024
223,73	73,915
223,95	119,824
224,16	203,247
224,38	370,083
224,60	100,447
224,81	195,302
225,03	163,078
225,24	173,316
225,46	105,440
225,67	46,559
225,89	113,711
226,10	429,744
226,32	428,600
226,54	-17,273
226,75	-54,157
226,97	214,501
227,18	221,078
227,40	82,496
227,61	61,103
227,83	55,832
228,04	134,087
228,26	91,288
228,47	59,165
228,69	284,613
228,91	139,896
229,12	44,243
229,34	57,497
229,55	99,860
229,77	51,750
229,98	-11,886
230,20	63,562
230,41	80,725
230,63	106,656
230,84	93,648
231,06	22,310
231,27	41,755
231,49	50,793
231,71	34,585
231,92	25,725
232,14	36,211
232,35	67,680
232,57	78,067
232,78	11,206
233,00	58,337
233,21	63,267
233,43	10,943
233,64	30,315
233,86	36,992
234,07	39,721
234,29	24,309
234,50	13,912
234,72	47,090
234,93	29,273
235,15	23,651
235,36	17,971
235,58	39,251
235,79	49,923
236,01	14,306
236,22	27,725
236,44	44,674
236,65	30,748
236,87	30,738
237,08	1,361
237,30	-0,438
237,51	29,660
237,73	-4,710
237,94	9,818
238,16	19,099
238,37	11,689
238,59	0,878
238,80	15,376
239,02	10,118
239,23	23,425
239,45	6,415
239,66	26,265
239,88	39,603
240,09	19,504
240,31	0,377
240,52	12,696
240,74	14,762
240,95	17,421
241,17	1,586
241,38	12,203
241,60	15,611
241,81	31,923
242,03	7,371
242,24	15,503
242,46	21,825
242,67	2,710
242,89	6,856
243,10	23,553
243,32	16,002
243,53	17,283
243,75	5,550
243,96	15,122
244,18	21,219
244,39	18,822
244,60	9,772
244,82	2,017
245,03	25,369
245,25	16,694
245,46	22,967
245,68	4,061
245,89	23,892
246,11	15,550
246,32	9,115
246,54	5,699
246,75	17,186
246,97	19,272
247,18	21,328
247,39	6,604
247,61	13,257
247,82	14,877
248,04	5,956
248,25	11,530
248,47	10,976
248,68	16,513
248,90	2,705
249,11	10,060
249,33	14,964
249,54	8,121
249,75	10,446
249,97	-3,637
250,18	15,340
250,40	19,769
250,61	-6,881
250,83	4,820
251,04	8,677
251,25	15,788
251,47	2,341
251,68	11,790
251,90	12,319
252,11	12,299
252,33	5,951
252,54	4,096
252,76	5,831
252,97	1,263
253,18	3,379
253,40	6,416
253,61	3,493
253,83	9,213
254,04	13,394
254,25	6,763
254,47	6,175
254,68	9,291
254,90	5,350
255,11	9,040
255,33	6,554
255,54	4,295
255,75	6,064
255,97	5,515
256,18	4,559
256,40	8,584
256,61	8,907
256,82	-2,588
257,04	13,136
257,25	4,205
257,47	7,183
257,68	4,270
257,89	9,663
258,11	11,928
258,32	6,001
258,54	5,133
258,75	13,923
258,96	12,121
259,18	5,992
259,39	3,588
259,61	10,962
259,82	6,903
260,03	5,332
260,25	6,861
260,46	5,215
260,68	3,567
260,89	4,501
261,10	4,273
261,32	4,941
261,53	9,662
261,75	7,532
261,96	1,394
262,17	11,788
262,39	11,760
262,60	2,056
262,81	2,098
263,03	12,088
263,24	8,054
263,46	-0,757
263,67	2,736
263,88	4,354
264,10	7,529
264,31	1,515
264,52	8,953
264,74	11,361
264,95	7,380
265,17	6,145
265,38	4,196
265,59	12,981
265,81	12,552
266,02	-1,413
266,23	1,785
266,45	12,083
266,66	12,734
266,87	9,517
267,09	2,090
267,30	15,046
267,52	9,743
267,73	3,574
267,94	5,113
268,16	10,057
268,37	6,173
268,58	7,033
268,80	1,807
269,01	6,027
269,22	8,396
269,44	6,310
269,65	7,300
269,86	4,621
270,08	4,910
270,29	2,215
270,50	3,828
270,72	8,363
270,93	2,704
271,14	0,458
271,36	5,155
271,57	9,447
271,78	5,716
272,00	8,672
272,21	6,599
272,42	8,879
272,64	10,182
272,85	3,319
273,06	3,007
273,28	8,274
273,49	9,312
273,70	10,367
273,92	7,611
274,13	6,808
274,34	7,040
274,56	10,462
274,77	1,763
274,98	11,002
275,20	9,502
275,41	9,200
275,62	3,911
275,84	8,229
276,05	11,374
276,26	2,170
276,47	2,353
276,69	11,471
276,90	8,251
277,11	4,853
277,33	3,799
277,54	10,287
277,75	7,026
277,97	2,728
278,18	3,111
278,39	10,911
278,61	6,653
278,82	2,950
279,03	7,151
279,24	5,330
279,46	6,833
279,67	7,924
279,88	3,046
280,10	10,721
280,31	4,519
280,52	5,390
280,73	1,830
280,95	10,340
281,16	10,691
281,37	5,828
281,59	8,647
281,80	13,533
282,01	5,242
282,22	5,344
282,44	-0,458
282,65	9,830
282,86	7,628
283,08	6,314
283,29	7,210
283,50	4,951
283,71	7,749
283,93	8,199
284,14	8,832
284,35	0,805
284,56	7,140
284,78	2,371
284,99	5,870
285,20	10,117
285,42	6,154
285,63	3,610
285,84	1,832
286,05	4,215
286,27	7,426
286,48	2,752
286,69	4,517
286,90	6,204
287,12	6,179
287,33	1,232
287,54	3,804
287,75	8,192
287,97	5,423
288,18	4,052
288,39	2,533
288,60	7,802
288,82	4,272
289,03	3,956
289,24	4,621
289,45	10,064
289,67	4,975
289,88	3,480
290,09	7,470
290,30	6,515
290,52	3,265
290,73	3,514
290,94	2,873
291,15	5,966
291,37	6,957
291,58	4,494
291,79	7,060
292,00	5,050
292,21	6,117
292,43	3,824
292,64	3,286
292,85	5,103
293,06	7,155
293,28	2,406
293,49	3,577
293,70	8,467
293,91	6,475
294,12	5,566
294,34	6,440
294,55	5,747
294,76	5,147
294,97	5,218
295,19	2,564
295,40	4,569
295,61	5,966
295,82	3,003
296,03	6,952
296,25	6,573
296,46	5,663
296,67	0,038
296,88	0,013
297,09	6,868
297,31	5,170
297,52	5,744
297,73	2,149
297,94	7,692
298,15	7,841
298,37	4,162
298,58	7,850
298,79	6,624
299,00	4,450
299,21	1,047
299,43	3,052
299,64	10,900
299,85	4,618
300,06	3,244
300,27	4,278
300,49	9,552
300,70	5,139
300,91	4,302
301,12	3,095
301,33	7,315
301,54	2,570
301,76	5,749
301,97	4,905
302,18	4,615
302,39	6,074
302,60	11,813
302,82	5,490
303,03	8,975
303,24	7,089
303,45	6,792
303,66	4,877
303,87	2,461
304,09	6,710
304,30	1,763
304,51	6,015
304,72	1,937
304,93	8,063
305,14	5,232
305,36	2,867
305,57	2,173
305,78	8,755
305,99	5,253
306,20	4,598
306,41	4,358
306,62	2,451
306,84	3,525
307,05	2,656
307,26	4,676
307,47	8,901
307,68	6,184
307,89	5,483
308,11	5,342
308,32	4,647
308,53	4,959
308,74	1,687
308,95	6,980
309,16	9,813
309,37	6,498
309,59	2,196
309,80	7,163
310,01	7,538
310,22	3,993
310,43	2,180
310,64	6,458
310,85	6,461
311,06	4,934
311,28	3,648
311,49	6,646
311,70	10,168
311,91	4,365
312,12	2,358
312,33	4,769
312,54	5,525
312,75	3,223
312,97	2,956
313,18	6,258
313,39	3,251
313,60	3,947
313,81	5,927
314,02	6,492
314,23	7,522
314,44	3,892
314,65	4,267
314,87	4,853
315,08	3,335
315,29	8,114
315,50	3,548
315,71	9,008
315,92	11,184
316,13	5,139
316,34	5,397
316,55	7,100
316,77	0,392
316,98	3,045
317,19	5,064
317,40	7,649
317,61	12,231
317,82	3,032
318,03	1,572
318,24	4,723
318,45	9,139
318,66	6,744
318,87	3,629
319,09	5,640
319,30	7,530
319,51	7,337
319,72	5,660
319,93	7,520
320,14	6,897
320,35	6,730
320,56	3,365
320,77	2,366
320,98	10,902
321,19	5,212
321,40	4,360
321,62	7,064
321,83	6,044
322,04	5,496
322,25	1,652
322,46	8,917
322,67	7,820
322,88	4,859
323,09	2,330
323,30	9,303
323,51	7,443
323,72	6,920
323,93	2,615
324,14	6,479
324,35	1,929
324,56	1,682
324,77	2,386
324,99	5,279
325,20	-0,290
325,41	5,637
325,62	5,892
325,83	3,124
326,04	5,506
326,25	5,253
326,46	1,751
326,67	5,967
326,88	7,593
327,09	3,534
327,30	4,129
327,51	5,895
327,72	8,805
327,93	6,464
328,14	2,381
328,35	3,868
328,56	6,166
328,77	5,038
328,98	5,665
329,19	5,174
329,40	8,016
329,61	3,971
329,82	2,853
330,04	4,258
330,25	5,375
330,46	3,398
330,67	2,316
330,88	4,710
331,09	6,315
331,30	4,709
331,51	5,996
331,72	6,180
331,93	6,716
332,14	3,305
332,35	7,033
332,56	4,007
332,77	8,481
332,98	1,327
333,19	2,458
333,40	3,716
333,61	4,460
333,82	6,404
334,03	6,686
334,24	9,386
334,45	7,441
334,66	7,338
334,87	6,244
335,08	1,763
335,29	2,532
335,50	1,647
335,71	2,583
335,92	4,220
336,13	10,567
336,34	4,766
336,55	5,104
336,76	6,806
336,97	6,759
337,18	2,888
337,39	4,063
337,60	6,642
337,81	5,968
338,02	4,916
338,23	4,427
338,44	6,973
338,65	5,334
338,86	7,385
339,07	3,261
339,28	9,260
339,49	4,097
339,70	4,632
339,91	3,522
340,11	11,108
340,32	2,565
340,53	2,265
340,74	0,495
340,95	4,605
341,16	5,702
341,37	5,991
341,58	2,699
341,79	4,684
342,00	6,448
342,21	5,784
342,42	4,940
342,63	8,952
342,84	3,270
343,05	7,336
343,26	5,057
343,47	6,819
343,68	6,896
343,89	7,142
344,10	6,799
344,31	8,907
344,52	6,644
344,73	2,426
344,94	4,675
345,14	6,577
345,35	6,147
345,56	6,838
345,77	6,328
345,98	4,486
346,19	6,196
346,40	7,005
346,61	3,832
346,82	6,042
347,03	5,786
347,24	6,184
347,45	3,823
347,66	13,315
347,87	4,867
348,08	7,516
348,28	0,329
348,49	6,037
348,70	7,256
348,91	4,307
349,12	2,725
349,33	19,806
349,54	5,902
349,75	6,485
349,96	4,493
350,17	6,819
350,38	3,202
350,59	7,374
350,80	4,231
351,00	6,237
351,21	10,119
351,42	6,066
351,63	4,607
351,84	9,674
352,05	8,242
352,26	2,901
352,47	5,008
352,68	8,902
352,89	8,104
353,09	8,866
353,30	4,199
353,51	5,588
353,72	8,773
353,93	8,929
354,14	3,622
354,35	6,236
354,56	9,528
354,77	5,545
354,98	2,139
355,18	7,362
355,39	8,488
355,60	3,941
355,81	6,675
356,02	7,597
356,23	7,779
356,44	7,752
356,65	11,021
356,85	11,682
357,06	9,426
357,27	8,092
357,48	0,496
357,69	5,851
357,90	6,964
358,11	1,931
358,32	4,879
358,52	10,935
358,73	5,422
358,94	5,163
359,15	8,921
359,36	9,551
359,57	7,358
359,78	10,881
359,98	5,870
360,19	4,624
360,40	7,683
360,61	10,622
360,82	2,678
361,03	14,116
361,24	12,586
361,44	5,915
361,65	6,374
361,86	8,122
362,07	8,132
362,28	5,285
362,49	6,101
362,70	9,761
362,90	9,070
363,11	4,258
363,32	4,238
363,53	7,992
363,74	11,390
363,95	10,025
364,15	6,734
364,36	11,120
364,57	6,470
364,78	7,505
364,99	7,282
365,20	9,942
365,40	12,498
365,61	4,122
365,82	11,351
366,03	6,749
366,24	8,778
366,45	7,413
366,65	6,133
366,86	8,697
367,07	11,907
367,28	7,266
367,49	7,142
367,69	10,610
367,90	7,471
368,11	6,231
368,32	4,737
368,53	11,081
368,73	8,694
368,94	5,717
369,15	8,736
369,36	12,262
369,57	10,305
369,78	5,793
369,98	9,570
370,19	16,131
370,40	6,636
370,61	8,189
370,82	9,196
371,02	10,458
371,23	11,687
371,44	7,593
371,65	10,538
371,85	12,153
372,06	10,079
372,27	9,684
372,48	7,718
372,69	8,681
372,89	9,467
373,10	9,466
373,31	9,661
373,52	13,634
373,73	14,820
373,93	9,363
374,14	8,535
374,35	9,998
374,56	11,608
374,76	7,671
374,97	7,497
375,18	13,279
375,39	11,681
375,60	14,566
375,80	9,532
376,01	8,519
376,22	12,180
376,43	9,578
376,63	11,574
376,84	8,582
377,05	12,791
377,26	11,754
377,46	9,214
377,67	8,805
377,88	10,977
378,09	10,507
378,29	5,578
378,50	13,213
378,71	14,879
378,92	7,500
379,12	12,214
379,33	12,375
379,54	8,641
379,75	14,603
379,95	9,088
380,16	12,754
380,37	12,900
380,58	12,068
380,78	13,471
380,99	11,220
381,20	10,456
381,41	11,909
381,61	14,007
381,82	10,576
382,03	13,355
382,24	12,001
382,44	13,859
382,65	13,095
382,86	15,265
383,06	12,017
383,27	10,947
383,48	10,672
383,69	12,334
383,89	13,843
384,10	13,697
384,31	14,985
384,51	15,367
384,72	12,736
384,93	8,765
385,14	12,262
385,34	16,444
385,55	11,245
385,76	10,836
385,96	19,950
386,17	15,497
386,38	16,240
386,59	17,634
386,79	12,973
387,00	19,313
387,21	17,976
387,41	16,040
387,62	14,057
387,83	17,736
388,03	14,854
388,24	11,277
388,45	15,126
388,66	15,721
388,86	17,032
389,07	13,419
389,28	20,822
389,48	15,390
389,69	16,064
389,90	16,963
390,10	15,740
390,31	22,722
390,52	10,705
390,72	13,460
390,93	16,061
391,14	16,111
391,34	14,623
391,55	16,906
391,76	20,407
391,96	16,668
392,17	16,130
392,38	17,574
392,58	18,929
392,79	15,890
393,00	16,474
393,20	14,622
393,41	15,413
393,62	19,278
393,82	17,244
394,03	15,672
394,24	17,736
394,44	17,890
394,65	19,906
394,86	16,679
395,06	20,635
395,27	14,496
395,48	17,118
395,68	16,149
395,89	18,704
396,10	17,860
396,30	19,112
396,51	12,930
396,72	19,566
396,92	17,933
397,13	19,271
397,34	16,974
397,54	19,931
397,75	14,533
397,95	16,348
398,16	19,921
398,37	20,575
398,57	16,685
398,78	17,636
398,99	22,218
399,19	23,617
399,40	21,685
399,60	18,158
399,81	19,676
400,02	22,121
400,22	20,367
400,43	18,577
400,64	21,157
400,84	19,622
401,05	22,157
401,25	22,462
401,46	23,620
401,67	21,679
401,87	20,795
402,08	16,679
402,29	19,739
402,49	24,867
402,70	22,787
402,90	18,794
403,11	18,527
403,32	21,027
403,52	18,578
403,73	23,090
403,93	22,673
404,14	25,479
404,35	22,402
404,55	17,153
404,76	21,164
404,96	22,911
405,17	27,279
405,38	24,426
405,58	21,004
405,79	27,460
405,99	23,678
406,20	20,888
406,40	17,250
406,61	25,745
406,82	24,276
407,02	23,373
407,23	20,651
407,43	25,819
407,64	19,159
407,85	20,388
408,05	19,795
408,26	31,950
408,46	27,499
408,67	17,556
408,87	22,329
409,08	26,226
409,29	26,358
409,49	25,273
409,70	20,357
409,90	25,411
410,11	24,051
410,31	26,536
410,52	21,749
410,72	22,262
410,93	30,054
411,14	22,688
411,34	19,632
411,55	24,449
411,75	25,497
411,96	23,075
412,16	25,525
412,37	20,216
412,57	26,486
412,78	24,412
412,99	23,133
413,19	27,722
413,40	26,459
413,60	18,568
413,81	22,629
414,01	24,174
414,22	23,515
414,42	19,561
414,63	20,104
414,83	26,951
415,04	26,138
415,24	23,274
415,45	26,444
415,65	23,755
415,86	22,729
416,07	26,307
416,27	28,012
416,48	25,447
416,68	25,253
416,89	18,788
417,09	26,124
417,30	27,656
417,50	22,169
417,71	28,415
417,91	25,625
418,12	26,266
418,32	26,460
418,53	23,752
418,73	23,642
418,94	24,801
419,14	28,171
419,35	22,826
419,55	24,680
419,76	27,209
419,96	23,712
420,17	19,412
420,37	23,735
420,58	24,868
420,78	26,357
420,99	24,388
421,19	26,281
421,40	25,408
421,60	29,373
421,81	22,912
422,01	24,920
422,22	23,138
422,42	26,137
422,63	23,710
422,83	26,344
423,04	30,123
423,24	30,569
423,45	20,781
423,65	28,374
423,86	31,576
424,06	28,846
424,27	24,629
424,47	23,250
424,67	23,109
424,88	28,001
425,08	28,929
425,29	29,039
425,49	26,523
425,70	22,599
425,90	24,011
426,11	25,225
426,31	27,371
426,52	28,750
426,72	23,561
426,93	24,166
427,13	31,462
427,33	24,216
427,54	27,057
427,74	27,862
427,95	31,380
428,15	21,113
428,36	26,136
428,56	26,118
428,77	28,282
428,97	29,657
429,18	25,769
429,38	23,521
429,58	31,524
429,79	28,815
429,99	24,319
430,20	19,701
430,40	28,782
430,61	24,039
430,81	22,672
431,01	27,279
431,22	27,314
431,42	30,670
431,63	22,532
431,83	25,141
432,04	25,214
432,24	29,971
432,44	22,607
432,65	24,161
432,85	25,053
433,06	26,032
433,26	23,247
433,47	24,229
433,67	21,557
433,87	23,924
434,08	21,098
434,28	22,349
434,49	24,993
434,69	28,938
434,89	20,508
435,10	23,174
435,30	29,544
435,51	23,853
435,71	24,881
435,91	22,030
436,12	25,042
436,32	21,384
436,53	30,098
436,73	25,002
436,93	27,036
437,14	25,603
437,34	23,072
437,55	25,156
437,75	26,440
437,95	30,664
438,16	23,916
438,36	24,983
438,57	22,797
438,77	23,658
438,97	26,237
439,18	30,427
439,38	26,268
439,58	26,164
439,79	23,623
439,99	19,927
440,20	30,339
440,40	24,065
440,60	22,356
440,81	28,135
441,01	28,767
441,21	29,738
441,42	25,481
441,62	29,888
441,83	26,543
442,03	26,678
442,23	27,093
442,44	24,213
442,64	27,076
442,84	20,507
443,05	24,099
443,25	26,725
443,45	27,642
443,66	28,172
443,86	22,983
444,06	24,627
444,27	27,644
444,47	27,444
444,67	23,008
444,88	30,396
445,08	26,899
445,28	28,035
445,49	21,329
445,69	23,091
445,90	28,019
446,10	30,454
446,30	25,098
446,51	30,401
446,71	30,245
446,91	33,366
447,12	28,355
447,32	23,452
447,52	29,251
447,72	29,450
447,93	27,580
448,13	21,598
448,33	32,059
448,54	30,672
448,74	20,353
448,94	26,443
449,15	33,559
449,35	34,813
449,55	24,853
449,76	32,543
449,96	28,393
450,16	28,909
450,37	27,151
450,57	29,166
450,77	22,430
450,98	27,423
451,18	28,818
451,38	29,736
451,58	32,438
451,79	27,558
451,99	27,776
452,19	32,592
452,40	30,532
452,60	25,653
452,80	25,838
453,00	29,501
453,21	31,184
453,41	33,588
453,61	28,824
453,82	32,674
454,02	24,952
454,22	35,610
454,42	29,055
454,63	27,280
454,83	27,682
455,03	32,622
455,24	28,073
455,44	28,604
455,64	27,086
455,84	28,413
456,05	21,842
456,25	27,043
456,45	26,153
456,65	26,635
456,86	28,490
457,06	29,856
457,26	30,927
457,47	37,694
457,67	31,358
457,87	29,069
458,07	27,877
458,28	31,690
458,48	34,241
458,68	20,183
458,88	33,953
459,09	28,501
459,29	29,659
459,49	26,524
459,69	29,857
459,90	34,586
460,10	28,030
460,30	30,641
460,50	28,806
460,71	29,275
460,91	24,003
461,11	30,672
461,31	26,445
461,52	32,267
461,72	26,193
461,92	25,798
462,12	37,464
462,32	25,506
462,53	29,961
462,73	26,710
462,93	32,438
463,13	33,342
463,34	25,663
463,54	27,672
463,74	33,097
463,94	26,888
464,14	31,451
464,35	23,255
464,55	33,474
464,75	30,853
464,95	29,429
465,16	26,136
465,36	31,071
465,56	26,021
465,76	28,959
465,96	28,706
466,17	32,390
466,37	29,295
466,57	29,798
466,77	26,512
466,97	27,696
467,18	32,193
467,38	32,433
467,58	33,454
467,78	36,664
467,98	29,638
468,19	31,602
468,39	33,304
468,59	34,138
468,79	30,372
468,99	29,295
469,19	25,702
469,40	30,849
469,60	31,235
469,80	27,595
470,00	31,185
470,20	33,581
470,41	32,000
470,61	32,419
470,81	31,783
471,01	27,037
471,21	33,167
471,41	27,358
471,62	30,124
471,82	26,718
472,02	23,982
472,22	29,147
472,42	31,775
472,62	31,628
472,83	30,409
473,03	30,680
473,23	31,836
473,43	33,431
473,63	31,229
473,83	29,208
474,03	29,413
474,24	36,679
474,44	29,762
474,64	33,690
474,84	28,104
475,04	31,637
475,24	32,103
475,45	30,833
475,65	30,498
475,85	32,713
476,05	26,769
476,25	29,787
476,45	30,772
476,65	34,430
476,85	32,191
477,06	33,046
477,26	29,356
477,46	31,204
477,66	30,374
477,86	33,340
478,06	28,012
478,26	34,945
478,46	31,844
478,67	32,470
478,87	28,741
479,07	28,663
479,27	35,408
479,47	29,185
479,67	24,526
479,87	29,478
480,07	35,337
480,28	31,644
480,48	29,630
480,68	32,220
480,88	37,437
481,08	32,515
481,28	33,267
481,48	31,557
481,68	32,092
481,88	30,892
482,08	29,805
482,29	34,400
482,49	29,108
482,69	32,449
482,89	31,109
483,09	35,752
483,29	31,434
483,49	30,554
483,69	31,909
483,89	29,229
484,09	31,134
484,29	26,517
484,50	29,582
484,70	32,629
484,90	30,115
485,10	30,728
485,30	29,940
485,50	36,125
485,70	32,595
485,90	31,412
486,10	28,035
486,30	28,108
486,50	29,636
486,70	29,024
486,90	29,931
487,10	33,182
487,30	31,132
487,51	30,106
487,71	27,008
487,91	29,924
488,11	31,859
488,31	26,583
488,51	33,776
488,71	31,151
488,91	31,305
489,11	28,968
489,31	30,328
489,51	29,680
489,71	31,710
489,91	30,430
490,11	28,297
490,31	30,287
490,51	34,304
490,71	28,246
490,91	30,587
491,11	31,265
491,31	32,075
491,51	25,822
491,72	29,877
491,92	30,811
492,12	33,624
492,32	33,462
492,52	37,990
492,72	33,450
492,92	32,894
493,12	31,997
493,32	28,948
493,52	29,116
493,72	31,325
493,92	33,905
494,12	31,759
494,32	31,534
494,52	31,164
494,72	32,949
494,92	29,865
495,12	32,490
495,32	34,938
495,52	33,286
495,72	36,218
495,92	34,338
496,12	36,981
496,32	31,177
496,52	30,768
496,72	31,684
496,92	36,468
497,12	32,292
497,32	32,008
497,52	35,356
497,72	36,569
497,92	34,279
498,12	31,510
498,32	34,322
498,52	34,077
498,72	32,705
498,92	33,154
499,12	36,358
499,32	31,484
499,52	35,453
499,72	34,227
499,92	36,547
500,12	35,291
500,32	33,625
500,52	32,108
500,72	40,091
500,91	37,563
501,11	34,463
501,31	30,421
501,51	36,706
501,71	38,155
501,91	37,622
502,11	34,493
502,31	34,354
502,51	38,067
502,71	34,166
502,91	34,956
503,11	35,131
503,31	35,170
503,51	30,576
503,71	32,610
503,91	35,786
504,11	34,710
504,31	35,012
504,51	35,512
504,71	41,389
504,91	35,392
505,10	36,630
505,30	34,178
505,50	36,270
505,70	34,530
505,90	37,022
506,10	32,803
506,30	35,190
506,50	36,050
506,70	39,492
506,90	36,981
507,10	32,423
507,30	34,503
507,50	38,267
507,70	37,725
507,89	36,089
508,09	33,656
508,29	34,341
508,49	34,738
508,69	32,638
508,89	35,138
509,09	34,798
509,29	35,171
509,49	38,110
509,69	40,670
509,89	35,549
510,09	33,434
510,28	35,163
510,48	35,765
510,68	37,301
510,88	34,751
511,08	33,331
511,28	36,562
511,48	37,959
511,68	35,112
511,88	32,521
512,07	38,486
512,27	37,147
512,47	35,349
512,67	33,274
512,87	33,859
513,07	39,081
513,27	33,412
513,47	35,101
513,67	33,781
513,86	36,833
514,06	36,045
514,26	33,170
514,46	37,909
514,66	35,664
514,86	34,842
515,06	40,448
515,26	38,761
515,45	36,218
515,65	34,190
515,85	38,893
516,05	33,709
516,25	34,741
516,45	39,319
516,65	37,185
516,84	35,553
517,04	38,118
517,24	35,787
517,44	37,175
517,64	38,003
517,84	36,865
518,04	37,844
518,23	39,443
518,43	38,443
518,63	32,991
518,83	35,240
519,03	36,306
519,23	38,243
519,42	36,220
519,62	36,021
519,82	38,193
520,02	37,332
520,22	37,530
520,42	35,365
520,61	38,419
520,81	39,945
521,01	40,719
521,21	35,123
521,41	36,438
521,61	38,783
521,80	36,759
522,00	37,399
522,20	40,383
522,40	38,793
522,60	35,624
522,79	35,204
522,99	40,075
523,19	33,391
523,39	36,219
523,59	35,885
523,78	41,307
523,98	35,058
524,18	37,101
524,38	34,420
524,58	36,154
524,77	37,682
524,97	37,149
525,17	37,264
525,37	35,359
525,57	40,683
525,76	35,441
525,96	40,074
526,16	33,429
526,36	38,212
526,56	37,823
526,75	35,733
526,95	37,178
527,15	40,498
527,35	40,074
527,55	34,442
527,74	40,263
527,94	35,492
528,14	34,666
528,34	36,755
528,53	35,915
528,73	37,853
528,93	36,466
529,13	31,733
529,32	37,934
529,52	37,813
529,72	35,292
529,92	36,739
530,12	34,622
530,31	33,274
530,51	36,069
530,71	38,184
530,91	37,094
531,10	35,946
531,30	36,296
531,50	36,980
531,70	38,549
531,89	38,186
532,09	36,582
532,29	34,614
532,49	37,317
532,68	37,968
532,88	34,368
533,08	35,972
533,28	34,926
533,47	36,414
533,67	35,732
533,87	34,337
534,06	39,431
534,26	36,016
534,46	36,349
534,66	36,206
534,85	37,867
535,05	30,960
535,25	34,040
535,45	34,985
535,64	36,724
535,84	35,594
536,04	32,665
536,23	35,379
536,43	37,131
536,63	34,472
536,83	34,943
537,02	33,989
537,22	34,209
537,42	35,097
537,61	34,531
537,81	36,817
538,01	35,023
538,20	34,886
538,40	34,414
538,60	34,344
538,80	35,429
538,99	34,315
539,19	33,017
539,39	32,284
539,58	34,835
539,78	31,151
539,98	30,907
540,17	29,650
540,37	33,859
540,57	31,012
540,76	31,305
540,96	26,444
541,16	32,224
541,36	28,662
541,55	26,441
541,75	27,476
541,95	27,409
542,14	27,384
542,34	25,963
542,54	26,850
542,73	30,269
542,93	29,462
543,13	26,907
543,32	27,282
543,52	27,188
543,72	25,541
543,91	28,236
544,11	25,669
544,31	28,358
544,50	26,864
544,70	30,362
544,89	29,127
545,09	29,644
545,29	29,428
545,48	29,637
545,68	29,386
545,88	29,402
546,07	29,125
546,27	27,434
546,47	31,789
546,66	31,166
546,86	30,636
547,06	30,147
547,25	29,323
547,45	33,872
547,64	32,355
547,84	35,464
548,04	32,893
548,23	34,783
548,43	34,158
548,63	36,091
548,82	34,512
549,02	32,245
549,21	31,162
549,41	32,266
549,61	34,734
549,80	33,034
550,00	33,646
550,20	30,048
550,39	34,968
550,59	33,568
550,78	36,095
550,98	32,178
551,18	36,957
551,37	36,097
551,57	33,565
551,76	31,144
551,96	33,489
552,16	33,903
552,35	34,118
552,55	35,996
552,74	35,736
552,94	34,702
553,14	33,946
553,33	32,382
553,53	34,722
553,72	34,774
553,92	37,972
554,12	33,802
554,31	34,102
554,51	36,849
554,70	33,094
554,90	35,057
555,09	35,498
555,29	34,411
555,49	35,191
555,68	37,749
555,88	34,330
556,07	35,337
556,27	39,961
556,46	32,945
556,66	32,373
556,86	38,690
557,05	36,014
557,25	31,245
557,44	33,844
557,64	35,877
557,83	35,810
558,03	35,717
558,22	33,988
558,42	34,690
558,62	38,446
558,81	36,037
559,01	34,234
559,20	34,858
559,40	34,456
559,59	31,771
559,79	33,269
559,98	36,090
560,18	36,772
560,37	34,759
560,57	34,892
560,76	33,773
560,96	31,435
561,16	35,227
561,35	32,497
561,55	39,545
561,74	33,305
561,94	37,277
562,13	35,635
562,33	39,570
562,52	36,105
562,72	33,946
562,91	33,587
563,11	35,872
563,30	40,281
563,50	35,058
563,69	35,542
563,89	32,781
564,08	34,201
564,28	35,583
564,47	34,754
564,67	34,714
564,86	34,379
565,06	34,771
565,25	33,026
565,45	36,775
565,64	40,878
565,84	35,152
566,03	33,561
566,23	35,267
566,42	35,108
566,62	35,744
566,81	33,472
567,01	36,160
567,20	35,555
567,40	34,359
567,59	33,301
567,79	38,822
567,98	39,805
568,18	35,225
568,37	35,320
568,57	35,964
568,76	36,676
568,96	34,217
569,15	34,619
569,35	37,522
569,54	37,010
569,73	36,608
569,93	34,316
570,12	34,819
570,32	36,066
570,51	35,501
570,71	35,580
570,90	38,532
571,10	34,834
571,29	34,701
571,49	34,256
571,68	35,461
571,87	35,363
572,07	35,543
572,26	33,023
572,46	35,197
572,65	38,979
572,85	34,108
573,04	35,049
573,24	35,621
573,43	38,135
573,62	36,743
573,82	35,196
574,01	34,717
574,21	35,662
574,40	33,023
574,60	34,764
574,79	38,807
574,98	33,704
575,18	36,845
575,37	35,002
575,57	34,580
575,76	36,802
575,96	35,231
576,15	33,835
576,34	35,124
576,54	36,335
576,73	35,936
576,93	33,981
577,12	35,641
577,31	36,679
577,51	34,610
577,70	34,066
577,90	34,769
578,09	34,377
578,28	34,120
578,48	34,780
578,67	37,995
578,87	35,687
579,06	34,139
579,25	33,768
579,45	35,559
579,64	33,872
579,84	34,252
580,03	32,847
580,22	35,902
580,42	32,503
580,61	35,250
580,81	34,645
581,00	35,619
581,19	35,888
581,39	34,143
581,58	33,721
581,77	35,013
581,97	35,804
582,16	34,314
582,35	32,182
582,55	34,541
582,74	36,366
582,94	35,122
583,13	31,909
583,32	35,009
583,52	34,644
583,71	33,166
583,90	33,801
584,10	35,583
584,29	35,751
584,48	32,722
584,68	34,644
584,87	36,336
585,06	34,541
585,26	32,925
585,45	33,209
585,65	35,191
585,84	33,962
586,03	33,435
586,23	32,697
586,42	34,466
586,61	36,934
586,81	32,662
587,00	33,439
587,19	33,358
587,39	36,215
587,58	33,622
587,77	34,779
587,97	32,029
588,16	34,479
588,35	33,281
588,54	35,718
588,74	33,131
588,93	34,285
589,12	33,496
589,32	32,782
589,51	34,381
589,70	30,942
589,90	32,927
590,09	32,267
590,28	37,409
590,48	34,180
590,67	33,738
590,86	33,802
591,06	34,632
591,25	35,559
591,44	33,613
591,63	34,529
591,83	33,869
592,02	34,229
592,21	32,367
592,41	32,902
592,60	36,071
592,79	35,195
592,98	34,461
593,18	34,900
593,37	33,455
593,56	36,157
593,76	35,239
593,95	33,516
594,14	35,013
594,33	37,701
594,53	33,461
594,72	34,324
594,91	36,527
595,10	34,835
595,30	33,221
595,49	33,900
595,68	35,719
595,88	36,992
596,07	33,599
596,26	34,806
596,45	35,593
596,65	30,632
596,84	33,268
597,03	36,000
597,22	38,105
597,42	37,557
597,61	35,357
597,80	33,734
597,99	35,237
598,19	36,460
598,38	36,167
598,57	34,863
598,76	37,587
598,95	36,704
599,15	36,223
599,34	33,957
599,53	34,637
599,72	34,398
599,92	35,464
600,11	34,621
600,30	35,113
600,49	37,562
600,69	32,624
600,88	36,823
601,07	35,494
601,26	34,777
601,45	33,350
601,65	34,252
601,84	35,647
602,03	34,087
602,22	33,878
602,42	35,607
602,61	33,976
602,80	35,371
602,99	34,550
603,18	34,823
603,38	35,177
603,57	33,091
603,76	35,199
603,95	33,002
604,14	35,169
604,34	35,677
604,53	33,363
604,72	34,885
604,91	34,677
605,10	34,152
605,29	36,454
605,49	32,456
605,68	34,213
605,87	36,794
606,06	35,586
606,25	33,764
606,45	35,900
606,64	33,813
606,83	35,613
607,02	33,767
607,21	34,860
607,40	34,559
607,60	32,276
607,79	31,730
607,98	32,198
608,17	32,596
608,36	32,679
608,55	33,937
608,75	35,143
608,94	32,171
609,13	29,743
609,32	28,862
609,51	30,784
609,70	30,896
609,89	32,101
610,09	30,288
610,28	32,911
610,47	31,505
610,66	28,791
610,85	29,170
611,04	32,390
611,23	30,010
611,43	29,795
611,62	29,276
611,81	30,109
612,00	29,367
612,19	28,149
612,38	30,039
612,57	30,383
612,77	29,856
612,96	31,616
613,15	30,538
613,34	32,088
613,53	31,418
613,72	32,844
613,91	32,787
614,10	32,696
614,29	34,491
614,49	32,186
614,68	31,796
614,87	33,978
615,06	34,552
615,25	31,635
615,44	33,226
615,63	33,649
615,82	30,332
616,01	31,642
616,21	30,770
616,40	33,747
616,59	36,405
616,78	32,919
616,97	33,208
617,16	33,439
617,35	34,834
617,54	33,360
617,73	35,143
617,92	33,005
618,11	34,587
618,31	30,966
618,50	33,925
618,69	31,932
618,88	33,704
619,07	31,454
619,26	31,645
619,45	33,066
619,64	31,392
619,83	31,486
620,02	31,718
620,21	33,418
620,40	33,308
620,59	32,682
620,78	30,588
620,97	33,823
621,17	32,857
621,36	31,464
621,55	31,506
621,74	31,656
621,93	34,176
622,12	33,124
622,31	32,010
622,50	32,695
622,69	34,858
622,88	32,957
623,07	35,118
623,26	34,575
623,45	34,559
623,64	32,390
623,83	31,453
624,02	34,494
624,21	36,060
624,40	33,006
624,59	30,754
624,78	33,238
624,97	35,421
625,16	30,861
625,35	30,226
625,54	31,202
625,73	31,902
625,92	31,601
626,12	35,078
626,31	35,233
626,50	35,497
626,69	33,529
626,88	31,474
627,07	34,720
627,26	33,191
627,45	32,456
627,64	31,313
627,83	34,668
628,02	32,690
628,21	32,825
628,40	31,690
628,59	35,736
628,78	32,075
628,97	31,736
629,16	29,960
629,35	32,486
629,54	32,768
629,73	30,938
629,92	30,277
630,10	32,182
630,29	33,483
630,48	31,973
630,67	31,370
630,86	33,661
631,05	31,599
631,24	33,250
631,43	29,827
631,62	31,749
631,81	31,782
632,00	33,351
632,19	30,626
632,38	33,749
632,57	32,913
632,76	32,128
632,95	33,097
633,14	34,526
633,33	32,590
633,52	32,271
633,71	31,297
633,90	30,017
634,09	31,797
634,28	32,686
634,47	31,250
634,66	33,809
634,85	33,708
635,04	33,217
635,22	31,843
635,41	32,332
635,60	34,099
635,79	34,101
635,98	30,681
636,17	32,353
636,36	31,852
636,55	32,076
636,74	30,417
636,93	33,628
637,12	33,725
637,31	31,059
637,50	31,180
637,69	31,967
637,87	34,095
638,06	33,262
638,25	31,157
638,44	31,209
638,63	29,995
638,82	33,979
639,01	31,554
639,20	32,546
639,39	32,930
639,58	31,295
639,77	31,314
639,95	30,579
640,14	35,285
640,33	31,310
640,52	31,883
640,71	34,002
640,90	33,072
641,09	32,342
641,28	31,888
641,47	32,563
641,66	32,548
641,84	32,748
642,03	30,688
642,22	33,351
642,41	34,584
642,60	33,789
642,79	32,007
642,98	32,581
643,17	31,701
643,35	30,629
643,54	29,637
643,73	34,274
643,92	32,957
644,11	31,170
644,30	29,989
644,49	34,695
644,67	31,315
644,86	30,707
645,05	33,289
645,24	31,831
645,43	31,540
645,62	33,332
645,81	31,977
645,99	34,105
646,18	33,544
646,37	30,731
646,56	30,350
646,75	33,559
646,94	35,156
647,13	32,064
647,31	31,969
647,50	33,654
647,69	35,222
647,88	33,415
648,07	32,570
648,26	36,248
648,44	33,042
648,63	32,826
648,82	33,341
649,01	36,702
649,20	30,699
649,38	31,011
649,57	32,582
649,76	30,752
649,95	32,270
650,14	30,703
650,33	31,841
650,51	32,354
650,70	33,580
650,89	30,902
651,08	32,426
651,27	33,374
651,45	32,000
651,64	31,139
651,83	32,243
652,02	30,781
652,21	33,034
652,39	34,034
652,58	34,597
652,77	33,814
652,96	33,328
653,15	33,135
653,33	32,034
653,52	32,964
653,71	36,196
653,90	33,196
654,09	32,259
654,27	33,157
654,46	35,489
654,65	32,192
654,84	33,487
655,02	35,538
655,21	34,545
655,40	34,273
655,59	33,288
655,77	33,031
655,96	34,478
656,15	33,431
656,34	34,201
656,53	33,711
656,71	34,344
656,90	33,186
657,09	34,936
657,28	34,892
657,46	32,658
657,65	32,839
657,84	32,744
658,03	34,667
658,21	33,098
658,40	32,373
658,59	32,023
658,78	34,023
658,96	30,678
659,15	32,443
659,34	31,160
659,52	32,961
659,71	32,071
659,90	32,259
660,09	32,382
660,27	32,211
660,46	33,888
660,65	32,593
660,84	31,860
661,02	33,286
661,21	32,299
661,40	32,497
661,58	32,567
661,77	33,161
661,96	30,034
662,15	30,544
662,33	30,364
662,52	31,886
662,71	31,648
662,89	31,302
663,08	30,271
663,27	31,970
663,45	32,085
663,64	31,499
663,83	29,803
664,02	32,350
664,20	33,965
664,39	30,564
664,58	31,719
664,76	30,023
664,95	32,495
665,14	30,710
665,32	31,151
665,51	31,469
665,70	32,548
665,88	33,599
666,07	31,761
666,26	32,940
666,44	31,990
666,63	31,925
666,82	32,212
667,00	32,833
667,19	30,250
667,38	31,877
667,56	33,104
667,75	32,807
667,94	32,533
668,12	30,098
668,31	31,332
668,50	33,662
668,68	32,431
668,87	31,302
669,06	31,979
669,24	32,713
669,43	32,652
669,62	31,126
669,80	28,189
669,99	30,983
670,18	32,086
670,36	31,928
670,55	32,483
670,74	31,674
670,92	29,855
671,11	31,486
671,29	30,244
671,48	32,421
671,67	30,437
671,85	32,971
672,04	30,060
672,23	29,604
672,41	31,686
672,60	31,558
672,78	33,261
672,97	30,494
673,16	31,882
673,34	32,629
673,53	30,580
673,71	31,926
673,90	31,951
674,09	32,771
674,27	30,154
674,46	31,515
674,64	32,990
674,83	30,949
675,02	29,962
675,20	31,844
675,39	31,345
675,57	31,955
675,76	29,902
675,95	32,468
676,13	33,845
676,32	32,550
676,50	31,652
676,69	28,230
676,88	31,117
677,06	29,045
677,25	31,886
677,43	35,014
677,62	32,522
677,80	32,274
677,99	31,109
678,18	32,716
678,36	33,881
678,55	29,951
678,73	29,491
678,92	33,453
679,10	33,422
679,29	31,923
679,48	29,670
679,66	31,081
679,85	31,435
680,03	30,884
680,22	30,894
680,40	30,326
680,59	30,700
680,77	30,826
680,96	32,115
681,15	31,107
681,33	33,599
681,52	31,504
681,70	31,694
681,89	33,675
682,07	32,781
682,26	31,298
682,44	31,273
682,63	32,760
682,81	32,056
683,00	33,121
683,18	31,066
683,37	34,592
683,55	30,243
683,74	31,134
683,92	38,120
684,11	33,684
684,29	32,601
684,48	30,107
684,67	30,576
684,85	30,331
685,04	33,816
685,22	31,667
685,41	31,393
685,59	32,773
685,78	30,721
685,96	30,279
686,15	31,469
686,33	29,507
686,52	32,433
686,70	31,134
686,89	32,707
687,07	32,400
687,26	33,300
687,44	33,072
687,62	30,548
687,81	31,625
687,99	32,223
688,18	31,624
688,36	30,896
688,55	33,812
688,73	30,353
688,92	29,792
689,10	31,914
689,29	31,930
689,47	33,297
689,66	30,799
689,84	30,546
690,03	35,008
690,21	30,588
690,40	31,056
690,58	30,391
690,76	31,443
690,95	31,639
691,13	29,992
691,32	32,566
691,50	31,175
691,69	33,466
691,87	29,878
692,06	29,953
692,24	31,054
692,43	33,229
692,61	29,458
692,79	30,926
692,98	32,288
693,16	33,515
693,35	30,288
693,53	32,379
693,72	32,185
693,90	33,101
694,08	30,334
694,27	30,368
694,45	34,424
694,64	33,437
694,82	31,130
695,01	30,389
695,19	30,104
695,37	31,614
695,56	30,963
695,74	31,458
695,93	33,423
696,11	30,392
696,29	31,922
696,48	31,146
696,66	32,329
696,85	31,855
697,03	30,058
697,21	33,052
697,40	30,603
697,58	31,041
697,77	31,080
697,95	32,450
698,13	34,199
698,32	32,823
698,50	30,228
698,69	30,710
698,87	32,146
699,05	31,574
699,24	29,313
699,42	30,832
699,60	29,376
699,79	29,975
699,97	30,330
700,16	30,713
700,34	33,945
700,52	31,148
700,71	30,435
700,89	30,434
701,07	31,812
701,26	32,047
701,44	31,298
701,63	29,277
701,81	32,928
701,99	32,555
702,18	29,247
702,36	29,249
702,54	32,376
702,73	31,717
702,91	29,234
703,09	30,614
703,28	30,168
703,46	33,445
703,64	29,762
703,83	32,244
704,01	30,416
704,19	30,880
704,38	29,426
704,56	31,084
704,74	33,133
704,93	31,978
705,11	31,038
705,29	31,038
705,48	37,930
705,66	31,887
705,84	31,528
706,03	29,333
706,21	32,931
706,39	30,597
706,58	31,840
706,76	31,424
706,94	33,018
707,12	29,978
707,31	30,743
707,49	31,791
707,67	32,015
707,86	33,233
708,04	30,929
708,22	29,738
708,41	32,700
708,59	31,724
708,77	28,484
708,95	32,236
709,14	35,162
709,32	33,782
709,50	30,001
709,69	30,746
709,87	30,936
710,05	29,874
710,23	31,587
710,42	32,437
710,60	31,608
710,78	32,279
710,97	31,034
711,15	30,452
711,33	32,803
711,51	30,751
711,70	29,504
711,88	30,549
712,06	32,539
712,24	31,985
712,43	32,331
712,61	28,750
712,79	31,248
712,97	29,921
713,16	31,788
713,34	30,472
713,52	30,165
713,70	31,292
713,89	32,111
714,07	30,247
714,25	32,941
714,43	32,480
714,62	28,638
714,80	30,350
714,98	29,595
715,16	30,467
715,35	28,439
715,53	30,992
715,71	32,776
715,89	34,564
716,07	31,054
716,26	33,684
716,44	32,108
716,62	32,959
716,80	30,491
716,99	30,324
717,17	32,055
717,35	30,475
717,53	30,328
717,71	29,106
717,90	32,431
718,08	30,248
718,26	28,854
718,44	32,198
718,62	31,576
718,81	31,795
718,99	30,278
719,17	30,899
719,35	30,684
719,53	31,158
719,72	31,742
719,90	30,377
720,08	30,196
720,26	33,440
720,44	29,821
720,62	29,549
720,81	34,002
720,99	35,260
721,17	30,593
721,35	32,484
721,53	30,752
721,72	34,170
721,90	32,635
722,08	32,903
722,26	31,729
722,44	31,381
722,62	29,524
722,81	28,800
722,99	29,883
723,17	31,406
723,35	32,901
723,53	31,027
723,71	31,851
723,89	34,348
724,08	28,464
724,26	30,842
724,44	31,334
724,62	31,873
724,80	31,602
724,98	30,047
725,16	33,400
725,35	31,827
725,53	32,353
725,71	29,842
725,89	33,089
726,07	35,261
726,25	33,381
726,43	30,835
726,61	33,463
726,80	32,672
726,98	31,205
727,16	30,713
727,34	31,991
727,52	32,933
727,70	30,122
727,88	30,265
728,06	30,202
728,25	30,135
728,43	30,717
728,61	32,564
728,79	31,262
728,97	31,858
729,15	30,300
729,33	32,192
729,51	32,129
729,69	32,197
729,87	28,541
730,06	31,248
730,24	31,269
730,42	33,575
730,60	29,532
730,78	32,087
730,96	30,788
731,14	30,503
731,32	30,484
731,50	29,891
731,68	30,565
731,86	32,789
732,04	31,506
732,22	31,359
732,41	36,989
732,59	32,731
732,77	32,886
732,95	33,801
733,13	34,075
733,31	32,225
733,49	29,948
733,67	33,228
733,85	34,698
734,03	31,488
734,21	31,164
734,39	31,567
734,57	31,765
734,75	34,086
734,93	31,609
735,11	31,624
735,29	29,389
735,47	34,372
735,65	30,414
735,84	30,249
736,02	32,264
736,20	33,982
736,38	30,186
736,56	31,926
736,74	31,667
736,92	30,587
737,10	31,522
737,28	31,414
737,46	31,413
737,64	32,955
737,82	30,264
738,00	32,050
738,18	32,226
738,36	32,282
738,54	29,374
738,72	30,288
738,90	32,337
739,08	33,171
739,26	26,901
739,44	31,407
739,62	34,092
739,80	33,693
739,98	32,315
740,16	31,482
740,34	31,846
740,52	33,639
740,70	30,655
740,88	30,312
741,06	32,783
741,24	31,886
741,42	31,688
741,60	30,034
741,78	32,458
741,96	31,235
742,14	31,576
742,32	30,341
742,50	33,149
742,68	33,218
742,86	29,810
743,04	30,378
743,21	33,436
743,39	32,496
743,57	29,479
743,75	30,305
743,93	29,473
744,11	27,879
744,29	29,340
744,47	32,180
744,65	30,684
744,83	31,190
745,01	30,236
745,19	31,133
745,37	33,343
745,55	33,246
745,73	32,356
745,91	27,764
746,09	29,488
746,27	30,682
746,45	29,666
746,62	30,987
746,80	28,509
746,98	31,504
747,16	29,950
747,34	31,027
747,52	33,061
747,70	31,903
747,88	32,183
748,06	29,839
748,24	30,496
748,42	32,738
748,60	30,188
748,78	31,191
748,95	33,408
749,13	35,795
749,31	30,290
749,49	31,002
749,67	32,081
749,85	34,484
750,03	30,102
750,21	31,178
750,39	32,220
750,57	31,303
750,74	31,634
750,92	30,599
751,10	32,842
751,28	30,016
751,46	32,262
751,64	32,548
751,82	32,912
752,00	31,874
752,17	31,504
752,35	32,399
752,53	31,893
752,71	31,006
752,89	31,565
753,07	30,896
753,25	34,897
753,43	31,049
753,60	33,500
753,78	29,533
753,96	33,743
754,14	32,068
754,32	32,281
754,50	33,468
754,68	32,964
754,85	33,132
755,03	31,102
755,21	30,912
755,39	35,784
755,57	31,271
755,75	31,000
755,92	30,200
756,10	33,069
756,28	32,921
756,46	28,947
756,64	31,815
756,82	32,112
756,99	30,913
757,17	30,659
757,35	30,623
757,53	33,289
757,71	32,516
757,89	29,329
758,06	31,381
758,24	33,648
758,42	31,458
758,60	30,873
758,78	31,023
758,95	31,932
759,13	32,338
759,31	30,570
759,49	30,233
759,67	33,026
759,84	30,864
760,02	32,638
760,20	30,414
760,38	32,089
760,56	30,988
760,73	31,123
760,91	30,721
761,09	36,124
761,27	29,880
761,45	30,858
761,62	29,364
761,80	31,152
761,98	32,481
762,16	31,905
762,33	30,863
762,51	34,368
762,69	30,659
762,87	31,063
763,05	31,438
763,22	30,488
763,40	31,560
763,58	29,985
763,76	32,232
763,93	33,201
764,11	33,464
764,29	30,309
764,47	32,479
764,64	32,642
764,82	35,245
765,00	29,875
765,18	29,165
765,35	30,080
765,53	31,751
765,71	32,310
765,89	29,587
766,06	29,628
766,24	32,244
766,42	32,506
766,60	27,802
766,77	31,486
766,95	30,834
767,13	32,567
767,30	30,521
767,48	31,035
767,66	29,823
767,84	29,662
768,01	29,074
768,19	33,249
768,37	30,111
768,54	30,675
768,72	31,598
768,90	30,930
769,08	32,297
769,25	31,175
769,43	29,652
769,61	28,702
769,78	34,689
769,96	30,560
770,14	33,338
770,31	34,601
770,49	33,295
770,67	30,970
770,85	28,199
771,02	31,942
771,20	32,073
771,38	31,660
771,55	30,023
771,73	31,163
771,91	33,268
772,08	34,760
772,26	29,119
772,44	32,375
772,61	31,356
772,79	30,099
772,97	30,711
773,14	28,362
773,32	33,299
773,50	31,902
773,67	31,516
773,85	33,778
774,03	35,206
774,20	32,470
774,38	30,500
774,56	31,154
774,73	30,351
774,91	30,646
775,09	31,938
775,26	32,567
775,44	32,730
775,61	32,024
775,79	29,676
775,97	31,357
776,14	31,433
776,32	29,669
776,50	31,796
776,67	33,049
776,85	32,190
777,03	28,676
777,20	31,363
777,38	34,070
777,55	33,386
777,73	29,674
777,91	29,362
778,08	32,261
778,26	31,112
778,43	33,105
778,61	29,034
778,79	30,302
778,96	29,600
779,14	29,469
779,32	31,519
779,49	31,734
779,67	34,710
779,84	32,145
780,02	33,095
780,20	30,251
780,37	33,658
780,55	30,800
780,72	33,781
780,90	32,664
781,07	30,752
781,25	33,128
781,43	32,333
781,60	32,101
781,78	32,288
781,95	30,865
782,13	31,292
782,30	34,882
782,48	34,233
782,66	29,733
782,83	27,250
783,01	38,336
783,18	35,659
783,36	33,324
783,53	34,088
783,71	30,544
783,89	29,688
784,06	31,688
784,24	31,087
784,41	35,352
784,59	32,002
784,76	32,272
784,94	30,567
785,11	32,717
785,29	29,188
785,46	31,169
785,64	31,337
785,82	33,043
785,99	33,106
786,17	30,369
786,34	30,988
786,52	31,903
786,69	35,119
786,87	32,418
787,04	31,710
787,22	30,798
787,39	35,954
787,57	34,366
787,74	30,420
787,92	35,558
788,09	34,328
788,27	30,055
788,44	29,743
788,62	34,119
788,79	32,241
788,97	32,567
789,14	31,780
789,32	31,013
789,49	31,158
789,67	33,800
789,84	30,185
790,02	35,876
790,19	31,372
790,37	32,119
790,54	32,275
790,72	37,694
790,89	36,153
791,07	33,298
791,24	28,031
791,42	34,511
791,59	35,943
791,77	34,872
791,94	30,002
792,12	31,079
792,29	34,462
792,47	31,294
792,64	35,372
792,81	33,223
792,99	30,546
793,16	34,231
793,34	32,703
793,51	33,035
793,69	32,781
793,86	31,695
794,04	33,934
794,21	36,653
794,39	27,194
794,56	32,622
794,73	32,145
794,91	35,605
795,08	33,348
795,26	31,895
795,43	32,410
795,61	35,391
795,78	36,294
795,95	33,295
796,13	31,622
796,30	36,035
796,48	30,505
796,65	34,052
796,83	33,587
797,00	39,129
797,17	32,783
797,35	30,458
797,52	32,130
797,70	36,211
797,87	34,556
798,04	29,587
798,22	34,453
798,39	30,969
798,57	33,181
798,74	34,977
798,91	30,049
799,09	30,432
799,26	36,148
799,44	36,925
799,61	31,721
799,78	34,735
799,96	37,544
800,13	32,673
800,31	31,216
800,48	38,038
800,65	38,561
800,83	31,098
801,00	30,872
801,17	36,235
801,35	36,088
801,52	30,983
801,70	33,160
801,87	34,119
802,04	34,927
802,22	31,371
802,39	31,549
802,56	38,362
802,74	35,204
802,91	33,180
803,08	29,595
803,26	35,053
803,43	34,658
803,61	33,468
803,78	32,779
803,95	35,125
804,13	39,017
804,30	30,114
804,47	34,211
804,65	36,703
804,82	37,455
804,99	32,222
805,17	31,610
805,34	42,406
805,51	39,175
805,69	30,878
805,86	32,017
806,03	38,708
806,21	38,246
806,38	35,794
806,55	36,261
806,72	35,495
806,90	37,563
807,07	30,400
807,24	33,814
807,42	32,496
807,59	37,149
807,76	31,234
807,94	34,232
808,11	38,280
808,28	40,603
808,45	34,231
808,63	31,425
808,80	36,704
808,97	37,536
809,15	33,207
809,32	33,527
809,49	32,659
809,67	36,459
809,84	35,643
810,01	34,767
810,18	41,802
810,36	36,834
810,53	35,592
810,70	33,531
810,87	33,719
811,05	37,507
811,22	37,274
811,39	34,840
811,57	38,229
811,74	38,686
811,91	30,024
812,08	34,663
812,26	37,228
812,43	33,946
812,60	35,902
812,77	33,419
812,95	39,891
813,12	36,916
813,29	28,488
813,46	36,832
813,64	37,739
813,81	38,477
813,98	33,494
814,15	35,303
814,32	42,557
814,50	37,416
814,67	34,922
814,84	33,740
815,01	36,156
815,19	31,313
815,36	28,571
815,53	32,519
815,70	35,477
815,87	37,923
816,05	28,185
816,22	35,480
816,39	37,598
816,56	40,016
816,74	40,446
816,91	33,984
817,08	41,937
817,25	38,299
817,42	34,635
817,60	32,943
817,77	37,994
817,94	39,488
818,11	36,896
818,28	36,859
818,45	36,049
818,63	37,541
818,80	33,853
818,97	36,130
819,14	40,233
819,31	45,809
819,49	37,894
819,66	33,198
819,83	37,130
820,00	41,489
820,17	36,735
820,34	32,552
820,52	41,252
820,69	39,158
820,86	36,429
821,03	37,790
821,20	39,677
821,37	43,405
821,55	29,411
821,72	31,956
821,89	38,848
822,06	41,666
822,23	30,543
822,40	33,615
822,57	43,912
822,75	45,870
822,92	29,656
823,09	32,077
823,26	41,562
823,43	39,573
823,60	31,581
823,77	38,280
823,94	42,100
824,12	44,989
824,29	32,181
824,46	35,306
824,63	44,525
824,80	43,347
824,97	33,505
825,14	32,713
825,31	37,001
825,49	38,900
825,66	33,424
825,83	32,026
826,00	37,902
826,17	50,378
826,34	35,834
826,51	32,511
826,68	35,477
826,85	34,333
827,02	36,690
827,20	30,218
827,37	36,961
827,54	41,734
827,71	38,301
827,88	38,811
828,05	37,284
828,22	40,959
828,39	43,297
828,56	36,029
828,73	41,338
828,90	39,646
829,07	27,823
829,25	42,455
829,42	39,721
829,59	30,207
829,76	37,463
829,93	36,007
830,10	40,412
830,27	39,443
830,44	36,502
830,61	32,911
830,78	46,123
830,95	41,373
831,12	34,670
831,29	34,093
831,46	37,705
831,63	39,637
831,80	32,569
831,97	38,338
832,14	43,312
832,31	50,148
832,48	31,969
832,65	43,747
832,83	39,913
833,00	42,974
833,17	30,369
833,34	39,057
833,51	43,313
833,68	53,353
833,85	45,617
834,02	28,666
834,19	39,445
834,36	42,539
834,53	27,680
834,70	40,935
834,87	49,943
835,04	40,292
835,21	38,417
835,38	30,149
835,55	39,971
835,72	56,585
835,89	39,213
836,06	43,093
836,23	54,005
836,40	33,898
836,57	32,853
836,74	42,161
836,91	40,213
837,08	46,330
837,25	36,309
837,42	29,382
837,59	41,638
837,76	44,121
837,93	33,630
838,09	33,476
838,26	43,473
838,43	51,464
838,60	36,869
838,77	38,281
838,94	48,197
839,11	35,350
839,28	34,402
839,45	33,151
839,62	44,180
839,79	45,603
839,96	38,588
840,13	48,417
840,30	42,381
840,47	30,971
840,64	40,246
840,81	43,583
840,98	34,606
841,15	50,006
841,32	27,582
841,48	47,911
841,65	42,683
841,82	44,522
841,99	43,258
842,16	32,743
842,33	45,747
842,50	39,189
842,67	35,637
842,84	36,905
843,01	41,394
843,18	39,617
843,35	35,108
843,52	33,351
843,68	46,230
843,85	42,570
844,02	41,679
844,19	36,225
844,36	58,488
844,53	42,847
844,70	37,630
844,87	53,642
845,04	46,927
845,21	37,515
845,37	46,409
845,54	36,198
845,71	44,293
845,88	55,655
846,05	32,072
846,22	36,743
846,39	52,658
846,56	48,176
846,72	27,581
846,89	40,986
847,06	56,047
847,23	55,599
847,40	35,568
847,57	34,775
847,74	42,738
847,90	50,977
848,07	34,946
848,24	44,130
848,41	40,707
848,58	52,151
848,75	52,059
848,92	37,228
849,08	44,497
849,25	40,162
849,42	36,025
849,59	42,352
849,76	45,362
849,93	47,363
850,09	42,815
850,26	27,234
850,43	66,817
850,60	43,778
850,77	33,670
850,94	41,219
851,10	41,065
851,27	50,056
851,44	33,776
851,61	40,058
851,78	57,870
851,95	57,386
852,11	34,154
852,28	38,979
852,45	45,288
852,62	47,186
852,79	43,328
852,95	43,009
853,12	56,924
853,29	47,823
853,46	43,766
853,63	46,074
853,79	44,683
853,96	37,263
854,13	49,897
854,30	41,734
854,46	56,813
854,63	50,327
854,80	37,182
854,97	33,396
855,14	68,153
855,30	60,263
855,47	34,321
855,64	34,609
855,81	47,363
855,97	57,491
856,14	35,871
856,31	38,008
856,48	62,964
856,65	63,075
856,81	37,109
856,98	25,267
857,15	32,678
857,32	51,163
857,48	40,414
857,65	51,219
857,82	47,704
857,99	52,626
858,15	43,730
858,32	47,006
858,49	56,395
858,65	68,838
858,82	51,418
858,99	44,769
859,16	66,658
859,32	56,652
859,49	32,771
859,66	35,565
859,83	65,606
859,99	36,254
860,16	48,352
860,33	32,142
860,49	65,988
860,66	56,084
860,83	51,366
861,00	41,767
861,16	61,705
861,33	54,383
861,50	44,933
861,66	37,620
861,83	82,834
862,00	66,985
862,16	47,926
862,33	44,965
862,50	94,165
862,67	40,116
862,83	50,666
863,00	54,033
863,17	79,381
863,33	50,545
863,50	28,423
863,67	46,570
863,83	72,429
864,00	54,509
864,17	35,759
864,33	51,334
864,50	51,079
864,67	62,689
864,83	45,608
865,00	40,605
865,17	26,006
865,33	64,984
865,50	31,805
865,67	20,965
865,83	65,344
866,00	80,894
866,17	55,241
866,33	65,525
866,50	72,425
866,66	74,403
866,83	46,403
867,00	67,007
867,16	62,188
867,33	96,951
867,50	17,477
867,66	37,304
867,83	71,225
868,00	68,143
868,16	56,900
868,33	48,735
868,49	32,341
868,66	72,009
868,83	64,809
868,99	71,878
869,16	70,194
869,32	90,468
869,49	44,536
869,66	28,224
869,82	85,751
869,99	87,043
870,15	31,145
870,32	78,281
870,49	79,863
870,65	107,499
870,82	56,050
870,98	64,859
871,15	95,536
871,32	81,519
871,48	20,860
871,65	28,899
871,81	64,787
871,98	30,742
872,15	20,539
872,31	27,938
872,48	112,738
872,64	94,129
872,81	15,978
872,97	49,269
873,14	84,952
873,31	77,207
873,47	45,926
873,64	71,982
873,80	114,925
873,97	94,816
874,13	39,943
874,30	42,028
874,46	83,037
874,63	72,057
874,80	43,253
874,96	-1,849
875,13	130,377
875,29	78,525
875,46	71,175
875,62	70,002
875,79	97,677
875,95	94,224
876,12	26,186
876,28	17,305
876,45	94,831
876,61	77,443
876,78	66,745
876,94	36,058
877,11	109,907
877,27	108,025
877,44	29,058
877,60	58,771
877,77	104,944
877,94	129,662
878,10	67,664
878,27	78,682
878,43	110,717
878,60	31,892
878,76	51,761
878,93	62,978
879,09	105,487
879,26	114,317
879,42	51,820
879,58	51,994
879,75	143,988
879,91	108,358
880,08	-25,936
880,24	60,657
880,41	81,346
880,57	133,736
880,74	32,658
880,90	49,437
881,07	86,998
881,23	134,438
881,40	63,486
881,56	92,905
881,73	118,458
881,89	99,854
882,06	33,049
882,22	159,534
882,38	132,286
882,55	179,215
882,71	27,628
882,88	27,492
883,04	235,140
883,21	179,512
883,37	67,178
883,54	76,564
883,70	190,975
883,86	115,732
884,03	61,839
884,19	17,135
884,36	124,940
884,52	169,927
884,69	92,420
884,85	66,385
885,01	207,267
885,18	142,230
885,34	138,759
885,51	-38,270
885,67	129,954
>>>>> Data<<<<< Espectral Procesado Extremo
