Fichero De Datos De SpectraSuite
++++++++++++++++++++++++++++++++++++
Fecha: Wed Apr 22 13:18:27 CEST 2009
Usuario: evoflor
Presente Oscuro Del Espectro: Sí
La Referencia de Presente Del Espectro De: Sí
Muestreados de los componentes de Número de espectros: 1
Espectrómetros: USB4F02353
Tiempo de integración (usec): 500000 (USB4F02353)
Promedio de Espectros Hechos un: 5 (USB4F02353)
El Alisar Del Furgón: 0 (USB4F02353)
Párrafo de de Corregir del la del del de Eléctrica del obscuridad: Sí (USB4F02353)
Estrobo/Lámpara Permitido: No (USB4F02353)
Correct for Detector Non-linearity: No (USB4F02353)
Párrafo de de Corregir del la del del de Externa del luz: No (USB4F02353)
Procesado del espectro de Número de pixeles en: 3648
>>>>> Comienza Data<<<<< Espectral Procesado Del EL
177,79	410,189
178,00	410,189
178,22	410,189
178,44	1659,670
178,66	-269,310
178,88	339,511
179,09	-169,234
179,31	294,557
179,53	621,889
179,75	160,452
179,96	715,259
180,18	-377,138
180,40	527,930
180,62	313,183
180,83	-200,124
181,05	-1637,439
181,27	-148670,000
181,49	-35,587
181,70	114,885
181,92	1202,386
182,14	580,633
182,36	140,784
182,58	-172,700
182,79	916,830
183,01	-40,422
183,23	212,567
183,45	-53,138
183,66	-271,549
183,88	361,000
184,10	-2948,545
184,32	390,272
184,53	314,986
184,75	-256,297
184,97	49,405
185,18	-321,748
185,40	-723,413
185,62	110,378
185,84	6,266
186,05	214,897
186,27	-209,951
186,49	4229,615
186,71	-61,256
186,92	132,975
187,14	-188,285
187,36	159,020
187,58	86,813
187,79	-22,143
188,01	258,995
188,23	-197,358
188,45	153,103
188,66	137,366
188,88	-2752,182
189,10	-2620,700
189,31	-92,440
189,53	100,493
189,75	452,432
189,97	436,808
190,18	205,451
190,40	1033,353
190,62	-272,469
190,83	-417,062
191,05	171,971
191,27	257,629
191,49	167,500
191,70	-714,760
191,92	227,373
192,14	-46,510
192,35	797,798
192,57	5584,857
192,79	52,398
193,01	343,968
193,22	110,010
193,44	-246,024
193,66	162,743
193,87	135,268
194,09	-78,531
194,31	224,935
194,53	536,154
194,74	85,919
194,96	37,046
195,18	156,729
195,39	-423,140
195,61	-157,037
195,83	-372,109
196,04	172,084
196,26	-46,080
196,48	-12,556
196,70	200,736
196,91	266,925
197,13	333,089
197,35	-116,577
197,56	761,207
197,78	2331,866
198,00	227,762
198,21	616,845
198,43	-1068,430
198,65	149,004
198,86	340,540
199,08	71,377
199,30	320,992
199,51	-261,466
199,73	239,044
199,95	256,609
200,16	751,808
200,38	284,466
200,60	215,934
200,81	247,045
201,03	252,364
201,25	-2548,700
201,46	132,751
201,68	143,516
201,90	2683,409
202,11	-210,191
202,33	152,190
202,55	2015,875
202,76	-32,117
202,98	292,230
203,20	-247,452
203,41	-294,579
203,63	111,955
203,85	-189170,000
204,06	-12,135
204,28	-117,518
204,50	188,946
204,71	334,223
204,93	-49,040
205,15	103,524
205,36	-311,797
205,58	255,988
205,80	-224,097
206,01	74,253
206,23	157,891
206,45	284,056
206,66	211,425
206,88	-3,311
207,10	245,841
207,31	313,735
207,53	311,629
207,75	31,423
207,96	894,552
208,18	-281,348
208,39	139,530
208,61	2550,571
208,83	-358,515
209,04	247,045
209,26	-158,387
209,48	358,191
209,69	173,016
209,91	800,236
210,13	51,497
210,34	13,487
210,56	174,910
210,77	-2141,496
210,99	178,918
211,21	8268,824
211,42	-77,766
211,64	-37,588
211,86	303,715
212,07	173,223
212,29	265,689
212,50	155,568
212,72	135,654
212,94	205,841
213,15	189,895
213,37	112,154
213,58	-261,796
213,80	1022,500
214,02	16898,235
214,23	453,595
214,45	466,787
214,67	-847,195
214,88	-420,369
215,10	-382,165
215,31	73,079
215,53	-32,341
215,75	354,035
215,96	1784,286
216,18	598,169
216,39	270,612
216,61	538,799
216,83	209,687
217,04	831,124
217,26	29,306
217,47	146,296
217,69	274,494
217,91	124,820
218,12	-107270,000
218,34	92,053
218,55	726,180
218,77	146,123
218,99	136,343
219,20	-125,361
219,42	465,351
219,63	-107,825
219,85	-167,503
220,06	69,885
220,28	255,485
220,50	51,416
220,71	90,544
220,93	4333,396
221,14	-2629,700
221,36	-17,533
221,58	109,327
221,79	87,579
222,01	474,741
222,22	747,171
222,44	113,146
222,65	150,832
222,87	643,147
223,09	182,852
223,30	43,154
223,52	140,654
223,73	220,041
223,95	28,127
224,16	69,010
224,38	390,687
224,60	57,519
224,81	50,510
225,03	152,830
225,24	266,428
225,46	121,379
225,67	59,619
225,89	96,819
226,10	754,127
226,32	66,160
226,54	20,744
226,75	59,025
226,97	177,316
227,18	176,976
227,40	78,811
227,61	58,704
227,83	51,009
228,04	136,075
228,26	41,010
228,47	60,338
228,69	329,952
228,91	100,268
229,12	74,369
229,34	46,110
229,55	67,544
229,77	16,109
229,98	37,976
230,20	77,744
230,41	49,550
230,63	90,679
230,84	13,969
231,06	21,772
231,27	39,792
231,49	77,692
231,71	29,200
231,92	38,044
232,14	25,427
232,35	64,402
232,57	60,988
232,78	-3,527
233,00	72,661
233,21	62,890
233,43	19,708
233,64	21,499
233,86	50,064
234,07	49,660
234,29	9,918
234,50	29,024
234,72	39,348
234,93	27,355
235,15	23,952
235,36	19,406
235,58	49,363
235,79	52,629
236,01	24,775
236,22	18,085
236,44	65,299
236,65	44,957
236,87	31,432
237,08	18,601
237,30	2,689
237,51	37,875
237,73	5,901
237,94	11,509
238,16	22,365
238,37	17,782
238,59	24,088
238,80	14,822
239,02	19,005
239,23	23,870
239,45	-0,099
239,66	29,828
239,88	36,498
240,09	22,116
240,31	15,817
240,52	1,647
240,74	21,212
240,95	9,435
241,17	7,773
241,38	8,119
241,60	18,995
241,81	35,922
242,03	12,808
242,24	9,597
242,46	21,800
242,67	-1,241
242,89	1,393
243,10	14,456
243,32	20,955
243,53	19,556
243,75	9,787
243,96	8,336
244,18	12,315
244,39	8,965
244,60	12,549
244,82	2,404
245,03	20,822
245,25	16,598
245,46	27,599
245,68	6,562
245,89	18,081
246,11	17,610
246,32	13,400
246,54	12,489
246,75	11,468
246,97	16,152
247,18	24,514
247,39	5,445
247,61	6,050
247,82	14,312
248,04	5,203
248,25	8,128
248,47	15,853
248,68	17,047
248,90	7,795
249,11	6,557
249,33	17,065
249,54	10,614
249,75	14,915
249,97	8,667
250,18	22,451
250,40	20,846
250,61	-5,415
250,83	7,275
251,04	8,138
251,25	21,277
251,47	-1,349
251,68	13,882
251,90	14,595
252,11	16,281
252,33	7,909
252,54	10,959
252,76	9,548
252,97	7,200
253,18	-0,914
253,40	10,449
253,61	9,083
253,83	14,302
254,04	12,249
254,25	8,376
254,47	4,929
254,68	8,438
254,90	7,954
255,11	8,299
255,33	13,662
255,54	10,005
255,75	6,899
255,97	11,391
256,18	6,746
256,40	10,087
256,61	7,047
256,82	5,829
257,04	15,830
257,25	4,142
257,47	2,847
257,68	7,409
257,89	10,213
258,11	14,474
258,32	6,906
258,54	8,974
258,75	11,803
258,96	15,152
259,18	6,698
259,39	6,151
259,61	10,697
259,82	7,514
260,03	9,005
260,25	7,657
260,46	8,731
260,68	4,554
260,89	4,568
261,10	7,700
261,32	8,839
261,53	7,736
261,75	14,591
261,96	0,548
262,17	14,571
262,39	12,570
262,60	7,168
262,81	-1,819
263,03	15,022
263,24	11,676
263,46	4,600
263,67	4,636
263,88	7,732
264,10	10,019
264,31	6,313
264,52	9,205
264,74	10,661
264,95	6,267
265,17	8,344
265,38	4,461
265,59	11,166
265,81	12,016
266,02	5,105
266,23	4,994
266,45	13,688
266,66	13,222
266,87	11,685
267,09	7,048
267,30	10,932
267,52	10,924
267,73	5,943
267,94	6,847
268,16	9,933
268,37	4,256
268,58	6,649
268,80	2,985
269,01	9,572
269,22	12,224
269,44	7,316
269,65	8,897
269,86	5,483
270,08	9,212
270,29	6,593
270,50	7,697
270,72	10,585
270,93	7,493
271,14	3,404
271,36	5,950
271,57	11,131
271,78	7,137
272,00	10,326
272,21	9,168
272,42	10,755
272,64	8,723
272,85	3,856
273,06	8,892
273,28	8,262
273,49	9,444
273,70	12,288
273,92	8,583
274,13	8,398
274,34	6,881
274,56	10,776
274,77	6,771
274,98	12,310
275,20	9,383
275,41	6,265
275,62	8,140
275,84	7,410
276,05	15,733
276,26	1,735
276,47	1,775
276,69	9,694
276,90	8,525
277,11	1,781
277,33	7,672
277,54	9,266
277,75	7,324
277,97	3,025
278,18	4,988
278,39	10,618
278,61	6,920
278,82	10,679
279,03	7,140
279,24	7,862
279,46	8,052
279,67	9,751
279,88	8,957
280,10	10,017
280,31	1,884
280,52	7,781
280,73	2,874
280,95	11,635
281,16	8,551
281,37	7,158
281,59	10,155
281,80	13,585
282,01	9,819
282,22	6,953
282,44	3,709
282,65	12,130
282,86	10,114
283,08	8,981
283,29	7,231
283,50	7,187
283,71	10,642
283,93	8,071
284,14	9,664
284,35	5,900
284,56	9,151
284,78	6,917
284,99	7,248
285,20	10,912
285,42	8,362
285,63	6,086
285,84	0,898
286,05	5,360
286,27	4,898
286,48	3,872
286,69	4,303
286,90	6,804
287,12	4,507
287,33	2,835
287,54	2,782
287,75	9,540
287,97	8,644
288,18	3,597
288,39	5,679
288,60	7,106
288,82	8,294
289,03	7,055
289,24	7,231
289,45	11,126
289,67	6,445
289,88	4,720
290,09	7,800
290,30	7,318
290,52	6,343
290,73	2,320
290,94	2,259
291,15	4,880
291,37	6,545
291,58	7,166
291,79	6,410
292,00	9,305
292,21	7,470
292,43	5,112
292,64	4,293
292,85	5,067
293,06	7,940
293,28	6,761
293,49	3,251
293,70	9,979
293,91	5,665
294,12	7,624
294,34	6,745
294,55	8,232
294,76	5,533
294,97	8,607
295,19	3,575
295,40	8,893
295,61	10,893
295,82	2,763
296,03	7,199
296,25	7,841
296,46	4,657
296,67	2,323
296,88	3,371
297,09	6,712
297,31	5,390
297,52	6,821
297,73	4,963
297,94	8,616
298,15	6,889
298,37	4,974
298,58	7,015
298,79	7,060
299,00	4,215
299,21	3,485
299,43	2,971
299,64	12,423
299,85	7,842
300,06	3,495
300,27	2,022
300,49	10,788
300,70	6,347
300,91	7,480
301,12	5,523
301,33	11,849
301,54	4,497
301,76	4,764
301,97	5,069
302,18	6,050
302,39	9,132
302,60	14,892
302,82	4,941
303,03	9,954
303,24	5,651
303,45	7,433
303,66	4,420
303,87	6,667
304,09	9,261
304,30	5,740
304,51	5,479
304,72	5,707
304,93	8,795
305,14	6,320
305,36	2,639
305,57	2,844
305,78	6,330
305,99	5,692
306,20	7,541
306,41	3,764
306,62	3,388
306,84	4,197
307,05	2,428
307,26	7,202
307,47	11,176
307,68	5,666
307,89	6,037
308,11	7,719
308,32	5,255
308,53	6,473
308,74	4,485
308,95	6,022
309,16	6,839
309,37	7,957
309,59	4,717
309,80	7,155
310,01	6,565
310,22	7,500
310,43	3,398
310,64	5,519
310,85	8,034
311,06	4,233
311,28	6,690
311,49	6,516
311,70	9,362
311,91	5,727
312,12	3,203
312,33	7,725
312,54	6,877
312,75	6,087
312,97	3,047
313,18	7,533
313,39	4,800
313,60	5,210
313,81	7,082
314,02	7,062
314,23	9,005
314,44	2,487
314,65	5,806
314,87	3,791
315,08	5,264
315,29	7,986
315,50	5,839
315,71	10,055
315,92	10,956
316,13	6,252
316,34	5,702
316,55	10,073
316,77	3,663
316,98	3,434
317,19	3,944
317,40	5,707
317,61	9,287
317,82	3,599
318,03	1,247
318,24	5,466
318,45	9,736
318,66	5,983
318,87	3,914
319,09	8,215
319,30	7,075
319,51	8,238
319,72	6,642
319,93	7,960
320,14	8,693
320,35	5,516
320,56	4,771
320,77	5,196
320,98	10,028
321,19	5,152
321,40	5,231
321,62	8,740
321,83	6,723
322,04	6,312
322,25	7,227
322,46	11,267
322,67	8,110
322,88	8,315
323,09	4,998
323,30	7,247
323,51	11,728
323,72	7,845
323,93	2,224
324,14	5,720
324,35	2,278
324,56	2,760
324,77	8,006
324,99	6,030
325,20	2,358
325,41	5,202
325,62	5,642
325,83	2,133
326,04	7,139
326,25	7,040
326,46	3,036
326,67	6,216
326,88	6,883
327,09	5,897
327,30	3,211
327,51	6,766
327,72	7,240
327,93	7,746
328,14	3,349
328,35	6,077
328,56	6,858
328,77	5,210
328,98	9,610
329,19	5,765
329,40	8,597
329,61	3,559
329,82	0,599
330,04	6,805
330,25	6,628
330,46	7,103
330,67	3,601
330,88	5,484
331,09	6,280
331,30	6,000
331,51	5,272
331,72	8,778
331,93	8,554
332,14	4,942
332,35	8,245
332,56	6,287
332,77	8,051
332,98	1,791
333,19	4,631
333,40	5,743
333,61	6,082
333,82	11,214
334,03	5,263
334,24	10,476
334,45	8,370
334,66	6,320
334,87	6,394
335,08	3,927
335,29	5,889
335,50	2,629
335,71	5,668
335,92	8,788
336,13	8,332
336,34	2,609
336,55	7,587
336,76	7,859
336,97	6,463
337,18	2,641
337,39	7,503
337,60	6,343
337,81	6,648
338,02	5,838
338,23	6,854
338,44	6,649
338,65	4,772
338,86	7,617
339,07	5,808
339,28	5,689
339,49	6,407
339,70	1,320
339,91	6,151
340,11	12,737
340,32	5,134
340,53	5,927
340,74	3,214
340,95	3,885
341,16	7,768
341,37	6,145
341,58	3,299
341,79	3,631
342,00	5,624
342,21	7,086
342,42	6,155
342,63	11,123
342,84	0,656
343,05	7,191
343,26	7,823
343,47	6,810
343,68	6,576
343,89	5,515
344,10	7,621
344,31	6,599
344,52	6,050
344,73	3,581
344,94	5,775
345,14	7,036
345,35	6,268
345,56	8,873
345,77	7,862
345,98	8,565
346,19	5,446
346,40	7,024
346,61	5,104
346,82	6,821
347,03	8,198
347,24	7,970
347,45	5,466
347,66	10,063
347,87	5,671
348,08	7,704
348,28	2,372
348,49	5,660
348,70	7,164
348,91	7,359
349,12	5,396
349,33	18,836
349,54	5,533
349,75	9,196
349,96	5,030
350,17	6,409
350,38	1,906
350,59	8,552
350,80	4,493
351,00	11,296
351,21	11,151
351,42	5,091
351,63	2,484
351,84	7,484
352,05	10,517
352,26	3,368
352,47	4,882
352,68	7,582
352,89	9,345
353,09	7,313
353,30	3,858
353,51	2,972
353,72	10,347
353,93	8,773
354,14	1,454
354,35	4,513
354,56	11,999
354,77	7,926
354,98	3,834
355,18	8,822
355,39	11,482
355,60	7,540
355,81	6,166
356,02	8,700
356,23	6,350
356,44	5,673
356,65	7,990
356,85	11,351
357,06	9,267
357,27	5,885
357,48	3,004
357,69	9,702
357,90	6,195
358,11	3,024
358,32	7,285
358,52	11,629
358,73	10,021
358,94	5,093
359,15	7,226
359,36	8,754
359,57	5,892
359,78	7,127
359,98	4,659
360,19	3,741
360,40	7,144
360,61	8,083
360,82	5,881
361,03	12,244
361,24	10,210
361,44	2,758
361,65	6,667
361,86	3,383
362,07	8,398
362,28	3,251
362,49	2,744
362,70	6,878
362,90	10,167
363,11	5,820
363,32	1,732
363,53	6,545
363,74	11,468
363,95	11,470
364,15	7,313
364,36	11,023
364,57	7,920
364,78	2,888
364,99	5,426
365,20	8,213
365,40	8,663
365,61	5,066
365,82	9,887
366,03	7,400
366,24	8,537
366,45	4,763
366,65	3,917
366,86	6,829
367,07	7,230
367,28	6,779
367,49	7,993
367,69	11,101
367,90	5,475
368,11	5,878
368,32	3,499
368,53	10,805
368,73	8,273
368,94	7,447
369,15	3,908
369,36	12,192
369,57	6,432
369,78	4,752
369,98	8,686
370,19	13,748
370,40	6,166
370,61	7,247
370,82	6,359
371,02	10,323
371,23	11,851
371,44	7,708
371,65	7,936
371,85	8,696
372,06	6,225
372,27	5,979
372,48	6,612
372,69	5,198
372,89	3,460
373,10	4,682
373,31	5,573
373,52	8,671
373,73	11,155
373,93	7,153
374,14	6,019
374,35	11,545
374,56	11,841
374,76	8,502
374,97	4,200
375,18	9,120
375,39	6,318
375,60	9,612
375,80	7,997
376,01	8,601
376,22	9,817
376,43	3,819
376,63	4,203
376,84	4,851
377,05	7,184
377,26	6,786
377,46	4,195
377,67	7,447
377,88	8,645
378,09	4,853
378,29	1,827
378,50	8,102
378,71	11,471
378,92	5,045
379,12	6,246
379,33	7,560
379,54	6,357
379,75	12,491
379,95	6,592
380,16	8,457
380,37	8,638
380,58	6,125
380,78	10,688
380,99	5,211
381,20	3,002
381,41	5,316
381,61	10,043
381,82	6,649
382,03	6,741
382,24	8,882
382,44	6,183
382,65	7,112
382,86	6,072
383,06	6,967
383,27	5,093
383,48	6,742
383,69	11,651
383,89	9,997
384,10	9,405
384,31	8,921
384,51	9,328
384,72	7,529
384,93	4,281
385,14	8,938
385,34	10,882
385,55	8,059
385,76	4,915
385,96	9,491
386,17	8,719
386,38	12,085
386,59	11,859
386,79	8,173
387,00	12,641
387,21	11,489
387,41	9,686
387,62	8,706
387,83	13,866
388,03	9,843
388,24	6,036
388,45	9,539
388,66	11,137
388,86	9,369
389,07	5,286
389,28	16,963
389,48	9,055
389,69	8,405
389,90	8,299
390,10	12,610
390,31	13,245
390,52	6,147
390,72	8,587
390,93	12,237
391,14	9,935
391,34	7,277
391,55	12,495
391,76	14,014
391,96	10,555
392,17	9,981
392,38	10,779
392,58	12,764
392,79	11,146
393,00	9,653
393,20	8,084
393,41	10,336
393,62	11,569
393,82	12,386
394,03	13,258
394,24	12,429
394,44	13,384
394,65	13,748
394,86	7,837
395,06	13,751
395,27	10,646
395,48	10,799
395,68	11,960
395,89	12,379
396,10	17,199
396,30	11,248
396,51	9,119
396,72	14,183
396,92	11,005
397,13	15,266
397,34	8,901
397,54	16,724
397,75	11,046
397,95	8,546
398,16	10,863
398,37	12,636
398,57	12,515
398,78	16,165
398,99	14,192
399,19	15,510
399,40	19,087
399,60	13,745
399,81	14,621
400,02	15,741
400,22	16,839
400,43	13,420
400,64	15,719
400,84	13,606
401,05	19,249
401,25	19,200
401,46	18,047
401,67	16,087
401,87	15,274
402,08	12,826
402,29	13,597
402,49	19,082
402,70	17,459
402,90	16,754
403,11	17,480
403,32	15,638
403,52	15,307
403,73	15,597
403,93	19,278
404,14	20,809
404,35	18,099
404,55	12,468
404,76	14,915
404,96	19,157
405,17	16,652
405,38	20,408
405,58	21,760
405,79	19,509
405,99	20,416
406,20	18,037
406,40	15,033
406,61	22,691
406,82	16,529
407,02	21,718
407,23	18,253
407,43	17,617
407,64	16,650
407,85	19,590
408,05	11,387
408,26	28,214
408,46	23,737
408,67	13,262
408,87	17,969
409,08	21,283
409,29	26,383
409,49	20,959
409,70	23,358
409,90	22,439
410,11	20,448
410,31	25,406
410,52	18,075
410,72	21,778
410,93	22,835
411,14	20,015
411,34	21,234
411,55	22,226
411,75	26,191
411,96	22,385
412,16	23,318
412,37	24,692
412,57	26,792
412,78	21,655
412,99	21,296
413,19	25,222
413,40	23,641
413,60	20,277
413,81	23,245
414,01	21,627
414,22	21,496
414,42	20,067
414,63	18,996
414,83	29,467
415,04	28,752
415,24	24,518
415,45	20,993
415,65	22,568
415,86	23,340
416,07	22,039
416,27	25,171
416,48	25,328
416,68	33,652
416,89	19,986
417,09	22,811
417,30	30,827
417,50	22,890
417,71	29,169
417,91	25,759
418,12	20,714
418,32	23,912
418,53	22,007
418,73	26,076
418,94	23,216
419,14	27,890
419,35	21,364
419,55	24,454
419,76	29,076
419,96	23,373
420,17	20,435
420,37	27,835
420,58	29,860
420,78	25,726
420,99	25,352
421,19	28,691
421,40	25,795
421,60	31,051
421,81	24,646
422,01	24,291
422,22	27,786
422,42	29,547
422,63	26,646
422,83	22,811
423,04	29,870
423,24	33,578
423,45	26,457
423,65	27,672
423,86	31,636
424,06	30,127
424,27	27,189
424,47	24,132
424,67	25,018
424,88	25,669
425,08	24,646
425,29	31,049
425,49	28,078
425,70	23,937
425,90	25,889
426,11	24,390
426,31	25,774
426,52	27,092
426,72	27,059
426,93	25,062
427,13	34,771
427,33	29,023
427,54	27,360
427,74	28,519
427,95	31,576
428,15	24,405
428,36	26,596
428,56	24,137
428,77	27,045
428,97	30,322
429,18	29,466
429,38	26,406
429,58	31,581
429,79	30,066
429,99	26,935
430,20	19,724
430,40	36,141
430,61	31,185
430,81	27,268
431,01	27,577
431,22	31,702
431,42	33,395
431,63	24,326
431,83	25,234
432,04	30,043
432,24	29,713
432,44	27,473
432,65	26,646
432,85	25,484
433,06	31,000
433,26	27,882
433,47	27,070
433,67	25,796
433,87	25,807
434,08	25,048
434,28	23,202
434,49	27,189
434,69	32,180
434,89	22,696
435,10	23,295
435,30	28,690
435,51	23,714
435,71	26,897
435,91	24,443
436,12	25,865
436,32	26,988
436,53	27,506
436,73	30,207
436,93	28,878
437,14	28,297
437,34	25,537
437,55	26,068
437,75	28,872
437,95	30,542
438,16	25,720
438,36	28,622
438,57	26,174
438,77	28,464
438,97	28,330
439,18	31,735
439,38	28,276
439,58	24,787
439,79	26,131
439,99	28,645
440,20	31,645
440,40	32,274
440,60	23,410
440,81	30,732
441,01	25,396
441,21	29,655
441,42	25,721
441,62	32,873
441,83	27,287
442,03	26,014
442,23	30,902
442,44	28,826
442,64	31,065
442,84	26,035
443,05	28,230
443,25	27,947
443,45	32,246
443,66	27,881
443,86	27,027
444,06	25,419
444,27	27,526
444,47	31,112
444,67	27,078
444,88	30,123
445,08	32,559
445,28	27,708
445,49	25,279
445,69	26,290
445,90	30,443
446,10	35,028
446,30	31,653
446,51	27,578
446,71	30,649
446,91	31,643
447,12	33,317
447,32	30,289
447,52	31,126
447,72	30,772
447,93	26,634
448,13	24,075
448,33	32,474
448,54	32,362
448,74	28,569
448,94	31,730
449,15	32,462
449,35	36,603
449,55	28,052
449,76	32,036
449,96	28,527
450,16	27,062
450,37	27,652
450,57	26,728
450,77	25,277
450,98	29,409
451,18	31,061
451,38	26,065
451,58	31,145
451,79	25,183
451,99	30,338
452,19	28,079
452,40	33,730
452,60	25,758
452,80	24,661
453,00	29,725
453,21	29,969
453,41	31,569
453,61	25,263
453,82	32,198
454,02	22,716
454,22	35,596
454,42	30,211
454,63	22,808
454,83	27,899
455,03	31,490
455,24	29,898
455,44	28,591
455,64	22,711
455,84	26,778
456,05	26,334
456,25	27,029
456,45	32,036
456,65	27,483
456,86	26,860
457,06	27,805
457,26	27,411
457,47	35,063
457,67	26,967
457,87	26,109
458,07	25,339
458,28	30,709
458,48	32,297
458,68	26,218
458,88	31,946
459,09	31,060
459,29	33,316
459,49	27,834
459,69	29,057
459,90	34,572
460,10	23,022
460,30	27,034
460,50	30,318
460,71	29,887
460,91	23,369
461,11	29,962
461,31	28,383
461,52	31,755
461,72	26,416
461,92	26,610
462,12	38,663
462,32	23,889
462,53	29,226
462,73	25,852
462,93	31,053
463,13	29,076
463,34	27,803
463,54	29,905
463,74	27,933
463,94	28,886
464,14	27,304
464,35	24,720
464,55	31,943
464,75	32,805
464,95	27,721
465,16	25,224
465,36	28,121
465,56	27,812
465,76	23,897
465,96	24,460
466,17	27,381
466,37	22,750
466,57	30,929
466,77	30,175
466,97	28,197
467,18	30,403
467,38	27,193
467,58	27,956
467,78	33,354
467,98	30,047
468,19	29,456
468,39	31,890
468,59	29,083
468,79	29,978
468,99	27,391
469,19	25,137
469,40	32,230
469,60	25,916
469,80	25,107
470,00	26,832
470,20	31,603
470,41	29,573
470,61	28,366
470,81	28,468
471,01	28,857
471,21	27,717
471,41	24,924
471,62	28,637
471,82	25,180
472,02	24,007
472,22	24,087
472,42	26,379
472,62	28,941
472,83	25,810
473,03	30,669
473,23	29,121
473,43	31,021
473,63	29,479
473,83	28,676
474,03	24,774
474,24	34,651
474,44	24,400
474,64	28,602
474,84	24,657
475,04	27,023
475,24	29,914
475,45	23,967
475,65	23,438
475,85	30,754
476,05	20,686
476,25	27,753
476,45	25,759
476,65	30,638
476,85	28,578
477,06	25,364
477,26	23,625
477,46	26,817
477,66	26,272
477,86	28,008
478,06	23,657
478,26	33,925
478,46	23,800
478,67	29,617
478,87	26,739
479,07	27,513
479,27	29,823
479,47	29,773
479,67	20,652
479,87	22,489
480,07	27,453
480,28	26,575
480,48	22,487
480,68	29,065
480,88	30,830
481,08	26,400
481,28	25,929
481,48	24,535
481,68	26,364
481,88	24,765
482,08	25,415
482,29	29,405
482,49	21,423
482,69	24,501
482,89	24,683
483,09	28,480
483,29	24,691
483,49	22,121
483,69	24,965
483,89	26,908
484,09	22,748
484,29	19,871
484,50	24,545
484,70	25,475
484,90	23,989
485,10	23,721
485,30	26,158
485,50	30,636
485,70	24,809
485,90	21,272
486,10	21,528
486,30	23,289
486,50	25,934
486,70	22,259
486,90	22,416
487,10	27,274
487,30	22,621
487,51	24,947
487,71	23,286
487,91	22,853
488,11	24,759
488,31	19,433
488,51	26,966
488,71	22,905
488,91	25,730
489,11	20,742
489,31	22,460
489,51	24,035
489,71	23,385
489,91	22,938
490,11	21,782
490,31	23,055
490,51	25,401
490,71	24,448
490,91	20,000
491,11	25,152
491,31	23,403
491,51	19,463
491,72	21,930
491,92	25,505
492,12	26,876
492,32	21,843
492,52	25,958
492,72	24,737
492,92	23,781
493,12	24,147
493,32	21,374
493,52	21,246
493,72	23,155
493,92	24,660
494,12	23,799
494,32	23,452
494,52	20,045
494,72	22,039
494,92	21,265
495,12	23,448
495,32	28,038
495,52	20,330
495,72	23,184
495,92	27,381
496,12	25,864
496,32	19,085
496,52	22,494
496,72	22,624
496,92	26,218
497,12	23,235
497,32	22,892
497,52	26,234
497,72	26,018
497,92	23,891
498,12	21,665
498,32	21,341
498,52	24,102
498,72	22,120
498,92	21,677
499,12	24,715
499,32	21,586
499,52	23,087
499,72	23,807
499,92	25,101
500,12	25,383
500,32	26,078
500,52	22,478
500,72	28,717
500,91	24,882
501,11	25,336
501,31	17,191
501,51	22,245
501,71	26,891
501,91	25,145
502,11	22,682
502,31	22,210
502,51	25,252
502,71	20,598
502,91	22,318
503,11	24,392
503,31	22,044
503,51	18,901
503,71	20,916
503,91	25,156
504,11	21,384
504,31	22,456
504,51	21,986
504,71	27,778
504,91	21,702
505,10	25,845
505,30	22,790
505,50	24,440
505,70	19,315
505,90	22,832
506,10	19,317
506,30	23,611
506,50	24,543
506,70	24,370
506,90	20,488
507,10	20,855
507,30	21,943
507,50	25,268
507,70	23,155
507,89	25,034
508,09	22,170
508,29	22,733
508,49	22,459
508,69	21,444
508,89	21,615
509,09	19,206
509,29	19,383
509,49	23,274
509,69	22,649
509,89	23,423
510,09	20,857
510,28	23,161
510,48	19,082
510,68	18,402
510,88	19,893
511,08	20,530
511,28	21,920
511,48	20,784
511,68	19,169
511,88	17,770
512,07	21,078
512,27	20,448
512,47	20,749
512,67	18,535
512,87	17,587
513,07	20,909
513,27	17,987
513,47	18,870
513,67	18,361
513,86	20,166
514,06	20,612
514,26	20,571
514,46	24,526
514,66	18,090
514,86	19,760
515,06	24,280
515,26	23,463
515,45	17,573
515,65	17,776
515,85	19,433
516,05	19,244
516,25	19,860
516,45	20,371
516,65	19,347
516,84	21,516
517,04	20,408
517,24	17,563
517,44	19,178
517,64	24,504
517,84	22,793
518,04	20,851
518,23	23,999
518,43	24,230
518,63	18,049
518,83	18,688
519,03	18,787
519,23	21,371
519,42	16,529
519,62	17,871
519,82	16,982
520,02	18,513
520,22	17,359
520,42	17,569
520,61	20,331
520,81	22,519
521,01	22,860
521,21	14,769
521,41	19,738
521,61	21,328
521,80	14,876
522,00	19,846
522,20	20,530
522,40	21,854
522,60	18,705
522,79	16,220
522,99	21,369
523,19	14,137
523,39	18,508
523,59	17,841
523,78	22,611
523,98	15,527
524,18	18,536
524,38	16,869
524,58	19,503
524,77	22,097
524,97	19,624
525,17	19,717
525,37	17,442
525,57	23,029
525,76	18,009
525,96	19,140
526,16	17,363
526,36	17,709
526,56	17,562
526,75	16,448
526,95	17,902
527,15	16,520
527,35	19,688
527,55	15,034
527,74	21,747
527,94	15,085
528,14	14,161
528,34	16,948
528,53	18,855
528,73	20,692
528,93	18,012
529,13	16,373
529,32	18,343
529,52	20,351
529,72	15,205
529,92	17,867
530,12	16,261
530,31	16,307
530,51	16,903
530,71	17,732
530,91	21,343
531,10	14,345
531,30	16,731
531,50	16,416
531,70	17,076
531,89	17,428
532,09	15,757
532,29	14,183
532,49	17,526
532,68	18,758
532,88	15,767
533,08	15,171
533,28	15,803
533,47	16,272
533,67	17,309
533,87	14,861
534,06	21,757
534,26	17,252
534,46	14,337
534,66	17,208
534,85	17,781
535,05	13,453
535,25	16,521
535,45	13,443
535,64	17,902
535,84	17,137
536,04	12,258
536,23	14,884
536,43	19,866
536,63	13,743
536,83	15,997
537,02	15,295
537,22	14,096
537,42	15,159
537,61	14,558
537,81	15,405
538,01	15,797
538,20	18,560
538,40	14,041
538,60	15,107
538,80	13,768
538,99	15,309
539,19	14,955
539,39	12,999
539,58	16,804
539,78	12,645
539,98	13,201
540,17	10,991
540,37	15,185
540,57	12,874
540,76	13,621
540,96	10,437
541,16	13,095
541,36	11,240
541,55	8,145
541,75	9,936
541,95	11,311
542,14	11,370
542,34	10,925
542,54	9,564
542,73	11,524
542,93	11,899
543,13	10,689
543,32	11,015
543,52	11,482
543,72	9,778
543,91	11,352
544,11	10,465
544,31	8,045
544,50	9,983
544,70	10,672
544,89	10,138
545,09	13,813
545,29	10,038
545,48	11,286
545,68	10,155
545,88	11,491
546,07	10,805
546,27	10,544
546,47	10,860
546,66	13,162
546,86	14,043
547,06	12,885
547,25	10,481
547,45	14,638
547,64	11,252
547,84	14,798
548,04	12,600
548,23	16,476
548,43	14,805
548,63	15,572
548,82	15,078
549,02	12,948
549,21	14,687
549,41	12,792
549,61	14,023
549,80	14,312
550,00	14,146
550,20	11,968
550,39	15,047
550,59	12,914
550,78	15,142
550,98	9,533
551,18	14,449
551,37	14,553
551,57	14,070
551,76	14,166
551,96	14,582
552,16	13,347
552,35	13,298
552,55	14,650
552,74	14,007
552,94	18,005
553,14	13,807
553,33	12,647
553,53	14,179
553,72	14,239
553,92	16,290
554,12	13,258
554,31	15,076
554,51	16,381
554,70	12,940
554,90	14,377
555,09	15,588
555,29	16,749
555,49	15,262
555,68	17,513
555,88	13,575
556,07	14,520
556,27	18,441
556,46	14,964
556,66	11,224
556,86	16,145
557,05	15,702
557,25	13,321
557,44	14,624
557,64	15,196
557,83	14,834
558,03	15,214
558,22	12,866
558,42	12,978
558,62	15,667
558,81	14,854
559,01	14,004
559,20	17,115
559,40	14,272
559,59	13,624
559,79	13,200
559,98	15,618
560,18	16,204
560,37	14,006
560,57	17,901
560,76	12,967
560,96	13,218
561,16	16,239
561,35	14,456
561,55	18,990
561,74	14,642
561,94	16,551
562,13	13,744
562,33	16,361
562,52	16,724
562,72	15,108
562,91	13,265
563,11	14,906
563,30	17,126
563,50	13,339
563,69	13,841
563,89	13,200
564,08	14,793
564,28	12,532
564,47	14,463
564,67	12,699
564,86	16,585
565,06	13,036
565,25	14,850
565,45	16,164
565,64	20,244
565,84	12,456
566,03	13,680
566,23	15,447
566,42	14,016
566,62	13,468
566,81	15,146
567,01	12,848
567,20	14,742
567,40	12,200
567,59	12,025
567,79	15,921
567,98	18,213
568,18	13,545
568,37	13,519
568,57	14,265
568,76	17,213
568,96	14,546
569,15	12,982
569,35	16,626
569,54	18,545
569,73	16,085
569,93	13,145
570,12	13,599
570,32	15,412
570,51	15,323
570,71	15,359
570,90	16,584
571,10	15,343
571,29	13,814
571,49	12,559
571,68	16,845
571,87	14,771
572,07	15,258
572,26	11,691
572,46	15,777
572,65	15,388
572,85	11,632
573,04	15,352
573,24	14,786
573,43	19,096
573,62	16,562
573,82	14,648
574,01	14,055
574,21	14,805
574,40	12,898
574,60	12,406
574,79	17,635
574,98	14,513
575,18	15,914
575,37	14,019
575,57	14,859
575,76	16,745
575,96	16,600
576,15	15,123
576,34	15,329
576,54	15,776
576,73	16,170
576,93	13,837
577,12	16,521
577,31	16,024
577,51	15,223
577,70	13,579
577,90	15,813
578,09	14,217
578,28	14,434
578,48	14,359
578,67	17,294
578,87	16,920
579,06	14,224
579,25	16,100
579,45	16,939
579,64	15,900
579,84	14,779
580,03	14,259
580,22	16,163
580,42	13,951
580,61	15,871
580,81	15,587
581,00	16,644
581,19	17,549
581,39	13,890
581,58	16,040
581,77	15,626
581,97	18,118
582,16	17,076
582,35	14,430
582,55	15,977
582,74	18,384
582,94	15,766
583,13	13,761
583,32	16,281
583,52	16,888
583,71	15,987
583,90	17,737
584,10	18,276
584,29	17,881
584,48	15,662
584,68	16,761
584,87	17,513
585,06	17,225
585,26	15,342
585,45	16,794
585,65	19,059
585,84	16,297
586,03	16,191
586,23	14,943
586,42	17,148
586,61	19,899
586,81	18,736
587,00	16,732
587,19	16,507
587,39	19,440
587,58	18,275
587,77	18,302
587,97	17,426
588,16	16,619
588,35	18,040
588,54	19,014
588,74	17,013
588,93	21,125
589,12	20,321
589,32	19,263
589,51	17,466
589,70	16,915
589,90	17,452
590,09	16,903
590,28	21,239
590,48	18,166
590,67	19,781
590,86	19,385
591,06	19,176
591,25	22,015
591,44	21,388
591,63	19,810
591,83	19,034
592,02	19,142
592,21	19,284
592,41	18,555
592,60	20,597
592,79	21,724
592,98	20,155
593,18	20,264
593,37	20,878
593,56	21,858
593,76	22,101
593,95	19,288
594,14	18,549
594,33	22,692
594,53	19,928
594,72	18,448
594,91	23,992
595,10	23,070
595,30	20,803
595,49	20,817
595,68	24,115
595,88	21,621
596,07	22,020
596,26	22,296
596,45	22,176
596,65	22,499
596,84	21,844
597,03	21,095
597,22	25,410
597,42	23,312
597,61	24,195
597,80	22,799
597,99	22,145
598,19	23,380
598,38	23,869
598,57	22,372
598,76	23,980
598,95	24,096
599,15	23,930
599,34	24,240
599,53	22,977
599,72	22,263
599,92	23,526
600,11	24,129
600,30	24,658
600,49	26,512
600,69	23,889
600,88	25,667
601,07	24,955
601,26	23,878
601,45	26,267
601,65	24,207
601,84	25,492
602,03	23,798
602,22	24,576
602,42	26,777
602,61	24,677
602,80	26,494
602,99	26,345
603,18	24,773
603,38	26,516
603,57	25,693
603,76	23,300
603,95	24,735
604,14	26,560
604,34	25,477
604,53	25,572
604,72	26,362
604,91	26,523
605,10	26,015
605,29	27,671
605,49	23,205
605,68	26,137
605,87	26,509
606,06	27,604
606,25	25,484
606,45	27,800
606,64	25,917
606,83	28,211
607,02	26,256
607,21	27,744
607,40	26,326
607,60	24,851
607,79	24,220
607,98	25,045
608,17	25,253
608,36	25,486
608,55	24,779
608,75	26,032
608,94	24,081
609,13	23,255
609,32	21,613
609,51	23,810
609,70	20,151
609,89	22,725
610,09	21,426
610,28	25,000
610,47	24,123
610,66	21,993
610,85	21,115
611,04	24,848
611,23	21,246
611,43	21,206
611,62	21,461
611,81	23,376
612,00	23,165
612,19	22,307
612,38	23,722
612,57	25,275
612,77	24,822
612,96	23,959
613,15	23,093
613,34	26,667
613,53	25,472
613,72	26,320
613,91	26,095
614,10	24,734
614,29	27,647
614,49	25,268
614,68	25,888
614,87	29,197
615,06	29,971
615,25	24,987
615,44	26,515
615,63	28,486
615,82	25,568
616,01	27,421
616,21	27,041
616,40	27,966
616,59	30,387
616,78	28,955
616,97	30,185
617,16	28,465
617,35	31,130
617,54	30,206
617,73	31,941
617,92	29,902
618,11	31,487
618,31	28,884
618,50	31,266
618,69	31,170
618,88	30,624
619,07	28,226
619,26	27,548
619,45	29,701
619,64	28,058
619,83	28,253
620,02	29,822
620,21	32,233
620,40	31,157
620,59	29,001
620,78	28,784
620,97	30,152
621,17	32,643
621,36	30,618
621,55	30,058
621,74	30,027
621,93	30,721
622,12	29,212
622,31	29,371
622,50	31,282
622,69	32,366
622,88	30,995
623,07	32,335
623,26	33,822
623,45	34,150
623,64	30,581
623,83	30,504
624,02	34,546
624,21	32,418
624,40	31,537
624,59	30,225
624,78	33,261
624,97	33,171
625,16	30,264
625,35	29,914
625,54	30,876
625,73	30,604
625,92	31,294
626,12	31,965
626,31	33,308
626,50	33,979
626,69	31,178
626,88	29,721
627,07	31,541
627,26	32,791
627,45	31,235
627,64	32,200
627,83	32,918
628,02	31,688
628,21	30,963
628,40	31,770
628,59	34,541
628,78	32,755
628,97	31,258
629,16	30,123
629,35	31,929
629,54	33,738
629,73	31,534
629,92	30,216
630,10	33,360
630,29	32,784
630,48	33,089
630,67	31,352
630,86	34,599
631,05	32,086
631,24	34,252
631,43	30,943
631,62	34,819
631,81	33,521
632,00	32,200
632,19	31,901
632,38	32,953
632,57	34,604
632,76	32,197
632,95	32,989
633,14	35,394
633,33	35,706
633,52	34,214
633,71	35,922
633,90	32,131
634,09	34,674
634,28	33,643
634,47	33,222
634,66	35,076
634,85	35,687
635,04	37,765
635,22	34,448
635,41	35,078
635,60	36,186
635,79	35,082
635,98	31,739
636,17	35,750
636,36	33,512
636,55	34,814
636,74	32,732
636,93	34,398
637,12	35,565
637,31	33,776
637,50	32,875
637,69	33,594
637,87	34,632
638,06	33,870
638,25	34,105
638,44	35,662
638,63	33,746
638,82	34,150
639,01	33,081
639,20	33,583
639,39	36,646
639,58	33,435
639,77	34,365
639,95	34,300
640,14	36,064
640,33	34,157
640,52	34,317
640,71	36,155
640,90	36,905
641,09	36,960
641,28	33,507
641,47	36,667
641,66	35,098
641,84	35,089
642,03	33,487
642,22	36,007
642,41	38,753
642,60	34,662
642,79	36,970
642,98	36,552
643,17	33,799
643,35	33,312
643,54	36,094
643,73	35,625
643,92	36,343
644,11	35,474
644,30	34,039
644,49	37,284
644,67	34,767
644,86	34,292
645,05	36,325
645,24	35,751
645,43	33,866
645,62	35,553
645,81	34,667
645,99	37,099
646,18	36,375
646,37	33,755
646,56	35,018
646,75	36,431
646,94	37,462
647,13	34,486
647,31	35,191
647,50	35,901
647,69	38,066
647,88	36,400
648,07	33,881
648,26	41,297
648,44	35,537
648,63	36,088
648,82	35,136
649,01	37,425
649,20	35,079
649,38	35,334
649,57	35,168
649,76	34,453
649,95	36,907
650,14	34,891
650,33	34,950
650,51	35,653
650,70	36,022
650,89	35,785
651,08	35,817
651,27	36,534
651,45	35,964
651,64	34,590
651,83	35,879
652,02	34,873
652,21	38,213
652,39	36,618
652,58	38,073
652,77	36,509
652,96	36,050
653,15	35,678
653,33	35,058
653,52	35,991
653,71	38,773
653,90	36,542
654,09	33,859
654,27	35,786
654,46	38,444
654,65	36,246
654,84	36,057
655,02	37,479
655,21	37,048
655,40	38,077
655,59	36,316
655,77	37,387
655,96	35,383
656,15	37,046
656,34	37,384
656,53	37,085
656,71	37,011
656,90	36,514
657,09	38,475
657,28	37,056
657,46	36,786
657,65	35,394
657,84	34,932
658,03	37,825
658,21	36,440
658,40	35,436
658,59	35,369
658,78	36,704
658,96	35,748
659,15	36,468
659,34	35,301
659,52	37,885
659,71	37,318
659,90	34,112
660,09	37,089
660,27	36,350
660,46	39,489
660,65	35,671
660,84	34,273
661,02	37,437
661,21	38,036
661,40	36,117
661,58	37,373
661,77	36,401
661,96	34,184
662,15	34,512
662,33	35,493
662,52	36,824
662,71	37,042
662,89	33,708
663,08	35,687
663,27	35,535
663,45	36,859
663,64	36,443
663,83	34,795
664,02	35,881
664,20	36,784
664,39	36,426
664,58	36,883
664,76	35,744
664,95	38,179
665,14	35,959
665,32	33,460
665,51	37,401
665,70	37,090
665,88	37,539
666,07	35,947
666,26	38,823
666,44	37,574
666,63	35,336
666,82	35,818
667,00	35,919
667,19	35,753
667,38	35,960
667,56	38,898
667,75	37,301
667,94	36,692
668,12	34,828
668,31	37,041
668,50	37,192
668,68	38,303
668,87	37,112
669,06	37,139
669,24	37,677
669,43	36,169
669,62	33,982
669,80	34,848
669,99	37,173
670,18	35,793
670,36	33,622
670,55	37,297
670,74	37,135
670,92	34,440
671,11	35,803
671,29	35,184
671,48	36,171
671,67	37,245
671,85	35,620
672,04	35,060
672,23	34,431
672,41	36,930
672,60	35,978
672,78	35,537
672,97	36,353
673,16	37,933
673,34	35,395
673,53	36,179
673,71	35,992
673,90	36,807
674,09	38,041
674,27	34,471
674,46	36,248
674,64	37,855
674,83	35,127
675,02	34,135
675,20	36,713
675,39	35,827
675,57	36,725
675,76	34,962
675,95	39,357
676,13	38,556
676,32	37,929
676,50	35,794
676,69	35,092
676,88	36,498
677,06	35,869
677,25	35,949
677,43	38,544
677,62	36,140
677,80	37,090
677,99	36,021
678,18	39,078
678,36	39,385
678,55	34,539
678,73	36,275
678,92	36,868
679,10	38,077
679,29	35,342
679,48	35,002
679,66	36,207
679,85	36,800
680,03	34,333
680,22	35,452
680,40	37,682
680,59	36,391
680,77	35,816
680,96	35,263
681,15	37,683
681,33	38,989
681,52	34,388
681,70	35,891
681,89	39,540
682,07	36,694
682,26	37,974
682,44	37,648
682,63	37,592
682,81	37,217
683,00	38,071
683,18	34,283
683,37	38,301
683,55	35,814
683,74	36,055
683,92	40,986
684,11	36,484
684,29	37,591
684,48	35,334
684,67	34,393
684,85	38,386
685,04	36,544
685,22	36,899
685,41	35,424
685,59	36,418
685,78	36,262
685,96	35,979
686,15	37,132
686,33	36,388
686,52	36,817
686,70	35,954
686,89	37,048
687,07	38,052
687,26	39,337
687,44	37,976
687,62	35,385
687,81	38,232
687,99	35,585
688,18	36,126
688,36	34,712
688,55	38,574
688,73	37,138
688,92	35,979
689,10	36,781
689,29	36,857
689,47	39,945
689,66	37,330
689,84	34,880
690,03	39,145
690,21	36,350
690,40	36,670
690,58	35,279
690,76	34,985
690,95	38,636
691,13	35,037
691,32	36,637
691,50	37,196
691,69	38,374
691,87	35,285
692,06	35,952
692,24	35,816
692,43	38,503
692,61	35,378
692,79	34,708
692,98	33,484
693,16	38,290
693,35	34,432
693,53	36,285
693,72	36,997
693,90	39,165
694,08	34,800
694,27	36,380
694,45	40,211
694,64	40,043
694,82	34,754
695,01	35,948
695,19	35,627
695,37	35,687
695,56	34,815
695,74	35,882
695,93	37,286
696,11	35,407
696,29	37,476
696,48	37,032
696,66	37,476
696,85	37,116
697,03	36,093
697,21	38,715
697,40	37,992
697,58	37,121
697,77	35,575
697,95	37,378
698,13	38,230
698,32	37,510
698,50	36,291
698,69	36,054
698,87	38,430
699,05	36,386
699,24	36,349
699,42	36,487
699,60	34,064
699,79	35,217
699,97	35,485
700,16	34,570
700,34	38,930
700,52	37,694
700,71	35,436
700,89	34,818
701,07	36,963
701,26	37,260
701,44	34,851
701,63	34,384
701,81	36,945
701,99	37,681
702,18	37,715
702,36	34,662
702,54	35,471
702,73	35,566
702,91	36,371
703,09	36,527
703,28	35,850
703,46	36,431
703,64	36,865
703,83	35,823
704,01	37,416
704,19	36,079
704,38	34,760
704,56	34,201
704,74	37,670
704,93	37,002
705,11	35,379
705,29	37,068
705,48	42,105
705,66	38,894
705,84	36,460
706,03	33,377
706,21	36,234
706,39	36,511
706,58	35,389
706,76	35,543
706,94	38,899
707,12	36,677
707,31	35,490
707,49	34,833
707,67	37,128
707,86	38,204
708,04	35,909
708,22	34,987
708,41	36,107
708,59	35,309
708,77	34,764
708,95	37,073
709,14	40,986
709,32	36,674
709,50	34,080
709,69	33,780
709,87	34,359
710,05	36,004
710,23	34,165
710,42	35,104
710,60	36,550
710,78	37,714
710,97	36,684
711,15	36,598
711,33	38,021
711,51	35,411
711,70	33,697
711,88	34,859
712,06	38,143
712,24	36,413
712,43	37,216
712,61	34,892
712,79	36,448
712,97	35,054
713,16	35,268
713,34	36,827
713,52	38,201
713,70	36,612
713,89	35,465
714,07	34,564
714,25	37,140
714,43	38,303
714,62	33,735
714,80	35,956
714,98	35,510
715,16	37,627
715,35	35,383
715,53	35,317
715,71	38,518
715,89	38,656
716,07	36,481
716,26	40,381
716,44	38,537
716,62	37,448
716,80	36,747
716,99	35,242
717,17	38,568
717,35	36,876
717,53	34,183
717,71	35,958
717,90	37,124
718,08	37,626
718,26	33,866
718,44	36,844
718,62	38,447
718,81	37,335
718,99	34,317
719,17	35,697
719,35	36,222
719,53	35,347
719,72	35,783
719,90	36,609
720,08	36,863
720,26	38,945
720,44	35,896
720,62	35,409
720,81	38,654
720,99	40,074
721,17	35,408
721,35	37,820
721,53	37,943
721,72	38,216
721,90	36,292
722,08	37,932
722,26	39,390
722,44	36,178
722,62	35,619
722,81	35,664
722,99	35,843
723,17	36,000
723,35	36,808
723,53	34,903
723,71	38,981
723,89	39,318
724,08	33,687
724,26	36,662
724,44	37,321
724,62	36,130
724,80	36,456
724,98	36,622
725,16	40,270
725,35	38,352
725,53	34,976
725,71	35,087
725,89	37,613
726,07	39,815
726,25	39,117
726,43	34,687
726,61	37,284
726,80	38,296
726,98	35,422
727,16	35,966
727,34	36,187
727,52	35,259
727,70	34,536
727,88	35,965
728,06	33,099
728,25	33,687
728,43	36,050
728,61	36,366
728,79	34,871
728,97	37,174
729,15	36,385
729,33	37,331
729,51	36,424
729,69	38,723
729,87	35,746
730,06	37,462
730,24	35,767
730,42	38,837
730,60	32,275
730,78	36,484
730,96	38,715
731,14	39,063
731,32	37,180
731,50	34,303
731,68	34,574
731,86	38,359
732,04	36,470
732,22	35,728
732,41	39,232
732,59	36,084
732,77	37,742
732,95	37,303
733,13	37,571
733,31	36,455
733,49	35,502
733,67	37,860
733,85	39,236
734,03	37,954
734,21	34,270
734,39	37,847
734,57	39,827
734,75	37,483
734,93	35,685
735,11	36,888
735,29	34,836
735,47	39,302
735,65	36,665
735,84	34,968
736,02	38,512
736,20	40,114
736,38	35,250
736,56	36,494
736,74	38,308
736,92	36,126
737,10	36,293
737,28	38,389
737,46	37,587
737,64	35,413
737,82	35,465
738,00	37,404
738,18	38,450
738,36	38,272
738,54	37,139
738,72	33,851
738,90	36,859
739,08	37,012
739,26	32,842
739,44	37,756
739,62	37,312
739,80	36,806
739,98	37,665
740,16	36,937
740,34	37,233
740,52	36,996
740,70	36,427
740,88	36,568
741,06	34,983
741,24	39,089
741,42	36,647
741,60	34,448
741,78	40,121
741,96	37,588
742,14	35,173
742,32	34,634
742,50	36,565
742,68	39,588
742,86	36,674
743,04	35,295
743,21	38,365
743,39	38,340
743,57	35,432
743,75	36,019
743,93	34,376
744,11	33,952
744,29	36,421
744,47	36,860
744,65	37,579
744,83	36,781
745,01	35,802
745,19	38,295
745,37	40,037
745,55	39,262
745,73	38,137
745,91	35,267
746,09	35,865
746,27	34,742
746,45	33,790
746,62	38,048
746,80	35,881
746,98	37,451
747,16	35,406
747,34	36,619
747,52	37,471
747,70	38,634
747,88	36,152
748,06	35,751
748,24	38,133
748,42	38,962
748,60	36,114
748,78	35,237
748,95	36,938
749,13	39,609
749,31	38,146
749,49	35,206
749,67	38,438
749,85	38,885
750,03	36,220
750,21	35,602
750,39	37,799
750,57	36,866
750,74	36,722
750,92	35,847
751,10	36,958
751,28	35,272
751,46	37,228
751,64	35,665
751,82	37,449
752,00	38,878
752,17	36,601
752,35	35,128
752,53	37,050
752,71	37,946
752,89	36,199
753,07	36,052
753,25	38,779
753,43	37,166
753,60	38,198
753,78	34,671
753,96	38,401
754,14	36,732
754,32	35,108
754,50	36,187
754,68	39,397
754,85	37,377
755,03	37,423
755,21	37,158
755,39	40,292
755,57	36,275
755,75	36,842
755,92	34,237
756,10	38,529
756,28	38,814
756,46	37,452
756,64	35,833
756,82	37,283
756,99	37,482
757,17	35,827
757,35	36,136
757,53	40,616
757,71	40,296
757,89	34,725
758,06	35,960
758,24	40,424
758,42	38,067
758,60	35,067
758,78	35,774
758,95	38,216
759,13	39,278
759,31	36,438
759,49	33,697
759,67	38,426
759,84	36,550
760,02	37,617
760,20	34,994
760,38	37,204
760,56	35,658
760,73	36,178
760,91	36,403
761,09	40,597
761,27	35,983
761,45	36,861
761,62	37,423
761,80	37,168
761,98	39,163
762,16	37,832
762,33	37,242
762,51	40,321
762,69	34,934
762,87	35,914
763,05	35,270
763,22	36,565
763,40	36,124
763,58	35,701
763,76	37,409
763,93	39,214
764,11	37,556
764,29	37,352
764,47	38,044
764,64	38,288
764,82	39,099
765,00	35,836
765,18	32,606
765,35	36,020
765,53	35,861
765,71	36,234
765,89	35,630
766,06	36,295
766,24	39,520
766,42	37,138
766,60	35,237
766,77	37,000
766,95	35,900
767,13	35,174
767,30	36,684
767,48	36,537
767,66	33,867
767,84	33,043
768,01	35,928
768,19	37,342
768,37	36,631
768,54	35,009
768,72	36,791
768,90	38,792
769,08	36,382
769,25	36,792
769,43	36,153
769,61	33,842
769,78	38,418
769,96	36,180
770,14	39,041
770,31	39,965
770,49	38,682
770,67	39,079
770,85	35,455
771,02	36,214
771,20	36,344
771,38	37,979
771,55	36,220
771,73	36,868
771,91	36,528
772,08	38,564
772,26	37,321
772,44	36,181
772,61	36,752
772,79	36,375
772,97	35,497
773,14	35,413
773,32	37,488
773,50	35,833
773,67	36,711
773,85	39,489
774,03	37,407
774,20	37,192
774,38	36,051
774,56	35,678
774,73	34,365
774,91	35,884
775,09	35,642
775,26	37,405
775,44	38,290
775,61	37,095
775,79	36,411
775,97	39,077
776,14	38,007
776,32	35,423
776,50	38,473
776,67	37,842
776,85	37,022
777,03	34,829
777,20	37,769
777,38	40,791
777,55	39,666
777,73	35,884
777,91	37,155
778,08	38,351
778,26	38,098
778,43	39,005
778,61	32,021
778,79	37,166
778,96	34,628
779,14	36,758
779,32	37,051
779,49	37,742
779,67	40,034
779,84	36,592
780,02	37,933
780,20	35,002
780,37	41,567
780,55	33,781
780,72	40,250
780,90	37,987
781,07	36,960
781,25	39,124
781,43	37,343
781,60	37,416
781,78	36,722
781,95	37,033
782,13	39,797
782,30	39,854
782,48	40,231
782,66	35,985
782,83	35,353
783,01	44,477
783,18	38,158
783,36	39,770
783,53	38,105
783,71	36,926
783,89	37,900
784,06	38,047
784,24	36,554
784,41	37,766
784,59	37,475
784,76	39,293
784,94	37,846
785,11	37,883
785,29	34,625
785,46	36,282
785,64	38,204
785,82	40,078
785,99	36,883
786,17	36,263
786,34	33,834
786,52	38,526
786,69	40,404
786,87	37,533
787,04	36,680
787,22	33,987
787,39	42,159
787,57	40,065
787,74	36,872
787,92	40,701
788,09	42,056
788,27	36,653
788,44	37,138
788,62	38,212
788,79	39,180
788,97	38,756
789,14	37,599
789,32	39,127
789,49	39,236
789,67	37,713
789,84	38,648
790,02	38,008
790,19	36,783
790,37	39,077
790,54	37,438
790,72	43,726
790,89	41,538
791,07	38,243
791,24	33,656
791,42	37,871
791,59	39,913
791,77	35,361
791,94	35,172
792,12	37,079
792,29	40,379
792,47	37,812
792,64	41,563
792,81	40,783
792,99	38,121
793,16	37,757
793,34	39,882
793,51	40,345
793,69	39,666
793,86	35,052
794,04	37,570
794,21	41,043
794,39	33,234
794,56	36,582
794,73	41,722
794,91	41,885
795,08	39,240
795,26	38,411
795,43	37,630
795,61	42,860
795,78	39,540
795,95	39,219
796,13	39,069
796,30	40,028
796,48	35,910
796,65	37,869
796,83	36,101
797,00	42,502
797,17	36,251
797,35	36,800
797,52	37,427
797,70	43,417
797,87	39,173
798,04	35,080
798,22	35,299
798,39	39,166
798,57	37,028
798,74	37,233
798,91	36,641
799,09	38,391
799,26	37,858
799,44	39,834
799,61	34,800
799,78	38,705
799,96	43,016
800,13	37,492
800,31	38,738
800,48	41,766
800,65	42,263
800,83	38,644
801,00	36,371
801,17	39,237
801,35	42,525
801,52	38,283
801,70	40,248
801,87	38,904
802,04	42,911
802,22	36,275
802,39	35,547
802,56	42,630
802,74	41,180
802,91	38,827
803,08	36,001
803,26	41,406
803,43	44,743
803,61	39,830
803,78	37,764
803,95	41,727
804,13	41,111
804,30	39,098
804,47	40,591
804,65	41,096
804,82	35,618
804,99	36,653
805,17	38,270
805,34	44,846
805,51	42,929
805,69	35,607
805,86	37,866
806,03	48,252
806,21	42,781
806,38	36,502
806,55	39,890
806,72	44,757
806,90	43,159
807,07	37,168
807,24	36,641
807,42	39,925
807,59	41,228
807,76	32,369
807,94	37,596
808,11	40,027
808,28	43,849
808,45	37,333
808,63	38,393
808,80	41,454
808,97	41,541
809,15	33,195
809,32	40,857
809,49	38,187
809,67	38,740
809,84	41,788
810,01	44,128
810,18	50,238
810,36	43,477
810,53	39,693
810,70	37,219
810,87	43,856
811,05	41,002
811,22	38,690
811,39	41,126
811,57	44,559
811,74	42,337
811,91	41,030
812,08	39,558
812,26	40,433
812,43	35,411
812,60	41,523
812,77	35,775
812,95	40,726
813,12	43,046
813,29	37,398
813,46	37,701
813,64	41,158
813,81	43,847
813,98	39,575
814,15	41,959
814,32	47,470
814,50	44,131
814,67	42,499
814,84	40,934
815,01	41,160
815,19	32,421
815,36	34,692
815,53	37,994
815,70	39,535
815,87	43,719
816,05	35,501
816,22	42,621
816,39	48,705
816,56	48,008
816,74	40,059
816,91	37,088
817,08	50,570
817,25	43,496
817,42	41,928
817,60	39,389
817,77	44,805
817,94	40,650
818,11	36,059
818,28	39,647
818,45	44,704
818,63	44,445
818,80	45,187
818,97	36,553
819,14	48,797
819,31	49,968
819,49	43,706
819,66	35,010
819,83	39,440
820,00	41,735
820,17	39,274
820,34	42,746
820,52	46,171
820,69	41,181
820,86	39,886
821,03	37,643
821,20	41,915
821,37	48,281
821,55	34,787
821,72	35,307
821,89	44,024
822,06	46,817
822,23	36,523
822,40	38,577
822,57	41,567
822,75	50,220
822,92	30,625
823,09	41,157
823,26	45,360
823,43	45,710
823,60	39,243
823,77	41,144
823,94	51,629
824,12	50,636
824,29	38,597
824,46	40,771
824,63	48,624
824,80	51,994
824,97	37,048
825,14	41,634
825,31	45,506
825,49	46,000
825,66	38,728
825,83	38,702
826,00	42,330
826,17	52,000
826,34	42,544
826,51	35,797
826,68	38,683
826,85	41,534
827,02	39,207
827,20	38,409
827,37	44,440
827,54	46,158
827,71	43,148
827,88	39,197
828,05	45,196
828,22	43,446
828,39	46,463
828,56	43,233
828,73	46,302
828,90	49,521
829,07	42,465
829,25	40,056
829,42	44,581
829,59	41,750
829,76	35,649
829,93	40,811
830,10	46,542
830,27	41,330
830,44	39,824
830,61	35,393
830,78	55,823
830,95	45,757
831,12	34,596
831,29	36,147
831,46	39,780
831,63	36,531
831,80	38,880
831,97	40,466
832,14	52,236
832,31	57,346
832,48	40,525
832,65	49,108
832,83	39,528
833,00	45,801
833,17	33,746
833,34	37,977
833,51	46,669
833,68	56,619
833,85	48,247
834,02	34,636
834,19	48,073
834,36	48,528
834,53	31,374
834,70	41,207
834,87	56,137
835,04	42,042
835,21	38,579
835,38	41,366
835,55	45,779
835,72	57,682
835,89	39,622
836,06	45,572
836,23	60,972
836,40	43,164
836,57	33,912
836,74	48,890
836,91	44,751
837,08	52,111
837,25	44,476
837,42	36,580
837,59	44,909
837,76	42,827
837,93	42,303
838,09	43,000
838,26	51,111
838,43	50,966
838,60	44,574
838,77	39,051
838,94	48,031
839,11	33,512
839,28	38,656
839,45	41,556
839,62	40,562
839,79	41,176
839,96	46,273
840,13	45,921
840,30	36,372
840,47	36,282
840,64	53,672
840,81	43,051
840,98	36,884
841,15	61,333
841,32	35,363
841,48	51,793
841,65	43,448
841,82	44,090
841,99	46,644
842,16	39,257
842,33	47,623
842,50	54,695
842,67	42,930
842,84	46,654
843,01	54,881
843,18	48,040
843,35	42,324
843,52	40,243
843,68	54,784
843,85	43,860
844,02	41,810
844,19	35,891
844,36	48,090
844,53	53,924
844,70	44,887
844,87	53,875
845,04	44,575
845,21	39,328
845,37	53,383
845,54	44,557
845,71	41,128
845,88	69,528
846,05	40,052
846,22	36,448
846,39	43,875
846,56	54,605
846,72	37,487
846,89	46,215
847,06	62,341
847,23	56,210
847,40	44,219
847,57	34,923
847,74	43,355
847,90	56,851
848,07	39,525
848,24	46,211
848,41	57,071
848,58	57,834
848,75	38,022
848,92	41,455
849,08	50,751
849,25	40,406
849,42	35,560
849,59	44,138
849,76	41,114
849,93	48,897
850,09	47,117
850,26	31,441
850,43	57,395
850,60	40,700
850,77	40,343
850,94	37,302
851,10	57,634
851,27	55,654
851,44	27,380
851,61	42,938
851,78	58,931
851,95	53,857
852,11	34,223
852,28	41,540
852,45	50,648
852,62	55,767
852,79	42,696
852,95	43,266
853,12	58,024
853,29	51,534
853,46	42,195
853,63	49,726
853,79	34,810
853,96	43,518
854,13	54,932
854,30	31,247
854,46	64,100
854,63	47,746
854,80	44,295
854,97	40,606
855,14	70,084
855,30	60,774
855,47	39,243
855,64	47,661
855,81	48,622
855,97	56,793
856,14	52,288
856,31	32,512
856,48	62,473
856,65	72,401
856,81	51,627
856,98	32,049
857,15	50,994
857,32	56,705
857,48	42,851
857,65	60,611
857,82	60,957
857,99	62,197
858,15	47,878
858,32	46,839
858,49	52,416
858,65	79,255
858,82	56,694
858,99	48,723
859,16	69,955
859,32	56,209
859,49	44,513
859,66	40,420
859,83	49,021
859,99	46,113
860,16	51,187
860,33	48,674
860,49	62,386
860,66	64,771
860,83	51,916
861,00	46,453
861,16	74,971
861,33	70,499
861,50	40,390
861,66	38,010
861,83	69,715
862,00	44,634
862,16	58,628
862,33	43,826
862,50	99,032
862,67	61,508
862,83	38,211
863,00	57,201
863,17	76,386
863,33	48,365
863,50	16,930
863,67	45,108
863,83	55,542
864,00	78,119
864,17	30,768
864,33	37,479
864,50	59,222
864,67	70,520
864,83	32,954
865,00	48,443
865,17	34,391
865,33	66,969
865,50	36,103
865,67	36,910
865,83	71,028
866,00	89,127
866,17	43,466
866,33	68,540
866,50	85,824
866,66	70,117
866,83	47,866
867,00	72,230
867,16	77,222
867,33	86,168
867,50	25,620
867,66	30,509
867,83	86,558
868,00	56,295
868,16	40,780
868,33	45,565
868,49	76,571
868,66	86,861
868,83	60,354
868,99	49,771
869,16	75,342
869,32	92,811
869,49	56,865
869,66	47,658
869,82	89,793
869,99	91,017
870,15	14,713
870,32	72,466
870,49	79,280
870,65	125,196
870,82	76,376
870,98	48,144
871,15	92,363
871,32	71,270
871,48	17,262
871,65	52,993
871,81	62,474
871,98	43,591
872,15	55,791
872,31	30,561
872,48	96,727
872,64	65,686
872,81	22,894
872,97	46,677
873,14	87,306
873,31	74,214
873,47	50,917
873,64	50,062
873,80	125,868
873,97	100,090
874,13	58,023
874,30	68,345
874,46	102,459
874,63	55,993
874,80	38,462
874,96	27,777
875,13	114,887
875,29	35,405
875,46	42,048
875,62	35,311
875,79	106,752
875,95	65,177
876,12	30,767
876,28	16,678
876,45	124,204
876,61	50,265
876,78	57,552
876,94	51,809
877,11	56,971
877,27	105,968
877,44	31,163
877,60	58,053
877,77	94,309
877,94	154,094
878,10	90,916
878,27	77,486
878,43	148,520
878,60	48,714
878,76	58,624
878,93	34,123
879,09	123,880
879,26	116,785
879,42	93,767
879,58	71,085
879,75	107,342
879,91	117,112
880,08	11,338
880,24	71,937
880,41	106,814
880,57	89,358
880,74	18,401
880,90	44,318
881,07	97,710
881,23	110,611
881,40	80,513
881,56	68,962
881,73	115,404
881,89	107,412
882,06	13,859
882,22	205,649
882,38	140,696
882,55	151,341
882,71	78,840
882,88	33,439
883,04	185,247
883,21	191,595
883,37	90,036
883,54	116,427
883,70	240,795
883,86	151,226
884,03	60,502
884,19	21,883
884,36	141,976
884,52	201,239
884,69	54,166
884,85	36,242
885,01	232,739
885,18	130,327
885,34	116,647
885,51	-17,761
885,67	123,306
>>>>> Data<<<<< Espectral Procesado Extremo
