Fichero De Datos De SpectraSuite
++++++++++++++++++++++++++++++++++++
Fecha: Wed Apr 22 13:23:10 CEST 2009
Usuario: evoflor
Presente Oscuro Del Espectro: Sí
La Referencia de Presente Del Espectro De: Sí
Muestreados de los componentes de Número de espectros: 1
Espectrómetros: USB4F02353
Tiempo de integración (usec): 500000 (USB4F02353)
Promedio de Espectros Hechos un: 5 (USB4F02353)
El Alisar Del Furgón: 0 (USB4F02353)
Párrafo de de Corregir del la del del de Eléctrica del obscuridad: Sí (USB4F02353)
Estrobo/Lámpara Permitido: No (USB4F02353)
Correct for Detector Non-linearity: No (USB4F02353)
Párrafo de de Corregir del la del del de Externa del luz: No (USB4F02353)
Procesado del espectro de Número de pixeles en: 3648
>>>>> Comienza Data<<<<< Espectral Procesado Del EL
177,79	266,130
178,00	266,130
178,22	266,130
178,44	1805,165
178,66	-108,674
178,88	344,528
179,09	-296,723
179,31	315,357
179,53	511,238
179,75	166,657
179,96	779,569
180,18	-220,092
180,40	471,433
180,62	352,069
180,83	-299,463
181,05	-1980,854
181,27	-123730,000
181,49	-88,978
181,70	257,808
181,92	1359,036
182,14	505,512
182,36	83,499
182,58	-40,300
182,79	1404,152
183,01	-90,990
183,23	150,193
183,45	-480,400
183,66	-173,142
183,88	468,412
184,10	-2527,818
184,32	34,480
184,53	258,136
184,75	-374,293
184,97	40,382
185,18	-329,004
185,40	-508,317
185,62	230,949
185,84	-56,048
186,05	166,661
186,27	-176,979
186,49	3616,538
186,71	12,130
186,92	146,348
187,14	-352,061
187,36	230,741
187,58	138,107
187,79	-43,055
188,01	349,815
188,23	-118,835
188,45	-6,479
188,66	218,884
188,88	-2855,091
189,10	-2173,300
189,31	-195,785
189,53	41,843
189,75	405,977
189,97	150,500
190,18	-187,425
190,40	505,471
190,62	-427,280
190,83	-230,214
191,05	326,916
191,27	271,229
191,49	397,599
191,70	-395,817
191,92	-651,949
192,14	-45,941
192,35	633,767
192,57	4563,714
192,79	-74,240
193,01	185,204
193,22	184,675
193,44	-161,997
193,66	80,636
193,87	180,150
194,09	-151,284
194,31	259,325
194,53	1274,336
194,74	156,016
194,96	78,811
195,18	128,975
195,39	-352,586
195,61	-118,468
195,83	-327,674
196,04	195,626
196,26	-29,296
196,48	-25,224
196,70	229,881
196,91	56,849
197,13	171,975
197,35	31,079
197,56	723,003
197,78	2165,896
198,00	632,378
198,21	412,767
198,43	-1038,547
198,65	227,592
198,86	438,597
199,08	16,164
199,30	376,174
199,51	-637,557
199,73	164,950
199,95	417,649
200,16	572,808
200,38	417,489
200,60	59,672
200,81	419,122
201,03	336,223
201,25	-2443,300
201,46	200,615
201,68	19,915
201,90	3712,045
202,11	-633,702
202,33	319,084
202,55	1287,875
202,76	-246,602
202,98	177,108
203,20	101,779
203,41	-291,211
203,63	179,298
203,85	-112930,000
204,06	59,466
204,28	-133,325
204,50	96,127
204,71	197,933
204,93	39,440
205,15	207,319
205,36	-181,511
205,58	296,219
205,80	-321,163
206,01	57,666
206,23	171,735
206,45	278,265
206,66	219,053
206,88	-20,387
207,10	221,886
207,31	384,411
207,53	14,086
207,75	92,022
207,96	1218,881
208,18	-251,075
208,39	-12,924
208,61	3355,143
208,83	-388,303
209,04	257,238
209,26	-130,553
209,48	190,517
209,69	318,597
209,91	755,507
210,13	53,692
210,34	136,150
210,56	179,752
210,77	-1590,787
210,99	171,132
211,21	3413,529
211,42	-139,898
211,64	-50,251
211,86	276,154
212,07	184,003
212,29	270,892
212,50	155,693
212,72	399,731
212,94	154,842
213,15	204,953
213,37	167,988
213,58	-92,749
213,80	-2618,929
214,02	9766,471
214,23	408,084
214,45	376,164
214,67	-850,366
214,88	10,638
215,10	-433,327
215,31	-99,279
215,53	168,705
215,75	199,530
215,96	1992,733
216,18	-158,732
216,39	217,149
216,61	480,415
216,83	443,884
217,04	1552,022
217,26	81,984
217,47	154,424
217,69	440,968
217,91	8,170
218,12	-73330,000
218,34	225,493
218,55	435,623
218,77	44,418
218,99	163,657
219,20	-111,270
219,42	463,003
219,63	-22,026
219,85	-89,223
220,06	43,192
220,28	271,847
220,50	51,745
220,71	79,011
220,93	3336,415
221,14	-1246,300
221,36	-124,723
221,58	-18,782
221,79	103,462
222,01	632,155
222,22	654,145
222,44	-551,348
222,65	84,050
222,87	128,881
223,09	98,501
223,30	112,971
223,52	152,322
223,73	180,095
223,95	5,676
224,16	203,155
224,38	399,834
224,60	108,110
224,81	111,671
225,03	183,844
225,24	199,605
225,46	127,791
225,67	36,026
225,89	53,573
226,10	662,741
226,32	961,040
226,54	-24,669
226,75	-0,539
226,97	127,783
227,18	225,156
227,40	-17,615
227,61	66,050
227,83	53,490
228,04	167,660
228,26	33,461
228,47	51,133
228,69	267,146
228,91	101,420
229,12	99,735
229,34	37,658
229,55	81,616
229,77	34,930
229,98	17,232
230,20	79,061
230,41	47,935
230,63	111,896
230,84	29,751
231,06	17,871
231,27	7,164
231,49	65,506
231,71	36,673
231,92	51,559
232,14	26,494
232,35	77,484
232,57	47,935
232,78	18,358
233,00	47,845
233,21	66,634
233,43	18,058
233,64	35,042
233,86	39,348
234,07	40,250
234,29	23,477
234,50	36,336
234,72	59,880
234,93	15,707
235,15	20,199
235,36	19,785
235,58	44,917
235,79	60,248
236,01	27,282
236,22	15,734
236,44	59,584
236,65	11,064
236,87	37,428
237,08	12,213
237,30	-1,155
237,51	43,009
237,73	-9,226
237,94	10,880
238,16	21,110
238,37	14,294
238,59	19,288
238,80	16,007
239,02	7,104
239,23	22,811
239,45	7,507
239,66	20,915
239,88	40,583
240,09	23,183
240,31	5,281
240,52	15,181
240,74	25,676
240,95	9,361
241,17	12,281
241,38	9,690
241,60	15,891
241,81	34,809
242,03	8,850
242,24	13,164
242,46	23,160
242,67	7,809
242,89	10,910
243,10	19,049
243,32	20,076
243,53	25,479
243,75	9,367
243,96	12,964
244,18	20,124
244,39	20,580
244,60	13,900
244,82	6,454
245,03	25,992
245,25	8,182
245,46	30,494
245,68	5,354
245,89	28,829
246,11	14,137
246,32	13,220
246,54	4,168
246,75	11,733
246,97	18,099
247,18	21,869
247,39	3,631
247,61	12,288
247,82	22,298
248,04	9,621
248,25	7,299
248,47	15,466
248,68	22,207
248,90	5,257
249,11	7,417
249,33	25,297
249,54	11,355
249,75	14,517
249,97	7,036
250,18	19,456
250,40	20,512
250,61	-6,084
250,83	3,304
251,04	9,077
251,25	15,131
251,47	1,583
251,68	11,366
251,90	10,073
252,11	10,762
252,33	7,152
252,54	7,650
252,76	4,861
252,97	5,452
253,18	3,085
253,40	10,414
253,61	7,909
253,83	12,134
254,04	13,211
254,25	7,801
254,47	5,443
254,68	10,392
254,90	5,836
255,11	12,585
255,33	10,844
255,54	5,701
255,75	12,013
255,97	8,613
256,18	10,017
256,40	10,285
256,61	14,013
256,82	1,489
257,04	12,403
257,25	6,035
257,47	9,238
257,68	6,412
257,89	13,916
258,11	12,982
258,32	8,883
258,54	7,142
258,75	16,322
258,96	16,522
259,18	7,853
259,39	4,789
259,61	13,465
259,82	5,358
260,03	10,166
260,25	8,478
260,46	6,641
260,68	7,610
260,89	7,059
261,10	8,643
261,32	7,278
261,53	5,561
261,75	10,966
261,96	3,970
262,17	16,679
262,39	15,506
262,60	8,604
262,81	1,972
263,03	13,600
263,24	5,833
263,46	-0,677
263,67	6,599
263,88	9,256
264,10	11,888
264,31	6,698
264,52	8,118
264,74	7,464
264,95	7,833
265,17	5,630
265,38	9,721
265,59	10,372
265,81	9,538
266,02	2,528
266,23	4,238
266,45	13,930
266,66	13,375
266,87	11,992
267,09	3,400
267,30	11,801
267,52	13,685
267,73	7,807
267,94	5,408
268,16	13,414
268,37	3,827
268,58	9,851
268,80	6,490
269,01	5,948
269,22	13,881
269,44	8,454
269,65	8,524
269,86	5,113
270,08	9,618
270,29	4,333
270,50	9,811
270,72	11,489
270,93	12,646
271,14	5,898
271,36	6,217
271,57	9,294
271,78	9,373
272,00	11,188
272,21	11,904
272,42	9,313
272,64	8,878
272,85	2,620
273,06	4,858
273,28	12,088
273,49	9,526
273,70	9,541
273,92	10,773
274,13	9,801
274,34	6,526
274,56	8,538
274,77	3,542
274,98	11,151
275,20	9,679
275,41	12,637
275,62	1,720
275,84	7,315
276,05	16,844
276,26	4,354
276,47	3,235
276,69	9,128
276,90	11,065
277,11	5,199
277,33	3,034
277,54	8,614
277,75	8,399
277,97	3,722
278,18	2,849
278,39	10,875
278,61	4,172
278,82	8,472
279,03	9,731
279,24	7,708
279,46	5,235
279,67	9,202
279,88	9,034
280,10	11,215
280,31	3,157
280,52	6,368
280,73	2,323
280,95	12,684
281,16	9,545
281,37	6,689
281,59	10,164
281,80	15,618
282,01	4,705
282,22	3,816
282,44	3,718
282,65	16,097
282,86	9,383
283,08	5,156
283,29	6,992
283,50	6,604
283,71	8,358
283,93	9,113
284,14	9,643
284,35	7,768
284,56	9,813
284,78	5,733
284,99	7,468
285,20	14,615
285,42	7,004
285,63	6,004
285,84	4,169
286,05	6,099
286,27	9,170
286,48	5,458
286,69	5,305
286,90	6,725
287,12	4,716
287,33	4,626
287,54	6,318
287,75	8,899
287,97	7,064
288,18	4,607
288,39	3,111
288,60	8,488
288,82	5,511
289,03	6,675
289,24	9,801
289,45	9,926
289,67	6,125
289,88	8,733
290,09	8,035
290,30	8,979
290,52	5,891
290,73	2,974
290,94	3,064
291,15	5,911
291,37	7,521
291,58	5,045
291,79	5,377
292,00	7,260
292,21	6,220
292,43	4,931
292,64	4,686
292,85	4,619
293,06	10,910
293,28	6,532
293,49	2,969
293,70	9,755
293,91	6,112
294,12	5,307
294,34	6,413
294,55	7,311
294,76	7,831
294,97	8,325
295,19	1,167
295,40	8,405
295,61	6,881
295,82	3,054
296,03	7,768
296,25	7,006
296,46	7,477
296,67	2,985
296,88	1,480
297,09	9,570
297,31	6,743
297,52	7,738
297,73	4,921
297,94	10,562
298,15	7,964
298,37	5,205
298,58	9,501
298,79	8,522
299,00	5,583
299,21	4,855
299,43	4,267
299,64	9,781
299,85	8,878
300,06	4,776
300,27	2,643
300,49	12,259
300,70	8,270
300,91	4,865
301,12	8,588
301,33	10,928
301,54	7,036
301,76	4,064
301,97	3,896
302,18	6,256
302,39	7,360
302,60	16,886
302,82	4,923
303,03	11,551
303,24	7,211
303,45	6,791
303,66	4,951
303,87	5,143
304,09	8,455
304,30	5,674
304,51	5,006
304,72	5,381
304,93	9,098
305,14	7,400
305,36	4,964
305,57	7,025
305,78	7,655
305,99	5,487
306,20	8,231
306,41	4,893
306,62	2,699
306,84	4,438
307,05	3,487
307,26	5,906
307,47	10,717
307,68	6,450
307,89	6,385
308,11	7,982
308,32	4,005
308,53	6,171
308,74	5,108
308,95	5,395
309,16	8,806
309,37	8,248
309,59	5,171
309,80	8,399
310,01	6,669
310,22	8,228
310,43	6,727
310,64	6,385
310,85	7,919
311,06	6,812
311,28	5,524
311,49	4,296
311,70	10,916
311,91	3,522
312,12	1,812
312,33	5,317
312,54	8,291
312,75	6,239
312,97	3,623
313,18	6,088
313,39	5,635
313,60	3,825
313,81	5,247
314,02	7,261
314,23	9,734
314,44	4,277
314,65	5,281
314,87	6,055
315,08	6,379
315,29	8,257
315,50	7,997
315,71	10,158
315,92	8,676
316,13	7,570
316,34	5,758
316,55	7,563
316,77	0,365
316,98	3,367
317,19	3,661
317,40	7,892
317,61	11,553
317,82	5,859
318,03	2,984
318,24	6,776
318,45	8,509
318,66	7,497
318,87	2,186
319,09	7,570
319,30	7,901
319,51	8,442
319,72	8,432
319,93	8,715
320,14	9,603
320,35	8,626
320,56	3,215
320,77	6,231
320,98	10,061
321,19	6,703
321,40	5,627
321,62	9,214
321,83	4,562
322,04	6,319
322,25	5,275
322,46	12,626
322,67	9,423
322,88	7,697
323,09	6,206
323,30	11,060
323,51	8,443
323,72	6,970
323,93	6,235
324,14	5,857
324,35	5,581
324,56	2,414
324,77	4,612
324,99	5,596
325,20	1,075
325,41	6,229
325,62	5,722
325,83	1,555
326,04	5,053
326,25	10,469
326,46	4,123
326,67	7,606
326,88	6,469
327,09	3,389
327,30	5,659
327,51	7,578
327,72	8,109
327,93	9,530
328,14	3,151
328,35	7,142
328,56	5,590
328,77	6,274
328,98	8,451
329,19	6,450
329,40	8,707
329,61	3,667
329,82	2,878
330,04	5,469
330,25	5,979
330,46	6,074
330,67	4,411
330,88	5,935
331,09	6,473
331,30	4,840
331,51	5,254
331,72	6,694
331,93	9,907
332,14	3,227
332,35	9,117
332,56	6,481
332,77	9,584
332,98	2,219
333,19	2,509
333,40	11,224
333,61	6,037
333,82	8,387
334,03	7,646
334,24	8,364
334,45	4,919
334,66	9,614
334,87	6,296
335,08	6,717
335,29	3,591
335,50	4,966
335,71	3,342
335,92	9,352
336,13	8,680
336,34	2,134
336,55	5,448
336,76	10,493
336,97	5,846
337,18	2,728
337,39	5,734
337,60	7,090
337,81	7,318
338,02	6,530
338,23	5,996
338,44	6,893
338,65	6,123
338,86	5,373
339,07	1,903
339,28	8,656
339,49	7,646
339,70	5,470
339,91	4,365
340,11	9,924
340,32	6,065
340,53	7,167
340,74	3,168
340,95	4,685
341,16	8,881
341,37	5,012
341,58	4,248
341,79	6,468
342,00	4,791
342,21	5,809
342,42	5,537
342,63	8,515
342,84	3,920
343,05	7,741
343,26	8,471
343,47	9,669
343,68	6,754
343,89	4,317
344,10	6,824
344,31	10,520
344,52	5,278
344,73	5,335
344,94	7,808
345,14	4,673
345,35	9,628
345,56	5,455
345,77	6,327
345,98	4,567
346,19	8,017
346,40	5,170
346,61	4,611
346,82	7,167
347,03	5,588
347,24	9,015
347,45	5,390
347,66	10,425
347,87	4,285
348,08	9,128
348,28	0,841
348,49	5,612
348,70	9,411
348,91	8,283
349,12	4,606
349,33	18,321
349,54	7,663
349,75	9,147
349,96	5,202
350,17	6,103
350,38	5,217
350,59	9,748
350,80	7,019
351,00	8,827
351,21	11,553
351,42	2,286
351,63	4,774
351,84	8,007
352,05	8,897
352,26	4,805
352,47	5,591
352,68	8,188
352,89	6,735
353,09	7,991
353,30	3,475
353,51	6,246
353,72	7,934
353,93	6,648
354,14	3,620
354,35	7,436
354,56	9,702
354,77	8,223
354,98	0,882
355,18	7,655
355,39	11,604
355,60	4,489
355,81	6,321
356,02	6,603
356,23	8,096
356,44	5,532
356,65	6,982
356,85	11,213
357,06	9,991
357,27	9,689
357,48	5,232
357,69	8,856
357,90	6,932
358,11	2,829
358,32	5,504
358,52	10,463
358,73	5,036
358,94	2,468
359,15	7,837
359,36	8,002
359,57	6,386
359,78	7,136
359,98	4,848
360,19	1,972
360,40	8,534
360,61	9,988
360,82	5,798
361,03	11,750
361,24	9,982
361,44	3,433
361,65	6,918
361,86	5,879
362,07	5,763
362,28	3,646
362,49	4,487
362,70	4,902
362,90	7,422
363,11	5,265
363,32	3,990
363,53	4,530
363,74	14,050
363,95	8,746
364,15	7,970
364,36	9,775
364,57	6,918
364,78	6,017
364,99	4,761
365,20	8,637
365,40	9,591
365,61	4,728
365,82	9,896
366,03	6,597
366,24	10,627
366,45	2,770
366,65	6,338
366,86	4,127
367,07	8,413
367,28	4,904
367,49	6,220
367,69	11,080
367,90	5,728
368,11	6,001
368,32	5,805
368,53	7,322
368,73	7,871
368,94	3,135
369,15	6,173
369,36	11,272
369,57	5,080
369,78	6,134
369,98	7,670
370,19	12,467
370,40	5,163
370,61	7,256
370,82	6,367
371,02	10,177
371,23	9,137
371,44	3,708
371,65	10,818
371,85	9,125
372,06	5,578
372,27	4,017
372,48	8,356
372,69	6,772
372,89	4,871
373,10	7,175
373,31	4,449
373,52	9,344
373,73	11,288
373,93	6,337
374,14	2,239
374,35	11,614
374,56	10,054
374,76	10,222
374,97	3,802
375,18	9,475
375,39	6,760
375,60	7,493
375,80	6,327
376,01	7,840
376,22	7,165
376,43	5,078
376,63	4,759
376,84	8,893
377,05	8,921
377,26	2,702
377,46	1,369
377,67	7,328
377,88	6,802
378,09	5,138
378,29	0,764
378,50	8,466
378,71	7,961
378,92	4,480
379,12	5,499
379,33	6,210
379,54	7,238
379,75	9,959
379,95	4,022
380,16	6,598
380,37	7,649
380,58	4,417
380,78	9,234
380,99	4,776
381,20	7,973
381,41	7,488
381,61	8,354
381,82	9,290
382,03	6,489
382,24	9,852
382,44	5,875
382,65	7,090
382,86	9,197
383,06	5,352
383,27	9,271
383,48	6,751
383,69	11,157
383,89	8,358
384,10	10,551
384,31	7,911
384,51	12,039
384,72	6,232
384,93	6,790
385,14	7,161
385,34	10,378
385,55	4,664
385,76	3,054
385,96	13,763
386,17	8,432
386,38	10,295
386,59	11,641
386,79	9,199
387,00	11,932
387,21	13,668
387,41	9,763
387,62	8,857
387,83	15,117
388,03	8,774
388,24	1,315
388,45	8,707
388,66	11,045
388,86	7,332
389,07	5,634
389,28	13,704
389,48	8,829
389,69	7,532
389,90	8,636
390,10	10,232
390,31	11,902
390,52	1,178
390,72	6,345
390,93	7,640
391,14	7,641
391,34	8,824
391,55	10,396
391,76	11,662
391,96	10,932
392,17	6,154
392,38	12,296
392,58	10,905
392,79	9,224
393,00	7,359
393,20	7,382
393,41	7,582
393,62	10,465
393,82	8,280
394,03	8,261
394,24	10,771
394,44	13,498
394,65	9,977
394,86	7,653
395,06	10,643
395,27	8,636
395,48	9,966
395,68	9,624
395,89	9,933
396,10	14,576
396,30	8,343
396,51	8,389
396,72	12,253
396,92	10,408
397,13	9,074
397,34	7,911
397,54	12,765
397,75	7,193
397,95	9,012
398,16	10,646
398,37	10,608
398,57	10,592
398,78	12,905
398,99	15,308
399,19	12,897
399,40	16,140
399,60	8,753
399,81	15,283
400,02	16,560
400,22	16,917
400,43	9,711
400,64	14,830
400,84	14,849
401,05	16,500
401,25	16,678
401,46	13,445
401,67	17,458
401,87	16,578
402,08	10,450
402,29	14,152
402,49	16,256
402,70	20,244
402,90	13,253
403,11	15,728
403,32	16,783
403,52	14,735
403,73	15,606
403,93	15,807
404,14	20,657
404,35	20,122
404,55	11,786
404,76	14,376
404,96	17,245
405,17	21,117
405,38	18,848
405,58	14,857
405,79	14,734
405,99	22,336
406,20	19,141
406,40	14,603
406,61	17,756
406,82	17,520
407,02	18,635
407,23	20,053
407,43	19,139
407,64	18,289
407,85	18,643
408,05	14,524
408,26	28,707
408,46	25,009
408,67	17,184
408,87	20,474
409,08	22,984
409,29	25,427
409,49	23,522
409,70	19,645
409,90	23,738
410,11	21,241
410,31	28,298
410,52	20,213
410,72	19,321
410,93	23,983
411,14	24,217
411,34	20,850
411,55	23,971
411,75	23,481
411,96	22,966
412,16	22,596
412,37	24,246
412,57	27,509
412,78	25,502
412,99	23,269
413,19	25,975
413,40	25,522
413,60	21,029
413,81	25,873
414,01	24,490
414,22	26,469
414,42	24,750
414,63	21,536
414,83	28,318
415,04	30,643
415,24	29,668
415,45	26,478
415,65	25,514
415,86	30,804
416,07	23,087
416,27	28,916
416,48	31,526
416,68	32,803
416,89	25,202
417,09	26,456
417,30	34,098
417,50	26,825
417,71	31,552
417,91	30,532
418,12	27,045
418,32	27,146
418,53	28,953
418,73	29,957
418,94	25,498
419,14	33,564
419,35	24,239
419,55	32,327
419,76	31,319
419,96	29,415
420,17	29,279
420,37	32,312
420,58	33,496
420,78	34,868
420,99	29,731
421,19	33,646
421,40	31,315
421,60	36,278
421,81	29,087
422,01	31,416
422,22	32,169
422,42	34,709
422,63	34,626
422,83	31,294
423,04	36,983
423,24	39,408
423,45	28,968
423,65	35,409
423,86	39,267
424,06	33,281
424,27	30,966
424,47	34,024
424,67	33,164
424,88	36,952
425,08	32,951
425,29	35,216
425,49	33,017
425,70	30,085
425,90	32,698
426,11	31,328
426,31	35,802
426,52	35,582
426,72	33,352
426,93	29,619
427,13	35,957
427,33	34,969
427,54	34,960
427,74	36,871
427,95	36,120
428,15	32,502
428,36	33,933
428,56	33,372
428,77	37,492
428,97	33,035
429,18	36,252
429,38	32,045
429,58	35,842
429,79	41,096
429,99	36,036
430,20	30,370
430,40	40,505
430,61	35,811
430,81	32,127
431,01	37,694
431,22	39,241
431,42	39,854
431,63	32,272
431,83	36,170
432,04	37,121
432,24	43,312
432,44	34,942
432,65	32,415
432,85	30,399
433,06	37,900
433,26	33,480
433,47	33,566
433,67	32,534
433,87	30,912
434,08	32,128
434,28	30,707
434,49	32,247
434,69	41,234
434,89	31,948
435,10	34,652
435,30	46,286
435,51	29,859
435,71	33,661
435,91	33,450
436,12	35,852
436,32	36,141
436,53	37,178
436,73	34,830
436,93	34,072
437,14	35,188
437,34	36,392
437,55	33,807
437,75	35,209
437,95	38,623
438,16	36,023
438,36	36,718
438,57	37,009
438,77	34,585
438,97	38,980
439,18	38,384
439,38	35,512
439,58	33,758
439,79	39,515
439,99	35,114
440,20	36,269
440,40	42,616
440,60	36,276
440,81	37,542
441,01	38,336
441,21	37,336
441,42	38,444
441,62	43,432
441,83	43,262
442,03	37,515
442,23	38,555
442,44	38,529
442,64	37,721
442,84	35,070
443,05	37,023
443,25	35,397
443,45	37,833
443,66	36,728
443,86	33,992
444,06	39,361
444,27	31,685
444,47	35,864
444,67	36,466
444,88	38,267
445,08	39,506
445,28	37,536
445,49	33,739
445,69	35,864
445,90	39,949
446,10	40,536
446,30	34,981
446,51	35,735
446,71	43,099
446,91	39,553
447,12	46,077
447,32	38,483
447,52	41,595
447,72	43,274
447,93	40,335
448,13	33,931
448,33	44,245
448,54	40,887
448,74	35,466
448,94	39,474
449,15	42,954
449,35	47,124
449,55	36,838
449,76	40,834
449,96	39,361
450,16	39,263
450,37	34,991
450,57	36,369
450,77	34,744
450,98	38,836
451,18	41,787
451,38	38,115
451,58	37,858
451,79	38,866
451,99	41,103
452,19	38,235
452,40	43,979
452,60	33,617
452,80	35,871
453,00	40,392
453,21	37,337
453,41	45,990
453,61	36,044
453,82	40,729
454,02	38,688
454,22	43,706
454,42	41,836
454,63	32,746
454,83	38,975
455,03	44,542
455,24	39,553
455,44	40,786
455,64	37,209
455,84	39,622
456,05	38,820
456,25	37,899
456,45	42,317
456,65	36,613
456,86	40,561
457,06	41,197
457,26	44,280
457,47	47,981
457,67	38,192
457,87	38,941
458,07	38,909
458,28	43,649
458,48	43,678
458,68	37,118
458,88	43,756
459,09	41,321
459,29	45,893
459,49	39,944
459,69	41,491
459,90	45,250
460,10	37,558
460,30	42,222
460,50	37,330
460,71	41,511
460,91	35,449
461,11	42,396
461,31	40,346
461,52	42,400
461,72	40,989
461,92	36,363
462,12	49,004
462,32	34,875
462,53	35,392
462,73	38,597
462,93	39,809
463,13	43,368
463,34	41,221
463,54	39,231
463,74	39,938
463,94	40,110
464,14	39,975
464,35	34,240
464,55	45,770
464,75	43,784
464,95	38,831
465,16	37,861
465,36	43,873
465,56	38,461
465,76	40,261
465,96	41,516
466,17	39,740
466,37	38,541
466,57	41,362
466,77	40,230
466,97	38,326
467,18	41,695
467,38	39,489
467,58	38,975
467,78	43,114
467,98	44,503
468,19	41,468
468,39	43,564
468,59	39,519
468,79	45,032
468,99	38,938
469,19	34,949
469,40	40,085
469,60	41,768
469,80	38,002
470,00	40,349
470,20	44,729
470,41	39,390
470,61	42,219
470,81	38,943
471,01	40,488
471,21	39,502
471,41	33,576
471,62	40,145
471,82	36,706
472,02	36,963
472,22	33,877
472,42	40,519
472,62	39,652
472,83	37,031
473,03	40,374
473,23	38,950
473,43	45,694
473,63	40,018
473,83	40,434
474,03	36,735
474,24	44,574
474,44	41,777
474,64	40,895
474,84	35,608
475,04	35,381
475,24	40,299
475,45	38,322
475,65	38,253
475,85	40,114
476,05	34,398
476,25	36,991
476,45	37,831
476,65	44,073
476,85	38,748
477,06	40,290
477,26	38,095
477,46	38,783
477,66	38,992
477,86	40,802
478,06	32,822
478,26	46,062
478,46	34,652
478,67	39,212
478,87	40,188
479,07	38,016
479,27	41,610
479,47	39,912
479,67	32,339
479,87	35,169
480,07	39,441
480,28	38,278
480,48	36,373
480,68	39,358
480,88	45,457
481,08	40,461
481,28	38,707
481,48	38,873
481,68	37,107
481,88	35,421
482,08	35,319
482,29	40,327
482,49	35,146
482,69	37,765
482,89	36,658
483,09	39,407
483,29	36,887
483,49	36,944
483,69	35,330
483,89	38,018
484,09	34,382
484,29	33,453
484,50	34,704
484,70	39,438
484,90	36,211
485,10	35,027
485,30	37,111
485,50	43,126
485,70	39,589
485,90	35,272
486,10	34,057
486,30	36,471
486,50	38,489
486,70	33,822
486,90	36,828
487,10	37,540
487,30	36,673
487,51	38,458
487,71	33,197
487,91	36,600
488,11	38,333
488,31	33,836
488,51	38,553
488,71	37,317
488,91	39,121
489,11	32,723
489,31	35,613
489,51	34,859
489,71	36,881
489,91	35,218
490,11	35,283
490,31	36,658
490,51	38,210
490,71	34,861
490,91	35,283
491,11	38,331
491,31	36,274
491,51	35,336
491,72	36,707
491,92	37,639
492,12	41,059
492,32	37,054
492,52	38,060
492,72	37,913
492,92	36,687
493,12	36,156
493,32	35,139
493,52	33,759
493,72	36,765
493,92	37,765
494,12	37,971
494,32	39,719
494,52	36,351
494,72	34,208
494,92	34,403
495,12	37,402
495,32	40,292
495,52	34,232
495,72	38,117
495,92	41,175
496,12	40,209
496,32	33,128
496,52	34,992
496,72	37,164
496,92	38,579
497,12	37,011
497,32	37,962
497,52	39,924
497,72	40,436
497,92	41,813
498,12	36,782
498,32	37,086
498,52	39,107
498,72	34,192
498,92	35,917
499,12	42,647
499,32	35,130
499,52	38,249
499,72	38,318
499,92	41,280
500,12	39,148
500,32	40,536
500,52	37,183
500,72	42,542
500,91	42,963
501,11	36,127
501,31	33,971
501,51	40,438
501,71	38,981
501,91	37,733
502,11	41,021
502,31	38,131
502,51	43,987
502,71	36,187
502,91	36,384
503,11	37,852
503,31	38,900
503,51	35,462
503,71	35,000
503,91	39,625
504,11	39,894
504,31	39,103
504,51	38,484
504,71	41,886
504,91	37,976
505,10	42,631
505,30	38,051
505,50	39,049
505,70	36,773
505,90	38,198
506,10	35,245
506,30	38,591
506,50	39,601
506,70	39,814
506,90	35,135
507,10	40,590
507,30	37,856
507,50	38,960
507,70	38,366
507,89	40,340
508,09	35,579
508,29	37,167
508,49	38,388
508,69	40,404
508,89	36,239
509,09	35,725
509,29	36,725
509,49	41,406
509,69	42,018
509,89	38,186
510,09	36,765
510,28	40,112
510,48	39,261
510,68	35,993
510,88	36,527
511,08	37,294
511,28	36,182
511,48	38,075
511,68	34,493
511,88	33,709
512,07	37,422
512,27	38,276
512,47	39,093
512,67	36,949
512,87	35,561
513,07	37,591
513,27	34,838
513,47	39,430
513,67	36,037
513,86	38,218
514,06	36,521
514,26	35,851
514,46	39,850
514,66	37,696
514,86	36,900
515,06	41,967
515,26	41,052
515,45	37,085
515,65	33,683
515,85	36,127
516,05	37,012
516,25	37,344
516,45	39,192
516,65	36,403
516,84	36,899
517,04	39,325
517,24	35,883
517,44	38,093
517,64	41,312
517,84	39,632
518,04	35,472
518,23	39,784
518,43	41,003
518,63	34,841
518,83	34,403
519,03	36,770
519,23	36,916
519,42	35,688
519,62	33,771
519,82	35,451
520,02	33,019
520,22	37,048
520,42	34,746
520,61	39,405
520,81	38,187
521,01	36,913
521,21	34,615
521,41	36,956
521,61	39,194
521,80	32,368
522,00	36,848
522,20	36,443
522,40	38,990
522,60	35,320
522,79	33,736
522,99	36,676
523,19	32,413
523,39	36,042
523,59	35,187
523,78	38,783
523,98	34,730
524,18	36,463
524,38	32,410
524,58	35,582
524,77	38,465
524,97	35,837
525,17	35,210
525,37	35,631
525,57	37,775
525,76	33,120
525,96	38,060
526,16	34,754
526,36	34,704
526,56	35,734
526,75	35,781
526,95	36,778
527,15	37,237
527,35	36,101
527,55	34,315
527,74	34,938
527,94	33,427
528,14	33,043
528,34	34,402
528,53	33,152
528,73	37,031
528,93	32,917
529,13	31,320
529,32	34,325
529,52	34,729
529,72	33,992
529,92	34,371
530,12	35,040
530,31	32,180
530,51	32,122
530,71	34,889
530,91	38,926
531,10	30,801
531,30	32,355
531,50	31,980
531,70	34,778
531,89	33,576
532,09	33,111
532,29	32,453
532,49	33,276
532,68	34,566
532,88	30,484
533,08	32,244
533,28	35,375
533,47	31,433
533,67	32,697
533,87	34,835
534,06	40,228
534,26	34,576
534,46	30,507
534,66	32,186
534,85	35,287
535,05	29,334
535,25	32,096
535,45	30,615
535,64	35,403
535,84	31,483
536,04	32,188
536,23	31,687
536,43	36,367
536,63	30,912
536,83	33,322
537,02	30,437
537,22	31,947
537,42	31,477
537,61	29,730
537,81	31,831
538,01	31,471
538,20	31,897
538,40	27,426
538,60	31,221
538,80	29,315
538,99	31,754
539,19	29,715
539,39	26,154
539,58	29,915
539,78	25,587
539,98	26,714
540,17	27,803
540,37	26,725
540,57	24,259
540,76	24,777
540,96	22,789
541,16	26,176
541,36	23,050
541,55	20,126
541,75	22,062
541,95	22,384
542,14	21,723
542,34	21,192
542,54	20,618
542,73	23,560
542,93	22,158
543,13	21,645
543,32	20,233
543,52	23,697
543,72	19,631
543,91	21,229
544,11	21,401
544,31	20,481
544,50	21,112
544,70	21,885
544,89	22,349
545,09	23,358
545,29	22,727
545,48	22,789
545,68	21,107
545,88	22,508
546,07	22,972
546,27	22,074
546,47	23,557
546,66	25,514
546,86	25,559
547,06	24,417
547,25	23,727
547,45	28,167
547,64	25,837
547,84	28,900
548,04	28,530
548,23	28,770
548,43	27,451
548,63	28,296
548,82	28,686
549,02	25,936
549,21	27,279
549,41	27,089
549,61	28,500
549,80	28,925
550,00	26,662
550,20	25,759
550,39	28,576
550,59	29,027
550,78	31,688
550,98	26,128
551,18	27,783
551,37	28,454
551,57	29,331
551,76	27,237
551,96	28,615
552,16	26,978
552,35	29,693
552,55	28,762
552,74	30,479
552,94	31,637
553,14	28,800
553,33	27,889
553,53	31,285
553,72	28,360
553,92	33,673
554,12	28,798
554,31	32,199
554,51	30,540
554,70	29,304
554,90	28,675
555,09	31,559
555,29	32,695
555,49	29,257
555,68	31,653
555,88	28,799
556,07	31,776
556,27	33,636
556,46	29,446
556,66	27,369
556,86	34,659
557,05	30,905
557,25	30,467
557,44	28,926
557,64	28,971
557,83	30,621
558,03	29,973
558,22	28,247
558,42	29,288
558,62	32,014
558,81	29,180
559,01	29,485
559,20	31,528
559,40	29,133
559,59	28,355
559,79	28,159
559,98	31,197
560,18	32,015
560,37	31,437
560,57	33,086
560,76	29,319
560,96	29,024
561,16	31,481
561,35	29,033
561,55	33,722
561,74	30,933
561,94	32,386
562,13	30,114
562,33	32,473
562,52	29,329
562,72	28,786
562,91	29,696
563,11	28,756
563,30	35,456
563,50	28,278
563,69	30,113
563,89	26,739
564,08	33,499
564,28	29,288
564,47	27,958
564,67	29,507
564,86	30,366
565,06	27,806
565,25	32,030
565,45	31,043
565,64	32,634
565,84	30,625
566,03	28,798
566,23	28,821
566,42	30,966
566,62	29,727
566,81	31,308
567,01	32,439
567,20	31,465
567,40	28,045
567,59	28,557
567,79	34,472
567,98	34,462
568,18	31,726
568,37	31,241
568,57	31,490
568,76	32,791
568,96	30,619
569,15	29,380
569,35	29,965
569,54	33,811
569,73	31,213
569,93	28,688
570,12	28,987
570,32	31,824
570,51	31,475
570,71	32,768
570,90	32,921
571,10	31,897
571,29	29,511
571,49	29,664
571,68	31,497
571,87	30,772
572,07	31,631
572,26	27,968
572,46	30,197
572,65	32,118
572,85	30,295
573,04	30,778
573,24	31,843
573,43	33,585
573,62	32,584
573,82	31,680
574,01	33,011
574,21	30,148
574,40	28,505
574,60	29,067
574,79	33,647
574,98	30,213
575,18	31,015
575,37	29,350
575,57	30,766
575,76	30,800
575,96	30,627
576,15	30,560
576,34	29,867
576,54	31,761
576,73	31,188
576,93	29,768
577,12	31,481
577,31	29,309
577,51	29,322
577,70	28,885
577,90	29,722
578,09	30,108
578,28	29,751
578,48	30,736
578,67	33,208
578,87	31,796
579,06	31,169
579,25	32,214
579,45	32,349
579,64	29,620
579,84	29,800
580,03	28,773
580,22	32,405
580,42	29,743
580,61	30,726
580,81	31,829
581,00	32,312
581,19	32,327
581,39	32,419
581,58	30,787
581,77	31,113
581,97	32,748
582,16	31,614
582,35	30,373
582,55	31,729
582,74	33,121
582,94	31,972
583,13	29,710
583,32	31,952
583,52	33,279
583,71	31,490
583,90	29,948
584,10	33,042
584,29	33,182
584,48	31,338
584,68	33,145
584,87	34,464
585,06	32,131
585,26	31,398
585,45	30,734
585,65	35,100
585,84	31,291
586,03	32,998
586,23	30,242
586,42	33,400
586,61	35,879
586,81	32,146
587,00	31,939
587,19	32,027
587,39	35,409
587,58	35,400
587,77	33,219
587,97	32,000
588,16	34,437
588,35	32,973
588,54	34,576
588,74	33,144
588,93	34,382
589,12	33,523
589,32	33,464
589,51	33,416
589,70	33,485
589,90	32,926
590,09	35,418
590,28	39,127
590,48	33,215
590,67	35,717
590,86	34,790
591,06	33,915
591,25	36,653
591,44	35,009
591,63	34,501
591,83	36,706
592,02	36,100
592,21	35,756
592,41	34,979
592,60	38,010
592,79	35,925
592,98	35,693
593,18	35,144
593,37	35,636
593,56	38,409
593,76	37,645
593,95	36,215
594,14	34,718
594,33	39,920
594,53	37,319
594,72	34,526
594,91	40,037
595,10	36,877
595,30	37,031
595,49	37,984
595,68	39,271
595,88	38,102
596,07	38,413
596,26	39,678
596,45	38,499
596,65	34,570
596,84	36,273
597,03	38,312
597,22	37,996
597,42	41,497
597,61	38,862
597,80	39,160
597,99	38,246
598,19	39,823
598,38	39,535
598,57	38,488
598,76	39,325
598,95	40,525
599,15	39,970
599,34	39,738
599,53	39,372
599,72	40,810
599,92	40,086
600,11	40,018
600,30	40,574
600,49	42,679
600,69	39,974
600,88	40,956
601,07	38,860
601,26	39,985
601,45	41,521
601,65	39,740
601,84	40,932
602,03	40,010
602,22	41,353
602,42	43,339
602,61	40,866
602,80	42,242
602,99	41,591
603,18	39,420
603,38	42,428
603,57	40,706
603,76	40,689
603,95	40,300
604,14	42,750
604,34	41,226
604,53	40,417
604,72	43,217
604,91	41,499
605,10	42,588
605,29	43,777
605,49	40,800
605,68	41,364
605,87	42,883
606,06	41,226
606,25	39,564
606,45	41,161
606,64	42,036
606,83	43,103
607,02	39,943
607,21	42,369
607,40	39,944
607,60	40,932
607,79	40,157
607,98	39,257
608,17	39,527
608,36	39,155
608,55	40,024
608,75	39,683
608,94	39,196
609,13	36,144
609,32	34,946
609,51	35,632
609,70	34,373
609,89	36,991
610,09	34,734
610,28	37,602
610,47	35,289
610,66	34,440
610,85	33,973
611,04	36,507
611,23	33,881
611,43	32,842
611,62	33,186
611,81	34,787
612,00	36,460
612,19	34,515
612,38	35,712
612,57	37,398
612,77	35,964
612,96	36,775
613,15	38,490
613,34	39,880
613,53	39,367
613,72	40,779
613,91	39,218
614,10	39,566
614,29	42,177
614,49	37,436
614,68	40,111
614,87	42,265
615,06	44,251
615,25	40,623
615,44	41,808
615,63	42,131
615,82	39,972
616,01	40,821
616,21	41,359
616,40	43,216
616,59	43,706
616,78	42,006
616,97	43,337
617,16	45,220
617,35	44,543
617,54	42,696
617,73	43,872
617,92	43,139
618,11	44,515
618,31	40,486
618,50	42,943
618,69	43,144
618,88	43,343
619,07	40,966
619,26	41,669
619,45	43,928
619,64	42,090
619,83	43,267
620,02	41,385
620,21	44,914
620,40	45,786
620,59	42,235
620,78	42,014
620,97	44,084
621,17	45,310
621,36	42,015
621,55	42,953
621,74	44,413
621,93	46,168
622,12	44,422
622,31	42,714
622,50	44,827
622,69	47,404
622,88	43,477
623,07	45,594
623,26	44,530
623,45	48,251
623,64	42,203
623,83	43,212
624,02	47,523
624,21	45,824
624,40	44,721
624,59	43,330
624,78	44,605
624,97	47,812
625,16	42,756
625,35	43,064
625,54	43,464
625,73	43,749
625,92	44,737
626,12	47,324
626,31	46,582
626,50	46,317
626,69	45,402
626,88	44,455
627,07	45,577
627,26	45,370
627,45	45,655
627,64	45,182
627,83	47,557
628,02	43,879
628,21	43,604
628,40	45,209
628,59	45,951
628,78	45,016
628,97	43,550
629,16	42,872
629,35	46,158
629,54	47,942
629,73	44,866
629,92	43,848
630,10	44,835
630,29	46,782
630,48	44,047
630,67	44,135
630,86	46,707
631,05	45,793
631,24	48,008
631,43	42,625
631,62	45,938
631,81	46,776
632,00	46,318
632,19	43,557
632,38	47,029
632,57	48,604
632,76	47,604
632,95	46,241
633,14	48,617
633,33	46,403
633,52	48,878
633,71	45,523
633,90	44,673
634,09	47,872
634,28	47,027
634,47	46,434
634,66	47,932
634,85	46,794
635,04	48,991
635,22	47,848
635,41	46,842
635,60	47,699
635,79	47,882
635,98	45,420
636,17	47,805
636,36	48,307
636,55	44,127
636,74	47,372
636,93	45,733
637,12	46,843
637,31	46,591
637,50	46,231
637,69	48,221
637,87	49,817
638,06	46,996
638,25	45,875
638,44	47,634
638,63	45,306
638,82	47,052
639,01	45,895
639,20	47,722
639,39	47,874
639,58	46,174
639,77	48,413
639,95	47,609
640,14	49,108
640,33	45,556
640,52	46,755
640,71	50,866
640,90	46,170
641,09	49,445
641,28	46,363
641,47	49,010
641,66	46,723
641,84	47,958
642,03	45,199
642,22	48,100
642,41	49,863
642,60	47,030
642,79	48,401
642,98	48,299
643,17	47,024
643,35	45,066
643,54	46,770
643,73	47,989
643,92	48,702
644,11	47,679
644,30	45,975
644,49	49,407
644,67	47,005
644,86	44,341
645,05	48,996
645,24	47,106
645,43	47,126
645,62	48,092
645,81	48,365
645,99	49,088
646,18	46,926
646,37	48,414
646,56	46,242
646,75	48,895
646,94	47,372
647,13	47,850
647,31	46,669
647,50	46,761
647,69	48,590
647,88	47,581
648,07	47,259
648,26	51,692
648,44	48,440
648,63	47,574
648,82	46,284
649,01	51,469
649,20	45,291
649,38	46,810
649,57	47,083
649,76	45,656
649,95	48,421
650,14	44,808
650,33	46,352
650,51	47,636
650,70	48,735
650,89	45,521
651,08	46,993
651,27	49,419
651,45	46,252
651,64	45,639
651,83	48,160
652,02	47,724
652,21	46,634
652,39	47,003
652,58	48,038
652,77	46,649
652,96	46,355
653,15	46,359
653,33	48,944
653,52	46,675
653,71	49,275
653,90	48,651
654,09	47,424
654,27	46,462
654,46	47,798
654,65	47,305
654,84	47,638
655,02	49,218
655,21	48,516
655,40	49,071
655,59	47,428
655,77	48,806
655,96	47,235
656,15	48,869
656,34	49,106
656,53	47,109
656,71	48,574
656,90	47,033
657,09	50,212
657,28	48,577
657,46	47,829
657,65	47,203
657,84	47,179
658,03	48,743
658,21	48,293
658,40	48,364
658,59	46,100
658,78	48,092
658,96	46,727
659,15	48,673
659,34	47,463
659,52	48,480
659,71	49,337
659,90	45,831
660,09	46,262
660,27	47,098
660,46	50,939
660,65	45,760
660,84	47,143
661,02	49,010
661,21	47,600
661,40	46,743
661,58	46,553
661,77	48,704
661,96	43,873
662,15	47,231
662,33	44,498
662,52	46,575
662,71	47,607
662,89	46,085
663,08	45,514
663,27	47,156
663,45	47,043
663,64	46,028
663,83	45,467
664,02	46,535
664,20	47,320
664,39	45,032
664,58	46,275
664,76	47,501
664,95	46,285
665,14	46,526
665,32	44,360
665,51	46,845
665,70	48,860
665,88	49,021
666,07	44,560
666,26	49,413
666,44	47,206
666,63	45,801
666,82	45,037
667,00	48,105
667,19	44,988
667,38	45,127
667,56	46,588
667,75	47,315
667,94	46,652
668,12	43,894
668,31	47,028
668,50	46,161
668,68	46,751
668,87	45,495
669,06	45,273
669,24	47,878
669,43	44,571
669,62	44,768
669,80	43,510
669,99	45,886
670,18	47,758
670,36	45,076
670,55	43,991
670,74	47,563
670,92	44,215
671,11	44,754
671,29	45,249
671,48	46,667
671,67	47,266
671,85	46,159
672,04	46,671
672,23	44,462
672,41	45,407
672,60	46,011
672,78	45,141
672,97	45,047
673,16	47,813
673,34	45,142
673,53	44,424
673,71	45,198
673,90	46,656
674,09	43,993
674,27	44,874
674,46	45,898
674,64	46,678
674,83	46,105
675,02	42,883
675,20	44,981
675,39	43,411
675,57	44,674
675,76	44,294
675,95	46,350
676,13	45,796
676,32	45,295
676,50	46,424
676,69	42,824
676,88	45,669
677,06	44,455
677,25	44,815
677,43	47,491
677,62	47,888
677,80	45,472
677,99	46,287
678,18	46,837
678,36	47,908
678,55	43,098
678,73	44,640
678,92	47,372
679,10	47,145
679,29	45,181
679,48	43,810
679,66	45,285
679,85	44,953
680,03	44,411
680,22	46,106
680,40	45,644
680,59	44,491
680,77	45,220
680,96	44,726
681,15	46,035
681,33	47,650
681,52	44,771
681,70	45,038
681,89	48,394
682,07	47,303
682,26	45,209
682,44	46,466
682,63	47,201
682,81	45,999
683,00	46,571
683,18	44,399
683,37	47,252
683,55	43,687
683,74	47,728
683,92	52,257
684,11	48,474
684,29	47,012
684,48	45,957
684,67	45,673
684,85	47,932
685,04	47,438
685,22	46,985
685,41	46,400
685,59	48,968
685,78	45,998
685,96	46,946
686,15	45,630
686,33	46,234
686,52	46,457
686,70	47,378
686,89	47,270
687,07	48,774
687,26	48,780
687,44	48,036
687,62	47,812
687,81	48,318
687,99	49,081
688,18	46,674
688,36	48,336
688,55	48,153
688,73	48,907
688,92	46,212
689,10	49,114
689,29	48,464
689,47	48,593
689,66	47,948
689,84	46,660
690,03	48,332
690,21	48,128
690,40	47,682
690,58	46,877
690,76	46,140
690,95	49,689
691,13	47,779
691,32	48,787
691,50	47,874
691,69	51,101
691,87	45,836
692,06	48,259
692,24	47,775
692,43	48,997
692,61	45,753
692,79	46,740
692,98	46,489
693,16	51,774
693,35	46,310
693,53	48,194
693,72	50,223
693,90	49,987
694,08	47,206
694,27	48,030
694,45	50,507
694,64	51,317
694,82	48,281
695,01	47,730
695,19	49,104
695,37	47,908
695,56	47,344
695,74	47,673
695,93	49,190
696,11	48,153
696,29	49,817
696,48	49,313
696,66	51,092
696,85	49,940
697,03	48,056
697,21	50,561
697,40	50,721
697,58	46,727
697,77	47,658
697,95	48,864
698,13	50,407
698,32	49,642
698,50	50,781
698,69	48,184
698,87	50,252
699,05	47,760
699,24	49,181
699,42	50,282
699,60	45,854
699,79	47,455
699,97	48,451
700,16	46,724
700,34	50,386
700,52	48,158
700,71	48,067
700,89	48,220
701,07	48,732
701,26	47,740
701,44	47,633
701,63	47,501
701,81	49,166
701,99	49,021
702,18	47,886
702,36	46,592
702,54	50,469
702,73	48,583
702,91	47,756
703,09	48,701
703,28	49,135
703,46	51,088
703,64	49,497
703,83	49,994
704,01	49,904
704,19	48,545
704,38	47,810
704,56	48,223
704,74	49,694
704,93	48,031
705,11	48,837
705,29	46,355
705,48	54,180
705,66	49,008
705,84	48,848
706,03	46,824
706,21	49,549
706,39	48,000
706,58	47,643
706,76	48,461
706,94	50,176
707,12	48,838
707,31	47,944
707,49	46,861
707,67	48,093
707,86	50,439
708,04	49,506
708,22	46,621
708,41	48,132
708,59	49,425
708,77	46,420
708,95	50,078
709,14	52,378
709,32	49,589
709,50	47,348
709,69	46,626
709,87	49,432
710,05	49,436
710,23	47,334
710,42	47,427
710,60	50,358
710,78	51,433
710,97	48,312
711,15	48,875
711,33	50,606
711,51	48,573
711,70	47,532
711,88	48,410
712,06	51,742
712,24	49,798
712,43	48,414
712,61	48,286
712,79	48,022
712,97	49,617
713,16	49,554
713,34	47,702
713,52	48,963
713,70	51,306
713,89	48,573
714,07	47,790
714,25	49,393
714,43	51,702
714,62	47,632
714,80	48,862
714,98	46,425
715,16	49,661
715,35	46,813
715,53	48,584
715,71	50,343
715,89	51,500
716,07	49,467
716,26	52,230
716,44	49,237
716,62	51,084
716,80	50,308
716,99	50,913
717,17	52,253
717,35	51,241
717,53	49,124
717,71	47,000
717,90	50,278
718,08	49,304
718,26	47,001
718,44	50,954
718,62	51,485
718,81	49,671
718,99	48,170
719,17	46,747
719,35	48,671
719,53	49,296
719,72	47,293
719,90	50,392
720,08	48,930
720,26	49,231
720,44	49,051
720,62	48,213
720,81	50,573
720,99	52,692
721,17	48,874
721,35	51,336
721,53	49,682
721,72	49,755
721,90	48,602
722,08	48,875
722,26	50,064
722,44	49,635
722,62	49,514
722,81	50,594
722,99	49,734
723,17	48,497
723,35	51,704
723,53	48,981
723,71	52,005
723,89	54,845
724,08	45,608
724,26	48,170
724,44	48,287
724,62	51,114
724,80	49,424
724,98	48,053
725,16	52,012
725,35	50,291
725,53	48,613
725,71	48,419
725,89	51,109
726,07	52,256
726,25	52,912
726,43	48,016
726,61	50,933
726,80	50,089
726,98	48,968
727,16	50,203
727,34	51,254
727,52	47,945
727,70	48,746
727,88	47,880
728,06	46,320
728,25	47,664
728,43	49,763
728,61	48,705
728,79	49,794
728,97	50,539
729,15	50,258
729,33	49,365
729,51	48,987
729,69	50,913
729,87	49,547
730,06	50,447
730,24	49,312
730,42	52,505
730,60	47,688
730,78	51,066
730,96	50,388
731,14	49,699
731,32	49,175
731,50	47,761
731,68	46,890
731,86	49,343
732,04	49,731
732,22	46,108
732,41	52,807
732,59	48,493
732,77	50,653
732,95	51,972
733,13	50,326
733,31	48,380
733,49	48,481
733,67	50,402
733,85	51,460
734,03	50,836
734,21	48,502
734,39	48,815
734,57	52,101
734,75	50,835
734,93	49,239
735,11	49,101
735,29	47,878
735,47	50,823
735,65	49,884
735,84	47,655
736,02	50,789
736,20	51,076
736,38	49,761
736,56	51,966
736,74	48,609
736,92	47,649
737,10	50,009
737,28	48,923
737,46	49,457
737,64	50,490
737,82	49,585
738,00	50,137
738,18	51,795
738,36	49,243
738,54	47,716
738,72	47,613
738,90	48,500
739,08	50,499
739,26	47,104
739,44	48,830
739,62	51,284
739,80	51,853
739,98	47,873
740,16	49,940
740,34	49,758
740,52	52,109
740,70	49,158
740,88	48,711
741,06	49,661
741,24	50,842
741,42	50,980
741,60	49,353
741,78	50,759
741,96	49,538
742,14	47,444
742,32	46,734
742,50	50,480
742,68	50,606
742,86	49,345
743,04	49,118
743,21	50,330
743,39	52,857
743,57	49,147
743,75	48,770
743,93	46,877
744,11	45,793
744,29	48,605
744,47	47,196
744,65	50,076
744,83	48,411
745,01	48,723
745,19	50,076
745,37	52,036
745,55	50,385
745,73	52,007
745,91	46,425
746,09	49,717
746,27	49,442
746,45	46,152
746,62	49,140
746,80	50,929
746,98	49,765
747,16	49,247
747,34	49,418
747,52	47,979
747,70	49,400
747,88	48,459
748,06	50,401
748,24	49,658
748,42	50,826
748,60	48,752
748,78	47,959
748,95	51,638
749,13	53,048
749,31	47,942
749,49	47,205
749,67	51,167
749,85	50,386
750,03	49,993
750,21	49,776
750,39	51,660
750,57	51,397
750,74	49,631
750,92	47,756
751,10	51,215
751,28	49,483
751,46	50,552
751,64	51,118
751,82	50,801
752,00	50,668
752,17	50,595
752,35	49,633
752,53	51,327
752,71	51,453
752,89	49,944
753,07	49,089
753,25	50,673
753,43	48,626
753,60	52,360
753,78	48,090
753,96	51,787
754,14	49,789
754,32	47,368
754,50	50,095
754,68	52,005
754,85	50,166
755,03	51,401
755,21	49,921
755,39	52,546
755,57	51,823
755,75	50,249
755,92	49,716
756,10	50,835
756,28	50,602
756,46	50,183
756,64	49,665
756,82	51,689
756,99	47,110
757,17	47,476
757,35	46,557
757,53	51,794
757,71	52,245
757,89	48,631
758,06	49,938
758,24	50,957
758,42	50,402
758,60	49,154
758,78	49,298
758,95	51,469
759,13	51,871
759,31	48,415
759,49	48,597
759,67	48,246
759,84	49,745
760,02	48,951
760,20	48,416
760,38	49,944
760,56	48,121
760,73	50,433
760,91	50,536
761,09	51,990
761,27	49,184
761,45	50,296
761,62	49,380
761,80	49,717
761,98	50,009
762,16	49,911
762,33	50,697
762,51	51,687
762,69	48,437
762,87	48,819
763,05	49,629
763,22	50,247
763,40	50,232
763,58	49,675
763,76	49,395
763,93	51,811
764,11	52,572
764,29	47,132
764,47	49,645
764,64	52,766
764,82	51,367
765,00	50,715
765,18	48,376
765,35	49,744
765,53	49,619
765,71	48,806
765,89	47,782
766,06	47,647
766,24	50,842
766,42	48,771
766,60	48,030
766,77	49,479
766,95	48,719
767,13	50,480
767,30	48,639
767,48	47,929
767,66	49,162
767,84	50,469
768,01	48,121
768,19	52,396
768,37	47,874
768,54	47,964
768,72	50,888
768,90	50,203
769,08	50,081
769,25	50,818
769,43	49,154
769,61	46,149
769,78	50,376
769,96	48,442
770,14	49,754
770,31	51,464
770,49	52,861
770,67	49,043
770,85	48,508
771,02	52,397
771,20	49,498
771,38	52,252
771,55	48,371
771,73	50,369
771,91	49,878
772,08	51,506
772,26	49,964
772,44	50,565
772,61	50,175
772,79	49,152
772,97	50,370
773,14	49,674
773,32	52,378
773,50	48,042
773,67	49,447
773,85	50,470
774,03	51,612
774,20	48,237
774,38	49,754
774,56	51,970
774,73	50,571
774,91	47,250
775,09	48,419
775,26	50,409
775,44	50,185
775,61	49,883
775,79	50,139
775,97	52,398
776,14	50,011
776,32	48,338
776,50	49,726
776,67	51,201
776,85	50,986
777,03	47,968
777,20	50,092
777,38	51,718
777,55	53,165
777,73	48,117
777,91	50,312
778,08	50,346
778,26	49,390
778,43	51,503
778,61	46,589
778,79	47,942
778,96	48,388
779,14	49,128
779,32	48,052
779,49	50,391
779,67	55,343
779,84	48,475
780,02	51,501
780,20	46,067
780,37	52,935
780,55	47,023
780,72	51,372
780,90	50,287
781,07	50,202
781,25	50,085
781,43	47,514
781,60	51,611
781,78	48,531
781,95	49,853
782,13	49,251
782,30	55,423
782,48	50,352
782,66	49,511
782,83	47,795
783,01	57,509
783,18	51,618
783,36	49,392
783,53	53,127
783,71	48,596
783,89	48,366
784,06	51,824
784,24	51,661
784,41	51,545
784,59	48,909
784,76	49,798
784,94	52,337
785,11	50,165
785,29	49,128
785,46	50,945
785,64	47,812
785,82	49,740
785,99	51,578
786,17	49,574
786,34	50,166
786,52	52,696
786,69	52,753
786,87	48,297
787,04	47,902
787,22	46,827
787,39	51,998
787,57	50,503
787,74	50,946
787,92	52,913
788,09	52,362
788,27	48,552
788,44	49,084
788,62	54,368
788,79	51,457
788,97	51,665
789,14	49,214
789,32	49,612
789,49	50,883
789,67	51,558
789,84	51,413
790,02	51,404
790,19	49,700
790,37	52,638
790,54	48,306
790,72	56,319
790,89	55,306
791,07	51,118
791,24	48,879
791,42	49,072
791,59	49,916
791,77	51,679
791,94	47,929
792,12	50,250
792,29	51,353
792,47	49,866
792,64	54,861
792,81	55,030
792,99	50,113
793,16	48,884
793,34	51,736
793,51	51,622
793,69	54,709
793,86	52,814
794,04	50,116
794,21	54,628
794,39	47,320
794,56	49,949
794,73	50,748
794,91	52,305
795,08	49,660
795,26	50,754
795,43	49,840
795,61	55,021
795,78	52,541
795,95	52,307
796,13	50,563
796,30	54,125
796,48	51,587
796,65	51,676
796,83	50,700
797,00	54,990
797,17	48,666
797,35	53,009
797,52	50,221
797,70	58,468
797,87	51,481
798,04	46,573
798,22	50,942
798,39	51,988
798,57	49,079
798,74	47,667
798,91	49,618
799,09	53,048
799,26	55,402
799,44	49,459
799,61	50,076
799,78	50,219
799,96	51,553
800,13	47,187
800,31	51,892
800,48	53,570
800,65	56,831
800,83	49,128
801,00	49,143
801,17	52,737
801,35	52,541
801,52	49,807
801,70	51,535
801,87	53,867
802,04	51,693
802,22	48,283
802,39	52,302
802,56	55,069
802,74	52,093
802,91	48,737
803,08	49,438
803,26	50,804
803,43	58,769
803,61	51,729
803,78	49,082
803,95	53,354
804,13	56,554
804,30	49,347
804,47	54,732
804,65	51,591
804,82	52,693
804,99	52,956
805,17	50,017
805,34	59,211
805,51	55,680
805,69	50,001
805,86	49,529
806,03	60,346
806,21	54,203
806,38	54,301
806,55	55,939
806,72	57,465
806,90	54,771
807,07	54,252
807,24	52,295
807,42	49,083
807,59	52,922
807,76	46,431
807,94	55,610
808,11	55,439
808,28	58,247
808,45	53,833
808,63	51,301
808,80	54,516
808,97	50,855
809,15	49,027
809,32	54,925
809,49	49,666
809,67	55,340
809,84	52,902
810,01	56,220
810,18	60,465
810,36	56,763
810,53	51,732
810,70	51,317
810,87	53,944
811,05	51,682
811,22	55,661
811,39	52,001
811,57	57,597
811,74	53,701
811,91	47,577
812,08	53,745
812,26	53,126
812,43	51,424
812,60	55,579
812,77	51,109
812,95	57,841
813,12	57,938
813,29	53,014
813,46	53,280
813,64	56,288
813,81	56,405
813,98	50,744
814,15	57,283
814,32	58,707
814,50	53,230
814,67	52,271
814,84	56,360
815,01	55,719
815,19	49,901
815,36	43,269
815,53	49,374
815,70	52,235
815,87	56,672
816,05	47,984
816,22	52,523
816,39	55,702
816,56	61,824
816,74	58,318
816,91	52,906
817,08	62,752
817,25	61,064
817,42	52,389
817,60	54,971
817,77	54,724
817,94	59,382
818,11	56,936
818,28	51,650
818,45	54,230
818,63	53,740
818,80	59,522
818,97	53,634
819,14	61,939
819,31	60,942
819,49	56,980
819,66	54,023
819,83	55,550
820,00	52,450
820,17	52,188
820,34	52,331
820,52	60,984
820,69	58,936
820,86	52,138
821,03	56,605
821,20	61,663
821,37	60,200
821,55	46,643
821,72	56,047
821,89	58,070
822,06	60,287
822,23	50,751
822,40	52,490
822,57	58,571
822,75	58,827
822,92	48,314
823,09	50,988
823,26	55,234
823,43	61,727
823,60	52,085
823,77	53,635
823,94	60,280
824,12	65,621
824,29	50,115
824,46	46,310
824,63	63,280
824,80	61,113
824,97	58,756
825,14	54,130
825,31	51,299
825,49	60,484
825,66	53,422
825,83	53,959
826,00	59,591
826,17	60,905
826,34	56,258
826,51	48,025
826,68	54,761
826,85	55,884
827,02	52,684
827,20	45,849
827,37	55,007
827,54	57,557
827,71	55,705
827,88	55,560
828,05	59,263
828,22	53,834
828,39	55,143
828,56	56,600
828,73	57,994
828,90	58,599
829,07	51,146
829,25	56,685
829,42	61,283
829,59	53,048
829,76	49,376
829,93	48,644
830,10	57,951
830,27	58,386
830,44	52,480
830,61	48,942
830,78	64,091
830,95	55,228
831,12	48,402
831,29	53,083
831,46	55,274
831,63	56,351
831,80	51,723
831,97	57,431
832,14	63,838
832,31	70,421
832,48	45,653
832,65	63,213
832,83	56,385
833,00	59,997
833,17	52,897
833,34	58,831
833,51	57,195
833,68	72,219
833,85	63,460
834,02	50,901
834,19	57,326
834,36	65,090
834,53	50,474
834,70	52,284
834,87	67,778
835,04	55,256
835,21	49,850
835,38	56,474
835,55	56,986
835,72	73,343
835,89	56,318
836,06	58,364
836,23	68,384
836,40	56,491
836,57	47,194
836,74	55,909
836,91	59,862
837,08	60,706
837,25	60,740
837,42	47,963
837,59	55,009
837,76	61,803
837,93	52,492
838,09	48,593
838,26	62,555
838,43	71,747
838,60	54,961
838,77	52,413
838,94	66,351
839,11	54,259
839,28	53,474
839,45	48,290
839,62	53,032
839,79	62,232
839,96	57,455
840,13	53,922
840,30	52,749
840,47	53,436
840,64	51,278
840,81	62,376
840,98	59,873
841,15	69,386
841,32	51,512
841,48	62,539
841,65	59,479
841,82	55,214
841,99	53,111
842,16	50,915
842,33	56,999
842,50	57,808
842,67	54,818
842,84	53,969
843,01	56,462
843,18	54,836
843,35	59,139
843,52	52,973
843,68	66,903
843,85	55,580
844,02	51,102
844,19	52,774
844,36	67,488
844,53	56,550
844,70	65,940
844,87	60,030
845,04	63,620
845,21	51,459
845,37	60,033
845,54	51,272
845,71	60,695
845,88	75,548
846,05	48,981
846,22	51,418
846,39	62,936
846,56	77,971
846,72	41,980
846,89	57,454
847,06	74,605
847,23	73,653
847,40	44,777
847,57	44,807
847,74	64,681
847,90	74,331
848,07	58,237
848,24	53,034
848,41	60,647
848,58	80,435
848,75	52,233
848,92	53,101
849,08	66,444
849,25	69,373
849,42	48,914
849,59	59,956
849,76	58,194
849,93	64,305
850,09	66,852
850,26	48,944
850,43	74,043
850,60	61,633
850,77	50,098
850,94	57,312
851,10	61,418
851,27	61,598
851,44	56,929
851,61	47,692
851,78	75,280
851,95	69,544
852,11	56,501
852,28	56,641
852,45	71,738
852,62	69,956
852,79	60,373
852,95	58,450
853,12	63,627
853,29	58,017
853,46	56,954
853,63	66,688
853,79	60,704
853,96	56,783
854,13	72,329
854,30	58,984
854,46	77,159
854,63	61,033
854,80	61,810
854,97	52,680
855,14	77,001
855,30	63,876
855,47	59,694
855,64	65,405
855,81	61,614
855,97	76,960
856,14	68,314
856,31	47,216
856,48	69,067
856,65	79,256
856,81	61,958
856,98	53,357
857,15	60,532
857,32	75,189
857,48	48,633
857,65	73,224
857,82	79,046
857,99	79,631
858,15	66,918
858,32	59,768
858,49	75,962
858,65	93,398
858,82	60,732
858,99	64,076
859,16	78,150
859,32	76,702
859,49	59,932
859,66	60,899
859,83	68,252
859,99	63,624
860,16	71,664
860,33	46,811
860,49	65,826
860,66	79,784
860,83	53,955
861,00	51,944
861,16	81,081
861,33	65,238
861,50	39,142
861,66	57,117
861,83	85,003
862,00	66,417
862,16	75,210
862,33	61,265
862,50	118,609
862,67	68,299
862,83	52,127
863,00	80,639
863,17	104,248
863,33	77,441
863,50	27,732
863,67	67,536
863,83	79,380
864,00	81,320
864,17	52,952
864,33	56,467
864,50	69,599
864,67	61,135
864,83	40,562
865,00	53,878
865,17	51,616
865,33	90,843
865,50	44,343
865,67	48,266
865,83	60,909
866,00	108,826
866,17	59,197
866,33	82,645
866,50	94,150
866,66	71,401
866,83	65,775
867,00	73,690
867,16	87,090
867,33	118,772
867,50	50,579
867,66	52,424
867,83	93,583
868,00	83,316
868,16	66,220
868,33	65,731
868,49	57,616
868,66	90,168
868,83	61,173
868,99	63,852
869,16	87,370
869,32	96,612
869,49	72,311
869,66	66,993
869,82	96,191
869,99	104,730
870,15	47,002
870,32	80,258
870,49	122,795
870,65	128,820
870,82	68,981
870,98	60,497
871,15	118,409
871,32	83,024
871,48	39,802
871,65	38,555
871,81	75,517
871,98	62,197
872,15	50,122
872,31	43,479
872,48	124,041
872,64	69,174
872,81	47,909
872,97	98,393
873,14	98,257
873,31	100,947
873,47	66,257
873,64	75,523
873,80	133,628
873,97	132,724
874,13	48,142
874,30	100,627
874,46	109,629
874,63	76,613
874,80	63,687
874,96	39,027
875,13	122,371
875,29	79,607
875,46	91,846
875,62	49,843
875,79	112,667
875,95	96,725
876,12	60,686
876,28	4,419
876,45	137,390
876,61	66,032
876,78	66,144
876,94	28,452
877,11	100,963
877,27	100,165
877,44	72,735
877,60	65,199
877,77	116,162
877,94	133,781
878,10	76,844
878,27	86,935
878,43	127,904
878,60	51,219
878,76	54,155
878,93	61,186
879,09	171,994
879,26	149,498
879,42	106,189
879,58	70,414
879,75	140,165
879,91	174,004
880,08	-10,981
880,24	69,627
880,41	99,444
880,57	106,213
880,74	27,675
880,90	46,337
881,07	76,129
881,23	169,047
881,40	51,846
881,56	77,862
881,73	124,626
881,89	122,516
882,06	19,281
882,22	193,082
882,38	208,878
882,55	171,675
882,71	47,831
882,88	83,366
883,04	209,809
883,21	207,035
883,37	101,851
883,54	85,848
883,70	244,145
883,86	104,976
884,03	92,232
884,19	22,273
884,36	138,584
884,52	229,590
884,69	81,045
884,85	45,973
885,01	299,797
885,18	159,473
885,34	103,504
885,51	28,408
885,67	118,337
>>>>> Data<<<<< Espectral Procesado Extremo
