Fichero De Datos De SpectraSuite
++++++++++++++++++++++++++++++++++++
Fecha: Wed Apr 22 13:24:05 CEST 2009
Usuario: evoflor
Presente Oscuro Del Espectro: Sí
La Referencia de Presente Del Espectro De: Sí
Muestreados de los componentes de Número de espectros: 1
Espectrómetros: USB4F02353
Tiempo de integración (usec): 500000 (USB4F02353)
Promedio de Espectros Hechos un: 5 (USB4F02353)
El Alisar Del Furgón: 0 (USB4F02353)
Párrafo de de Corregir del la del del de Eléctrica del obscuridad: Sí (USB4F02353)
Estrobo/Lámpara Permitido: No (USB4F02353)
Correct for Detector Non-linearity: No (USB4F02353)
Párrafo de de Corregir del la del del de Externa del luz: No (USB4F02353)
Procesado del espectro de Número de pixeles en: 3648
>>>>> Comienza Data<<<<< Espectral Procesado Del EL
177,79	235,541
178,00	235,541
178,22	235,541
178,44	2199,615
178,66	-323,249
178,88	18,779
179,09	-419,723
179,31	315,539
179,53	873,793
179,75	164,262
179,96	159,784
180,18	-275,800
180,40	480,366
180,62	392,931
180,83	-358,533
181,05	-2080,915
181,27	-131035,000
181,49	133,837
181,70	147,442
181,92	861,599
182,14	785,045
182,36	57,486
182,58	-158,350
182,79	1348,371
183,01	-12,078
183,23	122,307
183,45	-112,415
183,66	-205,465
183,88	214,912
184,10	-4526,091
184,32	368,899
184,53	340,224
184,75	-203,819
184,97	25,102
185,18	-116,043
185,40	-599,688
185,62	196,158
185,84	22,784
186,05	198,307
186,27	-239,254
186,49	6666,731
186,71	-70,692
186,92	89,885
187,14	-212,154
187,36	132,335
187,58	92,016
187,79	29,278
188,01	288,771
188,23	-305,781
188,45	55,571
188,66	94,799
188,88	-2464,273
189,10	-2318,350
189,31	-137,602
189,53	88,020
189,75	465,534
189,97	123,212
190,18	203,155
190,40	754,912
190,62	-26,285
190,83	-289,951
191,05	215,477
191,27	271,529
191,49	411,225
191,70	-404,976
191,92	-744,364
192,14	-85,999
192,35	731,923
192,57	4823,857
192,79	64,743
193,01	123,035
193,22	170,605
193,44	-179,070
193,66	63,595
193,87	-48,961
194,09	-45,631
194,31	215,781
194,53	563,881
194,74	103,927
194,96	135,339
195,18	210,928
195,39	-248,377
195,61	-175,537
195,83	-323,989
196,04	89,637
196,26	19,925
196,48	-1,789
196,70	423,330
196,91	211,575
197,13	67,430
197,35	-8,204
197,56	820,851
197,78	2233,843
198,00	582,762
198,21	963,762
198,43	-1389,738
198,65	245,102
198,86	303,004
199,08	267,328
199,30	356,346
199,51	-391,645
199,73	156,113
199,95	239,691
200,16	607,827
200,38	339,150
200,60	201,049
200,81	436,692
201,03	-13,220
201,25	-2408,350
201,46	246,376
201,68	9,835
201,90	3100,795
202,11	-369,599
202,33	227,172
202,55	580,437
202,76	-99,468
202,98	406,394
203,20	-374,688
203,41	-680,184
203,63	252,306
203,85	-158035,000
204,06	-90,638
204,28	-213,819
204,50	204,229
204,71	312,606
204,93	-168,520
205,15	476,009
205,36	-102,553
205,58	368,973
205,80	89,204
206,01	123,459
206,23	175,031
206,45	205,019
206,66	208,760
206,88	15,739
207,10	244,625
207,31	338,060
207,53	135,243
207,75	31,860
207,96	1401,007
208,18	-208,251
208,39	47,058
208,61	5261,000
208,83	-316,533
209,04	367,313
209,26	-554,078
209,48	54,742
209,69	333,282
209,91	631,199
210,13	99,804
210,34	169,092
210,56	171,373
210,77	-1591,614
210,99	94,374
211,21	3949,118
211,42	-187,350
211,64	-77,089
211,86	217,406
212,07	237,478
212,29	298,286
212,50	172,202
212,72	358,596
212,94	84,006
213,15	107,067
213,37	163,314
213,58	-55,067
213,80	-1754,821
214,02	12313,824
214,23	506,816
214,45	491,590
214,67	-1323,598
214,88	64,648
215,10	-476,294
215,31	93,526
215,53	-74,466
215,75	354,670
215,96	1406,429
216,18	20,211
216,39	179,743
216,61	502,260
216,83	713,549
217,04	1553,202
217,26	-87,685
217,47	135,788
217,69	372,008
217,91	-15,296
218,12	-103135,000
218,34	264,834
218,55	352,347
218,77	27,687
218,99	122,280
219,20	-214,886
219,42	240,907
219,63	6,535
219,85	-120,576
220,06	26,288
220,28	300,787
220,50	81,460
220,71	149,490
220,93	3949,717
221,14	-2579,350
221,36	54,044
221,58	-2,609
221,79	262,797
222,01	1393,405
222,22	554,178
222,44	-499,607
222,65	155,113
222,87	1199,545
223,09	122,193
223,30	10,630
223,52	120,815
223,73	268,161
223,95	100,894
224,16	197,804
224,38	515,249
224,60	108,892
224,81	155,766
225,03	137,373
225,24	136,508
225,46	11,354
225,67	24,211
225,89	74,915
226,10	785,045
226,32	925,880
226,54	34,289
226,75	1,646
226,97	205,620
227,18	153,949
227,40	-38,240
227,61	40,685
227,83	39,097
228,04	172,975
228,26	82,173
228,47	66,560
228,69	244,420
228,91	173,024
229,12	110,786
229,34	62,397
229,55	71,967
229,77	49,485
229,98	1,746
230,20	27,946
230,41	19,414
230,63	68,774
230,84	-15,019
231,06	15,908
231,27	36,631
231,49	51,120
231,71	51,457
231,92	32,980
232,14	36,476
232,35	86,916
232,57	53,167
232,78	33,323
233,00	45,720
233,21	71,176
233,43	24,723
233,64	15,614
233,86	28,323
234,07	32,691
234,29	9,325
234,50	27,716
234,72	47,833
234,93	14,704
235,15	30,005
235,36	19,473
235,58	23,996
235,79	45,691
236,01	26,250
236,22	19,427
236,44	48,415
236,65	23,872
236,87	31,344
237,08	14,944
237,30	-10,516
237,51	25,695
237,73	-4,838
237,94	27,720
238,16	35,106
238,37	21,230
238,59	11,775
238,80	15,001
239,02	6,598
239,23	15,281
239,45	-5,911
239,66	16,096
239,88	40,705
240,09	19,605
240,31	3,692
240,52	7,146
240,74	15,526
240,95	16,591
241,17	2,685
241,38	8,834
241,60	16,472
241,81	22,121
242,03	7,841
242,24	11,160
242,46	15,808
242,67	-0,346
242,89	11,762
243,10	19,348
243,32	15,661
243,53	16,369
243,75	6,216
243,96	9,035
244,18	10,670
244,39	14,792
244,60	12,438
244,82	5,027
245,03	17,231
245,25	9,561
245,46	25,984
245,68	6,317
245,89	18,674
246,11	12,331
246,32	10,643
246,54	4,876
246,75	9,573
246,97	15,884
247,18	17,339
247,39	5,660
247,61	7,283
247,82	11,987
248,04	5,169
248,25	6,798
248,47	13,514
248,68	14,359
248,90	3,482
249,11	10,328
249,33	21,014
249,54	9,967
249,75	6,013
249,97	1,784
250,18	14,921
250,40	18,877
250,61	-5,735
250,83	2,906
251,04	3,435
251,25	13,828
251,47	2,092
251,68	10,000
251,90	9,151
252,11	10,442
252,33	4,268
252,54	6,065
252,76	4,820
252,97	1,219
253,18	2,799
253,40	6,029
253,61	-1,302
253,83	9,494
254,04	9,693
254,25	6,223
254,47	6,087
254,68	3,910
254,90	6,241
255,11	7,419
255,33	10,119
255,54	2,046
255,75	6,694
255,97	6,980
256,18	1,127
256,40	7,345
256,61	8,352
256,82	-1,119
257,04	11,204
257,25	4,255
257,47	7,515
257,68	3,473
257,89	9,753
258,11	8,558
258,32	8,177
258,54	3,628
258,75	9,208
258,96	12,083
259,18	5,148
259,39	0,756
259,61	7,917
259,82	3,153
260,03	3,551
260,25	4,881
260,46	5,020
260,68	1,985
260,89	2,864
261,10	0,146
261,32	4,702
261,53	4,434
261,75	5,857
261,96	-0,391
262,17	12,218
262,39	8,015
262,60	6,005
262,81	-0,972
263,03	13,286
263,24	7,980
263,46	1,459
263,67	1,897
263,88	7,871
264,10	6,432
264,31	1,808
264,52	7,214
264,74	9,034
264,95	6,775
265,17	3,856
265,38	5,829
265,59	9,264
265,81	7,534
266,02	-2,446
266,23	0,752
266,45	10,428
266,66	11,629
266,87	5,011
267,09	0,978
267,30	8,561
267,52	7,275
267,73	3,161
267,94	3,777
268,16	6,739
268,37	4,491
268,58	4,401
268,80	-1,088
269,01	5,187
269,22	7,154
269,44	5,513
269,65	5,234
269,86	-0,091
270,08	10,018
270,29	0,969
270,50	4,374
270,72	6,577
270,93	7,509
271,14	3,418
271,36	3,507
271,57	5,264
271,78	5,530
272,00	6,972
272,21	7,801
272,42	7,502
272,64	7,110
272,85	0,938
273,06	3,879
273,28	6,958
273,49	5,870
273,70	5,929
273,92	4,696
274,13	7,612
274,34	1,923
274,56	3,793
274,77	3,296
274,98	5,381
275,20	5,298
275,41	6,245
275,62	2,350
275,84	3,670
276,05	10,620
276,26	0,056
276,47	-0,297
276,69	7,260
276,90	8,931
277,11	3,708
277,33	1,894
277,54	6,634
277,75	4,280
277,97	2,388
278,18	2,494
278,39	8,770
278,61	4,420
278,82	4,862
279,03	5,727
279,24	3,181
279,46	5,406
279,67	7,139
279,88	4,495
280,10	8,973
280,31	1,768
280,52	3,085
280,73	0,646
280,95	9,705
281,16	6,086
281,37	2,286
281,59	11,267
281,80	8,708
282,01	3,135
282,22	3,819
282,44	1,506
282,65	14,264
282,86	8,771
283,08	1,265
283,29	4,515
283,50	2,411
283,71	3,288
283,93	3,090
284,14	5,528
284,35	3,139
284,56	5,026
284,78	4,269
284,99	5,178
285,20	9,732
285,42	7,736
285,63	2,024
285,84	0,326
286,05	2,574
286,27	5,425
286,48	4,390
286,69	3,554
286,90	4,811
287,12	2,884
287,33	0,753
287,54	1,897
287,75	5,803
287,97	6,340
288,18	4,332
288,39	3,317
288,60	6,859
288,82	5,204
289,03	0,183
289,24	5,573
289,45	7,732
289,67	4,209
289,88	1,664
290,09	5,403
290,30	5,298
290,52	2,671
290,73	1,793
290,94	0,593
291,15	3,841
291,37	5,856
291,58	1,731
291,79	5,007
292,00	4,492
292,21	7,847
292,43	3,232
292,64	0,814
292,85	3,123
293,06	6,919
293,28	1,803
293,49	1,784
293,70	7,773
293,91	3,169
294,12	2,314
294,34	5,057
294,55	3,970
294,76	3,122
294,97	4,665
295,19	1,599
295,40	8,804
295,61	4,264
295,82	-0,861
296,03	4,327
296,25	4,584
296,46	3,568
296,67	-1,245
296,88	-0,213
297,09	3,897
297,31	1,565
297,52	4,787
297,73	2,837
297,94	7,105
298,15	3,345
298,37	1,207
298,58	4,497
298,79	6,626
299,00	2,006
299,21	1,957
299,43	1,838
299,64	7,281
299,85	5,599
300,06	2,491
300,27	0,705
300,49	6,577
300,70	5,478
300,91	2,417
301,12	2,675
301,33	5,998
301,54	3,639
301,76	5,799
301,97	3,948
302,18	3,995
302,39	7,994
302,60	13,897
302,82	3,330
303,03	7,338
303,24	3,886
303,45	7,466
303,66	3,308
303,87	2,862
304,09	4,654
304,30	2,153
304,51	2,896
304,72	2,200
304,93	5,941
305,14	3,303
305,36	2,430
305,57	-0,325
305,78	5,192
305,99	2,834
306,20	4,063
306,41	1,259
306,62	1,632
306,84	3,363
307,05	-0,034
307,26	5,388
307,47	6,300
307,68	3,027
307,89	3,336
308,11	4,268
308,32	3,145
308,53	3,034
308,74	0,409
308,95	1,842
309,16	4,915
309,37	5,600
309,59	0,536
309,80	4,790
310,01	5,393
310,22	5,857
310,43	2,064
310,64	5,075
310,85	5,221
311,06	2,537
311,28	3,322
311,49	4,638
311,70	10,121
311,91	0,784
312,12	-0,081
312,33	3,886
312,54	4,953
312,75	2,428
312,97	2,117
313,18	4,977
313,39	2,400
313,60	1,885
313,81	3,747
314,02	4,591
314,23	6,305
314,44	-0,058
314,65	2,577
314,87	2,723
315,08	4,595
315,29	4,534
315,50	5,454
315,71	5,771
315,92	7,364
316,13	2,995
316,34	4,746
316,55	4,902
316,77	0,393
316,98	3,121
317,19	1,054
317,40	4,665
317,61	10,100
317,82	3,058
318,03	0,502
318,24	3,898
318,45	7,422
318,66	3,635
318,87	-2,233
319,09	5,400
319,30	5,621
319,51	6,724
319,72	5,116
319,93	6,773
320,14	6,512
320,35	5,296
320,56	0,809
320,77	0,286
320,98	7,825
321,19	3,695
321,40	5,552
321,62	7,973
321,83	3,190
322,04	2,650
322,25	2,513
322,46	8,257
322,67	5,864
322,88	4,001
323,09	2,109
323,30	7,652
323,51	7,840
323,72	3,796
323,93	2,795
324,14	1,748
324,35	-1,620
324,56	0,318
324,77	2,412
324,99	5,011
325,20	0,622
325,41	4,903
325,62	4,394
325,83	2,002
326,04	2,797
326,25	3,484
326,46	1,400
326,67	5,054
326,88	3,009
327,09	1,403
327,30	1,043
327,51	5,214
327,72	5,333
327,93	5,443
328,14	-0,705
328,35	2,585
328,56	3,517
328,77	3,468
328,98	4,323
329,19	4,993
329,40	5,581
329,61	4,880
329,82	1,487
330,04	5,314
330,25	1,487
330,46	3,753
330,67	1,464
330,88	3,668
331,09	4,437
331,30	1,316
331,51	3,722
331,72	5,258
331,93	5,082
332,14	1,790
332,35	6,933
332,56	2,119
332,77	5,590
332,98	-0,851
333,19	2,880
333,40	3,585
333,61	3,883
333,82	6,148
334,03	4,446
334,24	8,393
334,45	4,145
334,66	4,027
334,87	5,080
335,08	3,884
335,29	2,719
335,50	1,515
335,71	2,061
335,92	4,857
336,13	6,222
336,34	2,352
336,55	4,788
336,76	5,429
336,97	4,078
337,18	3,549
337,39	4,561
337,60	5,323
337,81	5,557
338,02	3,987
338,23	2,588
338,44	4,664
338,65	4,546
338,86	4,358
339,07	3,423
339,28	5,306
339,49	3,316
339,70	1,388
339,91	6,241
340,11	7,456
340,32	3,951
340,53	1,141
340,74	-0,492
340,95	2,967
341,16	5,892
341,37	1,347
341,58	-1,367
341,79	3,065
342,00	4,658
342,21	2,271
342,42	4,397
342,63	6,011
342,84	2,932
343,05	2,972
343,26	5,245
343,47	6,595
343,68	3,486
343,89	2,209
344,10	6,104
344,31	6,282
344,52	3,972
344,73	1,070
344,94	6,868
345,14	4,428
345,35	5,109
345,56	4,271
345,77	2,823
345,98	2,705
346,19	6,027
346,40	2,538
346,61	1,521
346,82	4,438
347,03	3,339
347,24	5,457
347,45	1,137
347,66	7,103
347,87	1,760
348,08	5,310
348,28	1,671
348,49	3,777
348,70	6,844
348,91	5,253
349,12	2,755
349,33	16,898
349,54	2,886
349,75	4,913
349,96	4,467
350,17	5,792
350,38	1,625
350,59	5,521
350,80	2,292
351,00	5,547
351,21	9,418
351,42	2,091
351,63	2,637
351,84	4,741
352,05	8,586
352,26	4,528
352,47	2,353
352,68	6,653
352,89	4,178
353,09	6,364
353,30	-0,915
353,51	3,583
353,72	9,163
353,93	6,300
354,14	1,066
354,35	2,241
354,56	6,087
354,77	3,214
354,98	-2,016
355,18	6,894
355,39	7,696
355,60	1,692
355,81	2,863
356,02	7,449
356,23	3,725
356,44	2,866
356,65	4,952
356,85	8,439
357,06	7,254
357,27	6,124
357,48	-0,192
357,69	6,354
357,90	4,478
358,11	1,526
358,32	1,718
358,52	6,152
358,73	6,310
358,94	1,873
359,15	3,658
359,36	6,487
359,57	1,838
359,78	5,922
359,98	5,452
360,19	0,922
360,40	3,837
360,61	7,261
360,82	4,455
361,03	8,235
361,24	8,152
361,44	1,893
361,65	5,347
361,86	6,712
362,07	3,830
362,28	3,680
362,49	2,178
362,70	3,454
362,90	6,063
363,11	2,866
363,32	3,562
363,53	3,331
363,74	9,228
363,95	4,621
364,15	4,260
364,36	9,369
364,57	6,248
364,78	4,089
364,99	1,072
365,20	4,492
365,40	6,362
365,61	1,839
365,82	7,792
366,03	5,879
366,24	6,293
366,45	1,207
366,65	4,312
366,86	4,496
367,07	5,918
367,28	-0,292
367,49	4,056
367,69	8,758
367,90	3,624
368,11	5,574
368,32	2,096
368,53	6,142
368,73	4,620
368,94	1,428
369,15	4,073
369,36	6,395
369,57	4,356
369,78	4,077
369,98	4,298
370,19	6,053
370,40	1,796
370,61	4,089
370,82	4,030
371,02	6,669
371,23	9,285
371,44	0,524
371,65	7,449
371,85	7,570
372,06	5,863
372,27	2,728
372,48	4,250
372,69	3,178
372,89	4,484
373,10	4,502
373,31	6,460
373,52	5,453
373,73	9,929
373,93	2,065
374,14	2,493
374,35	7,314
374,56	8,020
374,76	5,482
374,97	5,809
375,18	6,556
375,39	7,042
375,60	10,000
375,80	2,910
376,01	4,393
376,22	3,392
376,43	4,397
376,63	4,063
376,84	5,114
377,05	6,024
377,26	0,339
377,46	0,806
377,67	4,156
377,88	5,542
378,09	3,239
378,29	1,353
378,50	4,703
378,71	5,933
378,92	0,078
379,12	4,210
379,33	4,033
379,54	2,883
379,75	5,540
379,95	2,566
380,16	6,234
380,37	8,490
380,58	4,109
380,78	8,334
380,99	5,287
381,20	3,692
381,41	1,577
381,61	6,226
381,82	3,870
382,03	2,079
382,24	5,594
382,44	5,911
382,65	5,348
382,86	6,715
383,06	4,329
383,27	4,385
383,48	4,164
383,69	4,919
383,89	6,176
384,10	5,371
384,31	5,513
384,51	9,572
384,72	5,120
384,93	5,610
385,14	5,768
385,34	7,109
385,55	3,686
385,76	-0,948
385,96	10,708
386,17	5,960
386,38	3,874
386,59	5,913
386,79	4,939
387,00	10,630
387,21	5,828
387,41	5,861
387,62	1,365
387,83	8,342
388,03	7,928
388,24	-0,746
388,45	7,994
388,66	4,223
388,86	3,946
389,07	0,426
389,28	9,350
389,48	5,940
389,69	4,954
389,90	3,854
390,10	7,912
390,31	9,013
390,52	-3,532
390,72	3,250
390,93	4,859
391,14	4,432
391,34	5,304
391,55	5,597
391,76	5,475
391,96	6,980
392,17	5,006
392,38	8,185
392,58	7,816
392,79	5,557
393,00	0,754
393,20	1,829
393,41	0,316
393,62	5,522
393,82	5,762
394,03	4,393
394,24	5,185
394,44	7,556
394,65	5,740
394,86	2,823
395,06	7,664
395,27	3,084
395,48	4,067
395,68	4,614
395,89	6,333
396,10	10,484
396,30	2,647
396,51	2,878
396,72	6,631
396,92	0,088
397,13	5,084
397,34	1,386
397,54	7,521
397,75	2,079
397,95	1,780
398,16	2,023
398,37	3,779
398,57	5,652
398,78	7,797
398,99	5,352
399,19	5,985
399,40	9,459
399,60	0,987
399,81	2,079
400,02	7,062
400,22	7,805
400,43	2,311
400,64	5,746
400,84	2,454
401,05	8,469
401,25	8,779
401,46	3,208
401,67	7,861
401,87	6,525
402,08	2,140
402,29	4,959
402,49	8,663
402,70	8,746
402,90	2,531
403,11	6,340
403,32	6,767
403,52	5,152
403,73	8,952
403,93	2,243
404,14	10,308
404,35	5,698
404,55	-0,395
404,76	6,292
404,96	6,527
405,17	11,029
405,38	9,569
405,58	5,852
405,79	7,861
405,99	9,806
406,20	3,750
406,40	-1,007
406,61	9,461
406,82	3,290
407,02	6,697
407,23	5,039
407,43	3,993
407,64	2,699
407,85	7,539
408,05	4,798
408,26	12,538
408,46	7,162
408,67	3,022
408,87	5,403
409,08	3,262
409,29	12,504
409,49	10,899
409,70	6,586
409,90	6,291
410,11	10,224
410,31	12,703
410,52	7,660
410,72	6,299
410,93	11,124
411,14	3,630
411,34	4,719
411,55	9,990
411,75	10,326
411,96	5,232
412,16	5,700
412,37	7,455
412,57	9,986
412,78	8,821
412,99	5,119
413,19	7,598
413,40	7,432
413,60	5,754
413,81	6,581
414,01	6,183
414,22	5,859
414,42	5,399
414,63	1,193
414,83	10,695
415,04	17,233
415,24	5,494
415,45	7,358
415,65	6,332
415,86	7,320
416,07	7,067
416,27	9,449
416,48	11,330
416,68	12,083
416,89	5,631
417,09	7,735
417,30	13,253
417,50	5,119
417,71	9,548
417,91	8,923
418,12	8,944
418,32	9,149
418,53	6,719
418,73	6,703
418,94	7,781
419,14	10,675
419,35	3,321
419,55	9,207
419,76	14,733
419,96	6,563
420,17	6,266
420,37	6,757
420,58	15,400
420,78	9,807
420,99	7,550
421,19	10,901
421,40	10,508
421,60	9,986
421,81	7,372
422,01	6,918
422,22	8,337
422,42	11,045
422,63	8,756
422,83	11,597
423,04	12,435
423,24	14,532
423,45	4,841
423,65	9,576
423,86	12,616
424,06	14,137
424,27	12,290
424,47	6,025
424,67	9,665
424,88	10,062
425,08	8,846
425,29	14,366
425,49	13,087
425,70	7,781
425,90	11,909
426,11	10,343
426,31	9,211
426,52	10,326
426,72	5,972
426,93	7,149
427,13	12,508
427,33	14,442
427,54	14,677
427,74	14,488
427,95	18,159
428,15	7,626
428,36	10,306
428,56	10,755
428,77	12,976
428,97	10,970
429,18	11,862
429,38	9,335
429,58	11,779
429,79	13,668
429,99	9,388
430,20	7,307
430,40	16,579
430,61	6,308
430,81	8,369
431,01	14,596
431,22	15,112
431,42	16,665
431,63	5,845
431,83	9,207
432,04	11,011
432,24	15,401
432,44	11,050
432,65	9,490
432,85	11,976
433,06	14,989
433,26	12,430
433,47	8,442
433,67	9,034
433,87	9,621
434,08	5,977
434,28	11,771
434,49	10,719
434,69	16,741
434,89	9,580
435,10	10,275
435,30	17,573
435,51	11,038
435,71	9,894
435,91	10,678
436,12	11,505
436,32	11,505
436,53	12,495
436,73	8,716
436,93	12,105
437,14	10,374
437,34	9,717
437,55	10,007
437,75	11,488
437,95	11,036
438,16	10,634
438,36	10,045
438,57	9,935
438,77	6,760
438,97	12,041
439,18	15,868
439,38	11,428
439,58	11,637
439,79	10,873
439,99	9,603
440,20	14,523
440,40	15,119
440,60	11,385
440,81	15,311
441,01	11,976
441,21	14,970
441,42	12,590
441,62	13,457
441,83	10,725
442,03	8,947
442,23	10,188
442,44	11,953
442,64	10,815
442,84	8,209
443,05	13,973
443,25	13,151
443,45	13,095
443,66	12,665
443,86	8,533
444,06	10,443
444,27	12,539
444,47	13,043
444,67	10,193
444,88	12,648
445,08	14,545
445,28	10,119
445,49	9,294
445,69	6,094
445,90	13,969
446,10	17,860
446,30	14,901
446,51	15,888
446,71	15,950
446,91	13,127
447,12	21,246
447,32	11,017
447,52	14,801
447,72	12,884
447,93	13,353
448,13	6,662
448,33	15,845
448,54	14,613
448,74	7,778
448,94	14,057
449,15	16,285
449,35	18,359
449,55	12,532
449,76	14,515
449,96	12,929
450,16	14,314
450,37	10,202
450,57	13,961
450,77	8,884
450,98	13,782
451,18	16,527
451,38	13,357
451,58	14,330
451,79	11,371
451,99	14,752
452,19	12,876
452,40	16,564
452,60	6,885
452,80	10,432
453,00	14,744
453,21	13,428
453,41	15,743
453,61	11,428
453,82	12,745
454,02	10,045
454,22	17,474
454,42	13,430
454,63	12,509
454,83	9,628
455,03	14,916
455,24	13,494
455,44	11,465
455,64	10,654
455,84	6,590
456,05	8,619
456,25	5,453
456,45	14,668
456,65	11,113
456,86	12,133
457,06	13,249
457,26	22,256
457,47	18,729
457,67	14,732
457,87	10,433
458,07	10,474
458,28	17,199
458,48	17,770
458,68	7,766
458,88	10,846
459,09	13,298
459,29	12,789
459,49	13,104
459,69	13,349
459,90	11,933
460,10	11,469
460,30	15,773
460,50	9,136
460,71	16,524
460,91	10,035
461,11	11,246
461,31	9,862
461,52	17,068
461,72	11,673
461,92	15,797
462,12	21,190
462,32	8,656
462,53	11,649
462,73	4,199
462,93	14,189
463,13	13,875
463,34	8,633
463,54	10,295
463,74	13,194
463,94	14,337
464,14	15,207
464,35	8,523
464,55	18,395
464,75	19,886
464,95	9,848
465,16	10,401
465,36	17,878
465,56	11,237
465,76	12,118
465,96	12,154
466,17	10,693
466,37	10,268
466,57	13,006
466,77	11,776
466,97	13,549
467,18	17,106
467,38	12,308
467,58	12,485
467,78	20,936
467,98	14,123
468,19	15,490
468,39	16,684
468,59	16,665
468,79	12,971
468,99	10,121
469,19	9,050
469,40	15,712
469,60	10,831
469,80	7,840
470,00	13,715
470,20	16,501
470,41	13,341
470,61	13,640
470,81	13,418
471,01	10,359
471,21	13,859
471,41	9,408
471,62	11,666
471,82	7,287
472,02	12,968
472,22	11,904
472,42	12,709
472,62	17,621
472,83	9,921
473,03	15,300
473,23	12,303
473,43	18,669
473,63	14,740
473,83	12,874
474,03	10,872
474,24	15,578
474,44	8,851
474,64	9,879
474,84	8,759
475,04	13,924
475,24	13,660
475,45	13,729
475,65	8,581
475,85	13,624
476,05	6,310
476,25	12,462
476,45	11,928
476,65	17,194
476,85	10,240
477,06	12,073
477,26	9,660
477,46	13,270
477,66	10,669
477,86	13,237
478,06	10,385
478,26	17,141
478,46	11,534
478,67	13,298
478,87	10,425
479,07	11,710
479,27	14,969
479,47	10,746
479,67	6,851
479,87	8,513
480,07	14,275
480,28	8,809
480,48	12,479
480,68	11,571
480,88	14,087
481,08	11,095
481,28	11,556
481,48	12,822
481,68	12,571
481,88	9,232
482,08	10,869
482,29	14,298
482,49	8,153
482,69	11,709
482,89	10,917
483,09	12,024
483,29	12,156
483,49	8,703
483,69	12,038
483,89	8,087
484,09	9,506
484,29	7,251
484,50	11,260
484,70	11,506
484,90	10,197
485,10	11,246
485,30	12,307
485,50	14,570
485,70	11,565
485,90	10,301
486,10	9,446
486,30	9,106
486,50	9,881
486,70	8,422
486,90	9,783
487,10	12,173
487,30	8,697
487,51	11,058
487,71	7,088
487,91	9,575
488,11	14,656
488,31	5,772
488,51	14,506
488,71	9,160
488,91	11,543
489,11	7,571
489,31	10,127
489,51	9,850
489,71	9,333
489,91	9,316
490,11	6,089
490,31	10,067
490,51	13,367
490,71	7,595
490,91	7,880
491,11	11,355
491,31	7,478
491,51	6,651
491,72	9,222
491,92	10,822
492,12	12,662
492,32	9,758
492,52	11,324
492,72	12,000
492,92	10,430
493,12	10,721
493,32	6,679
493,52	6,910
493,72	7,554
493,92	12,284
494,12	10,654
494,32	11,859
494,52	9,187
494,72	8,236
494,92	7,355
495,12	11,307
495,32	12,284
495,52	8,721
495,72	10,801
495,92	12,114
496,12	13,619
496,32	8,078
496,52	8,788
496,72	9,537
496,92	12,121
497,12	10,667
497,32	8,842
497,52	12,398
497,72	13,619
497,92	10,441
498,12	8,432
498,32	10,198
498,52	11,714
498,72	9,744
498,92	8,006
499,12	11,388
499,32	4,550
499,52	10,180
499,72	7,787
499,92	10,999
500,12	11,146
500,32	11,148
500,52	9,059
500,72	14,290
500,91	11,775
501,11	9,544
501,31	5,651
501,51	13,688
501,71	12,027
501,91	11,565
502,11	9,308
502,31	9,304
502,51	11,949
502,71	8,495
502,91	8,086
503,11	9,338
503,31	10,582
503,51	6,455
503,71	6,961
503,91	13,892
504,11	8,671
504,31	9,781
504,51	8,911
504,71	14,296
504,91	8,665
505,10	8,774
505,30	8,053
505,50	9,462
505,70	6,507
505,90	8,730
506,10	6,029
506,30	8,901
506,50	11,349
506,70	13,789
506,90	7,039
507,10	8,493
507,30	8,980
507,50	9,560
507,70	8,032
507,89	9,998
508,09	9,381
508,29	8,405
508,49	6,746
508,69	8,738
508,89	8,203
509,09	8,722
509,29	8,038
509,49	12,128
509,69	13,815
509,89	9,704
510,09	8,798
510,28	9,986
510,48	9,529
510,68	8,424
510,88	6,587
511,08	6,873
511,28	8,289
511,48	8,246
511,68	5,999
511,88	3,880
512,07	10,189
512,27	9,274
512,47	8,040
512,67	6,191
512,87	5,219
513,07	7,799
513,27	6,791
513,47	6,401
513,67	5,340
513,86	9,548
514,06	8,706
514,26	6,950
514,46	10,729
514,66	7,579
514,86	9,353
515,06	13,648
515,26	10,744
515,45	8,328
515,65	7,093
515,85	9,067
516,05	4,535
516,25	7,376
516,45	7,821
516,65	7,234
516,84	8,725
517,04	11,768
517,24	6,921
517,44	8,574
517,64	10,898
517,84	8,863
518,04	6,075
518,23	11,085
518,43	10,502
518,63	7,992
518,83	5,177
519,03	6,349
519,23	11,899
519,42	5,877
519,62	6,262
519,82	7,108
520,02	7,731
520,22	7,149
520,42	6,191
520,61	9,153
520,81	6,596
521,01	8,570
521,21	5,672
521,41	9,436
521,61	10,410
521,80	7,882
522,00	7,402
522,20	11,603
522,40	12,818
522,60	8,332
522,79	6,630
522,99	11,792
523,19	6,002
523,39	6,299
523,59	6,707
523,78	11,355
523,98	8,569
524,18	7,285
524,38	7,273
524,58	9,205
524,77	10,032
524,97	6,917
525,17	9,223
525,37	6,821
525,57	12,611
525,76	7,385
525,96	7,296
526,16	6,767
526,36	7,570
526,56	6,498
526,75	4,828
526,95	10,733
527,15	10,178
527,35	9,447
527,55	6,406
527,74	10,388
527,94	4,993
528,14	5,127
528,34	7,934
528,53	9,643
528,73	10,097
528,93	6,333
529,13	5,220
529,32	8,500
529,52	8,931
529,72	4,158
529,92	6,750
530,12	6,083
530,31	7,619
530,51	6,467
530,71	9,168
530,91	11,851
531,10	2,171
531,30	6,620
531,50	5,038
531,70	7,457
531,89	6,028
532,09	3,694
532,29	6,822
532,49	7,101
532,68	6,533
532,88	5,416
533,08	3,530
533,28	7,830
533,47	7,152
533,67	7,936
533,87	4,531
534,06	12,464
534,26	8,835
534,46	4,448
534,66	6,877
534,85	10,168
535,05	2,110
535,25	6,236
535,45	4,881
535,64	12,005
535,84	8,049
536,04	4,506
536,23	6,017
536,43	9,821
536,63	3,936
536,83	7,953
537,02	5,206
537,22	5,369
537,42	6,206
537,61	4,835
537,81	7,862
538,01	8,452
538,20	8,183
538,40	5,874
538,60	6,737
538,80	5,665
538,99	7,733
539,19	6,554
539,39	6,296
539,58	7,901
539,78	4,687
539,98	5,516
540,17	4,768
540,37	6,586
540,57	6,163
540,76	5,783
540,96	4,160
541,16	7,353
541,36	6,107
541,55	1,772
541,75	3,363
541,95	4,539
542,14	5,160
542,34	2,402
542,54	1,575
542,73	6,551
542,93	5,294
543,13	3,571
543,32	4,323
543,52	6,318
543,72	3,189
543,91	5,524
544,11	3,592
544,31	3,826
544,50	4,119
544,70	4,610
544,89	5,107
545,09	6,578
545,29	4,486
545,48	4,308
545,68	2,133
545,88	4,272
546,07	3,663
546,27	2,705
546,47	3,881
546,66	4,518
546,86	3,882
547,06	5,105
547,25	3,642
547,45	5,132
547,64	5,908
547,84	9,489
548,04	3,884
548,23	9,303
548,43	6,886
548,63	7,708
548,82	7,345
549,02	4,873
549,21	4,579
549,41	5,911
549,61	7,877
549,80	4,576
550,00	6,483
550,20	2,264
550,39	7,631
550,59	4,907
550,78	5,699
550,98	1,388
551,18	6,833
551,37	5,748
551,57	7,132
551,76	6,958
551,96	6,908
552,16	2,858
552,35	5,647
552,55	6,003
552,74	5,772
552,94	7,410
553,14	3,856
553,33	4,622
553,53	4,001
553,72	5,313
553,92	5,194
554,12	6,024
554,31	5,943
554,51	4,986
554,70	4,066
554,90	6,842
555,09	6,513
555,29	6,511
555,49	5,112
555,68	8,010
555,88	4,804
556,07	6,031
556,27	9,135
556,46	5,217
556,66	3,675
556,86	8,392
557,05	6,871
557,25	3,436
557,44	5,211
557,64	5,307
557,83	6,801
558,03	4,798
558,22	5,291
558,42	6,965
558,62	7,610
558,81	6,969
559,01	6,578
559,20	7,700
559,40	4,014
559,59	5,597
559,79	2,412
559,98	6,800
560,18	8,029
560,37	4,133
560,57	7,294
560,76	6,760
560,96	4,910
561,16	7,894
561,35	6,317
561,55	9,784
561,74	4,049
561,94	7,597
562,13	4,729
562,33	7,359
562,52	6,391
562,72	5,131
562,91	5,131
563,11	5,542
563,30	6,928
563,50	4,889
563,69	4,611
563,89	4,940
564,08	5,480
564,28	5,381
564,47	5,492
564,67	2,253
564,86	7,304
565,06	4,767
565,25	5,883
565,45	5,801
565,64	9,745
565,84	5,225
566,03	3,888
566,23	3,563
566,42	6,644
566,62	5,073
566,81	5,410
567,01	4,506
567,20	5,288
567,40	3,541
567,59	4,881
567,79	7,674
567,98	9,432
568,18	5,474
568,37	5,798
568,57	5,980
568,76	5,741
568,96	5,286
569,15	4,784
569,35	7,018
569,54	6,903
569,73	7,387
569,93	3,783
570,12	5,680
570,32	5,626
570,51	5,021
570,71	5,795
570,90	7,303
571,10	4,720
571,29	2,565
571,49	4,569
571,68	6,578
571,87	4,645
572,07	5,500
572,26	3,318
572,46	5,784
572,65	4,881
572,85	2,886
573,04	6,298
573,24	5,295
573,43	6,668
573,62	6,290
573,82	6,300
574,01	6,154
574,21	5,145
574,40	2,374
574,60	2,605
574,79	7,582
574,98	4,657
575,18	6,113
575,37	4,321
575,57	5,075
575,76	6,010
575,96	5,465
576,15	3,921
576,34	5,935
576,54	5,794
576,73	6,179
576,93	5,166
577,12	6,075
577,31	6,190
577,51	4,667
577,70	5,676
577,90	3,530
578,09	4,895
578,28	5,052
578,48	3,829
578,67	7,559
578,87	6,509
579,06	5,010
579,25	6,503
579,45	7,241
579,64	4,546
579,84	3,644
580,03	4,132
580,22	7,038
580,42	4,694
580,61	5,548
580,81	5,626
581,00	6,818
581,19	5,869
581,39	4,734
581,58	5,144
581,77	6,130
581,97	6,528
582,16	6,060
582,35	3,159
582,55	6,545
582,74	7,772
582,94	5,043
583,13	2,991
583,32	5,408
583,52	5,846
583,71	7,067
583,90	4,910
584,10	6,449
584,29	7,521
584,48	5,078
584,68	5,846
584,87	7,725
585,06	5,889
585,26	4,892
585,45	5,465
585,65	7,538
585,84	5,107
586,03	5,558
586,23	4,432
586,42	6,733
586,61	9,135
586,81	4,900
587,00	5,455
587,19	5,606
587,39	8,327
587,58	6,790
587,77	7,115
587,97	5,290
588,16	6,575
588,35	5,905
588,54	8,140
588,74	6,109
588,93	8,393
589,12	6,847
589,32	6,083
589,51	5,636
589,70	4,822
589,90	5,566
590,09	6,483
590,28	11,202
590,48	6,161
590,67	6,154
590,86	5,895
591,06	6,762
591,25	8,715
591,44	7,722
591,63	5,776
591,83	8,439
592,02	7,781
592,21	5,539
592,41	6,921
592,60	8,653
592,79	7,979
592,98	6,810
593,18	5,651
593,37	6,908
593,56	7,362
593,76	7,970
593,95	5,537
594,14	6,004
594,33	8,972
594,53	7,267
594,72	6,022
594,91	10,364
595,10	8,719
595,30	5,883
595,49	7,644
595,68	9,100
595,88	8,311
596,07	7,338
596,26	7,289
596,45	8,410
596,65	3,517
596,84	6,524
597,03	8,702
597,22	6,835
597,42	10,468
597,61	7,385
597,80	8,148
597,99	7,590
598,19	7,367
598,38	9,536
598,57	7,390
598,76	10,305
598,95	10,241
599,15	9,025
599,34	9,384
599,53	10,012
599,72	7,238
599,92	9,213
600,11	8,316
600,30	9,067
600,49	11,579
600,69	6,476
600,88	9,127
601,07	9,548
601,26	9,376
601,45	9,833
601,65	6,877
601,84	10,215
602,03	9,647
602,22	8,826
602,42	9,756
602,61	9,066
602,80	9,676
602,99	9,087
603,18	7,789
603,38	10,682
603,57	7,901
603,76	7,538
603,95	8,922
604,14	10,910
604,34	10,124
604,53	9,032
604,72	8,834
604,91	9,445
605,10	9,516
605,29	9,653
605,49	8,326
605,68	10,104
605,87	12,619
606,06	9,435
606,25	8,545
606,45	9,356
606,64	7,979
606,83	9,964
607,02	9,496
607,21	10,791
607,40	10,477
607,60	8,291
607,79	8,682
607,98	8,909
608,17	9,428
608,36	8,943
608,55	10,095
608,75	10,113
608,94	11,094
609,13	8,668
609,32	6,965
609,51	9,051
609,70	8,023
609,89	9,687
610,09	8,695
610,28	12,059
610,47	8,758
610,66	8,767
610,85	7,971
611,04	10,503
611,23	7,818
611,43	7,100
611,62	8,669
611,81	8,685
612,00	9,812
612,19	8,294
612,38	9,024
612,57	9,372
612,77	9,694
612,96	8,635
613,15	8,923
613,34	11,777
613,53	11,139
613,72	10,621
613,91	10,125
614,10	9,567
614,29	11,818
614,49	8,309
614,68	9,174
614,87	11,120
615,06	14,743
615,25	8,038
615,44	10,597
615,63	10,945
615,82	9,715
616,01	9,493
616,21	11,075
616,40	14,280
616,59	13,940
616,78	10,869
616,97	11,392
617,16	12,250
617,35	12,383
617,54	11,482
617,73	12,394
617,92	10,297
618,11	13,775
618,31	8,852
618,50	12,415
618,69	12,864
618,88	10,535
619,07	10,148
619,26	10,948
619,45	11,811
619,64	9,569
619,83	10,473
620,02	11,157
620,21	13,678
620,40	12,445
620,59	11,723
620,78	9,665
620,97	11,884
621,17	12,796
621,36	10,945
621,55	10,643
621,74	13,032
621,93	12,738
622,12	11,236
622,31	10,111
622,50	10,635
622,69	15,479
622,88	12,292
623,07	13,192
623,26	12,931
623,45	15,555
623,64	11,910
623,83	11,948
624,02	14,901
624,21	14,726
624,40	12,561
624,59	10,928
624,78	13,039
624,97	14,845
625,16	10,805
625,35	10,179
625,54	12,801
625,73	12,681
625,92	11,761
626,12	14,486
626,31	14,651
626,50	14,713
626,69	13,322
626,88	11,242
627,07	13,236
627,26	14,457
627,45	12,134
627,64	12,307
627,83	14,462
628,02	12,915
628,21	12,252
628,40	12,865
628,59	14,239
628,78	12,643
628,97	12,241
629,16	10,263
629,35	12,840
629,54	15,600
629,73	13,518
629,92	13,003
630,10	13,464
630,29	14,343
630,48	13,512
630,67	13,175
630,86	14,356
631,05	13,885
631,24	14,666
631,43	12,189
631,62	14,527
631,81	15,003
632,00	13,148
632,19	11,922
632,38	14,282
632,57	14,779
632,76	13,206
632,95	15,048
633,14	15,077
633,33	15,050
633,52	14,386
633,71	15,551
633,90	12,250
634,09	14,361
634,28	14,351
634,47	12,543
634,66	14,000
634,85	14,369
635,04	17,558
635,22	14,056
635,41	15,072
635,60	16,180
635,79	16,154
635,98	12,578
636,17	16,247
636,36	14,756
636,55	13,561
636,74	11,778
636,93	15,026
637,12	15,237
637,31	13,225
637,50	13,032
637,69	15,996
637,87	15,688
638,06	14,103
638,25	13,992
638,44	15,045
638,63	13,803
638,82	14,215
639,01	13,974
639,20	14,983
639,39	17,109
639,58	14,654
639,77	15,632
639,95	13,813
640,14	16,879
640,33	13,111
640,52	13,714
640,71	16,595
640,90	15,358
641,09	17,156
641,28	15,466
641,47	16,442
641,66	15,323
641,84	14,329
642,03	13,417
642,22	15,358
642,41	17,701
642,60	14,975
642,79	15,468
642,98	16,302
643,17	15,075
643,35	13,785
643,54	14,448
643,73	17,358
643,92	16,765
644,11	15,909
644,30	13,597
644,49	17,609
644,67	13,545
644,86	13,875
645,05	17,323
645,24	15,143
645,43	15,224
645,62	15,579
645,81	14,653
645,99	17,919
646,18	17,182
646,37	15,341
646,56	15,072
646,75	18,322
646,94	16,789
647,13	15,043
647,31	15,085
647,50	16,403
647,69	17,947
647,88	17,192
648,07	16,954
648,26	20,125
648,44	15,573
648,63	14,621
648,82	15,322
649,01	17,587
649,20	14,379
649,38	15,919
649,57	15,036
649,76	13,953
649,95	17,575
650,14	13,433
650,33	15,315
650,51	16,058
650,70	17,399
650,89	16,720
651,08	15,490
651,27	16,587
651,45	15,249
651,64	15,214
651,83	16,368
652,02	15,189
652,21	16,615
652,39	16,518
652,58	15,614
652,77	16,149
652,96	15,826
653,15	16,504
653,33	15,990
653,52	15,975
653,71	18,033
653,90	17,288
654,09	16,992
654,27	15,248
654,46	18,565
654,65	15,758
654,84	16,587
655,02	17,577
655,21	17,749
655,40	16,897
655,59	16,730
655,77	17,609
655,96	17,032
656,15	16,877
656,34	17,685
656,53	16,683
656,71	17,409
656,90	17,279
657,09	17,055
657,28	17,873
657,46	15,944
657,65	16,329
657,84	16,458
658,03	18,258
658,21	16,473
658,40	14,964
658,59	15,515
658,78	17,963
658,96	16,581
659,15	18,088
659,34	15,578
659,52	17,133
659,71	16,795
659,90	16,148
660,09	16,795
660,27	16,146
660,46	18,687
660,65	16,415
660,84	16,061
661,02	17,562
661,21	18,049
661,40	15,956
661,58	17,234
661,77	17,008
661,96	14,251
662,15	15,591
662,33	15,632
662,52	16,126
662,71	16,691
662,89	16,018
663,08	15,112
663,27	16,715
663,45	15,978
663,64	16,132
663,83	14,334
664,02	16,341
664,20	17,530
664,39	15,253
664,58	15,953
664,76	17,021
664,95	17,493
665,14	13,848
665,32	14,568
665,51	17,053
665,70	16,771
665,88	17,035
666,07	18,101
666,26	17,850
666,44	17,379
666,63	15,071
666,82	15,525
667,00	17,239
667,19	13,101
667,38	16,666
667,56	17,910
667,75	16,837
667,94	17,579
668,12	14,896
668,31	17,106
668,50	17,600
668,68	17,117
668,87	15,313
669,06	15,926
669,24	16,593
669,43	14,500
669,62	14,744
669,80	14,634
669,99	15,475
670,18	16,684
670,36	14,407
670,55	15,454
670,74	14,616
670,92	15,097
671,11	16,148
671,29	14,867
671,48	15,641
671,67	16,268
671,85	15,902
672,04	14,469
672,23	15,446
672,41	16,528
672,60	15,455
672,78	15,256
672,97	15,981
673,16	16,427
673,34	16,116
673,53	13,907
673,71	16,545
673,90	16,880
674,09	16,047
674,27	15,886
674,46	16,218
674,64	17,433
674,83	15,343
675,02	14,349
675,20	16,218
675,39	15,490
675,57	15,384
675,76	14,481
675,95	17,460
676,13	16,266
676,32	16,890
676,50	14,616
676,69	12,775
676,88	16,909
677,06	14,203
677,25	15,927
677,43	18,125
677,62	15,443
677,80	16,234
677,99	16,572
678,18	17,462
678,36	17,100
678,55	13,287
678,73	15,170
678,92	17,522
679,10	15,698
679,29	16,611
679,48	15,002
679,66	16,521
679,85	15,608
680,03	14,273
680,22	14,457
680,40	15,512
680,59	15,214
680,77	16,339
680,96	15,840
681,15	14,803
681,33	16,709
681,52	14,579
681,70	16,828
681,89	18,916
682,07	17,248
682,26	15,721
682,44	15,864
682,63	17,088
682,81	16,668
683,00	17,582
683,18	15,813
683,37	17,809
683,55	18,013
683,74	16,386
683,92	21,434
684,11	16,742
684,29	16,438
684,48	13,934
684,67	16,038
684,85	15,170
685,04	16,481
685,22	15,448
685,41	14,079
685,59	16,257
685,78	14,780
685,96	15,183
686,15	16,423
686,33	15,257
686,52	15,952
686,70	15,860
686,89	16,923
687,07	17,609
687,26	18,347
687,44	18,227
687,62	15,651
687,81	17,229
687,99	16,380
688,18	16,333
688,36	16,717
688,55	16,306
688,73	16,495
688,92	15,762
689,10	16,815
689,29	18,152
689,47	18,425
689,66	15,550
689,84	16,841
690,03	20,156
690,21	15,635
690,40	17,199
690,58	15,610
690,76	17,938
690,95	16,813
691,13	16,437
691,32	17,449
691,50	18,703
691,69	18,529
691,87	16,230
692,06	15,076
692,24	15,795
692,43	17,353
692,61	14,254
692,79	15,427
692,98	16,220
693,16	18,736
693,35	16,878
693,53	18,358
693,72	19,018
693,90	19,256
694,08	16,184
694,27	16,846
694,45	20,040
694,64	19,402
694,82	16,752
695,01	15,849
695,19	16,265
695,37	16,478
695,56	16,740
695,74	16,754
695,93	17,748
696,11	16,044
696,29	18,691
696,48	18,123
696,66	17,186
696,85	17,514
697,03	14,880
697,21	17,424
697,40	19,043
697,58	18,153
697,77	17,250
697,95	17,746
698,13	16,739
698,32	17,058
698,50	16,381
698,69	14,393
698,87	19,256
699,05	16,518
699,24	15,164
699,42	16,231
699,60	14,931
699,79	15,749
699,97	16,207
700,16	14,177
700,34	20,668
700,52	15,961
700,71	16,974
700,89	17,036
701,07	17,068
701,26	17,663
701,44	16,810
701,63	14,951
701,81	17,944
701,99	18,378
702,18	16,239
702,36	16,050
702,54	17,844
702,73	16,778
702,91	16,901
703,09	18,069
703,28	15,418
703,46	18,467
703,64	17,080
703,83	16,939
704,01	18,138
704,19	15,381
704,38	16,600
704,56	16,040
704,74	19,875
704,93	16,730
705,11	15,886
705,29	17,496
705,48	24,030
705,66	17,864
705,84	16,664
706,03	14,460
706,21	17,994
706,39	16,854
706,58	16,826
706,76	16,205
706,94	19,887
707,12	18,359
707,31	15,960
707,49	16,481
707,67	15,429
707,86	19,763
708,04	16,389
708,22	15,209
708,41	19,042
708,59	17,737
708,77	16,610
708,95	17,019
709,14	20,020
709,32	19,239
709,50	16,921
709,69	15,189
709,87	18,948
710,05	17,200
710,23	15,391
710,42	15,660
710,60	17,371
710,78	18,912
710,97	16,034
711,15	16,531
711,33	18,246
711,51	17,149
711,70	16,358
711,88	14,887
712,06	19,841
712,24	17,710
712,43	18,279
712,61	16,600
712,79	17,901
712,97	16,087
713,16	17,762
713,34	16,429
713,52	18,879
713,70	15,824
713,89	17,178
714,07	16,130
714,25	18,724
714,43	18,618
714,62	15,665
714,80	17,376
714,98	14,223
715,16	16,108
715,35	15,159
715,53	15,803
715,71	19,482
715,89	19,988
716,07	16,904
716,26	19,135
716,44	18,372
716,62	18,798
716,80	17,160
716,99	17,172
717,17	18,811
717,35	18,280
717,53	15,050
717,71	15,333
717,90	18,832
718,08	17,565
718,26	14,379
718,44	19,528
718,62	19,403
718,81	18,729
718,99	15,328
719,17	16,973
719,35	18,496
719,53	16,755
719,72	15,884
719,90	16,907
720,08	17,822
720,26	18,895
720,44	15,714
720,62	16,719
720,81	19,165
720,99	20,736
721,17	17,117
721,35	17,804
721,53	19,625
721,72	19,250
721,90	18,586
722,08	16,014
722,26	18,266
722,44	17,071
722,62	17,144
722,81	16,740
722,99	15,836
723,17	16,942
723,35	17,394
723,53	16,367
723,71	19,090
723,89	19,503
724,08	13,762
724,26	16,704
724,44	19,546
724,62	18,105
724,80	16,185
724,98	17,165
725,16	20,967
725,35	17,491
725,53	16,303
725,71	16,115
725,89	18,046
726,07	19,410
726,25	19,640
726,43	15,214
726,61	18,587
726,80	19,550
726,98	18,039
727,16	17,585
727,34	21,147
727,52	19,685
727,70	16,771
727,88	16,577
728,06	14,701
728,25	16,456
728,43	16,830
728,61	15,815
728,79	19,179
728,97	18,241
729,15	16,835
729,33	17,058
729,51	17,742
729,69	17,228
729,87	16,380
730,06	16,562
730,24	16,806
730,42	21,290
730,60	14,691
730,78	19,037
730,96	16,317
731,14	18,220
731,32	17,050
731,50	17,347
731,68	18,126
731,86	21,592
732,04	18,822
732,22	15,709
732,41	21,713
732,59	16,527
732,77	19,328
732,95	17,611
733,13	18,785
733,31	17,947
733,49	16,006
733,67	18,021
733,85	20,364
734,03	17,834
734,21	17,431
734,39	18,249
734,57	19,097
734,75	19,386
734,93	15,433
735,11	17,438
735,29	16,118
735,47	19,193
735,65	16,652
735,84	14,384
736,02	17,730
736,20	22,375
736,38	15,664
736,56	16,612
736,74	19,080
736,92	18,591
737,10	17,495
737,28	16,359
737,46	17,172
737,64	18,188
737,82	16,980
738,00	19,187
738,18	20,105
738,36	19,347
738,54	16,468
738,72	15,794
738,90	17,819
739,08	17,562
739,26	15,855
739,44	16,546
739,62	19,483
739,80	17,705
739,98	18,180
740,16	14,648
740,34	17,740
740,52	20,666
740,70	17,225
740,88	16,066
741,06	17,415
741,24	18,780
741,42	18,805
741,60	17,466
741,78	20,862
741,96	17,200
742,14	16,806
742,32	16,097
742,50	16,572
742,68	18,814
742,86	17,934
743,04	15,933
743,21	21,461
743,39	19,775
743,57	19,321
743,75	16,728
743,93	15,689
744,11	15,317
744,29	15,758
744,47	16,173
744,65	17,539
744,83	17,149
745,01	17,100
745,19	19,088
745,37	21,870
745,55	17,629
745,73	16,046
745,91	16,220
746,09	16,557
746,27	16,221
746,45	14,772
746,62	17,501
746,80	18,515
746,98	17,996
747,16	15,055
747,34	16,868
747,52	17,137
747,70	20,104
747,88	16,468
748,06	18,137
748,24	18,162
748,42	19,618
748,60	17,211
748,78	17,547
748,95	20,554
749,13	22,229
749,31	16,415
749,49	17,124
749,67	20,418
749,85	22,007
750,03	17,183
750,21	16,544
750,39	17,912
750,57	18,457
750,74	17,879
750,92	15,053
751,10	18,559
751,28	15,909
751,46	15,766
751,64	17,118
751,82	19,157
752,00	18,981
752,17	18,831
752,35	15,326
752,53	17,111
752,71	18,478
752,89	17,826
753,07	17,123
753,25	19,122
753,43	15,464
753,60	19,148
753,78	14,681
753,96	19,321
754,14	19,001
754,32	16,106
754,50	17,346
754,68	19,515
754,85	18,341
755,03	18,767
755,21	17,931
755,39	19,385
755,57	17,688
755,75	17,149
755,92	16,258
756,10	18,013
756,28	19,399
756,46	16,444
756,64	17,749
756,82	18,336
756,99	17,860
757,17	16,905
757,35	14,784
757,53	19,551
757,71	21,419
757,89	16,321
758,06	16,924
758,24	18,284
758,42	18,372
758,60	18,531
758,78	16,674
758,95	17,647
759,13	20,067
759,31	16,286
759,49	15,727
759,67	18,265
759,84	17,004
760,02	18,210
760,20	16,371
760,38	18,399
760,56	16,374
760,73	15,992
760,91	17,303
761,09	21,208
761,27	17,256
761,45	16,707
761,62	16,720
761,80	17,281
761,98	18,584
762,16	18,600
762,33	16,296
762,51	19,866
762,69	17,870
762,87	17,338
763,05	16,967
763,22	16,729
763,40	16,117
763,58	16,065
763,76	16,568
763,93	21,540
764,11	19,881
764,29	13,049
764,47	19,411
764,64	18,498
764,82	20,181
765,00	16,720
765,18	16,517
765,35	17,574
765,53	19,684
765,71	17,130
765,89	16,677
766,06	17,318
766,24	18,867
766,42	18,229
766,60	15,385
766,77	16,586
766,95	17,007
767,13	16,290
767,30	18,307
767,48	15,789
767,66	16,746
767,84	16,999
768,01	16,942
768,19	18,396
768,37	17,610
768,54	17,140
768,72	18,297
768,90	17,664
769,08	18,586
769,25	20,243
769,43	17,168
769,61	15,415
769,78	20,057
769,96	16,764
770,14	19,092
770,31	20,144
770,49	21,254
770,67	19,259
770,85	16,917
771,02	18,777
771,20	16,508
771,38	18,287
771,55	17,693
771,73	17,960
771,91	18,736
772,08	18,434
772,26	18,911
772,44	15,666
772,61	18,889
772,79	18,499
772,97	18,023
773,14	14,386
773,32	20,445
773,50	16,815
773,67	17,623
773,85	19,165
774,03	20,559
774,20	17,364
774,38	18,853
774,56	18,992
774,73	16,892
774,91	17,606
775,09	18,348
775,26	20,008
775,44	19,756
775,61	19,596
775,79	16,015
775,97	19,549
776,14	16,994
776,32	16,741
776,50	15,416
776,67	19,879
776,85	18,053
777,03	16,256
777,20	16,727
777,38	19,996
777,55	17,649
777,73	14,463
777,91	17,188
778,08	18,830
778,26	19,197
778,43	18,020
778,61	14,228
778,79	17,335
778,96	17,324
779,14	14,269
779,32	17,510
779,49	16,940
779,67	22,242
779,84	17,910
780,02	17,608
780,20	13,504
780,37	20,042
780,55	18,146
780,72	19,439
780,90	21,883
781,07	19,696
781,25	19,352
781,43	17,541
781,60	18,193
781,78	18,879
781,95	19,001
782,13	18,598
782,30	20,208
782,48	17,858
782,66	18,237
782,83	15,676
783,01	23,300
783,18	19,229
783,36	19,287
783,53	17,019
783,71	17,423
783,89	16,341
784,06	19,266
784,24	18,704
784,41	18,828
784,59	18,548
784,76	18,036
784,94	17,805
785,11	19,281
785,29	18,760
785,46	16,241
785,64	15,825
785,82	20,255
785,99	21,753
786,17	19,870
786,34	15,914
786,52	20,695
786,69	19,757
786,87	18,321
787,04	17,354
787,22	14,561
787,39	18,277
787,57	17,704
787,74	17,431
787,92	23,239
788,09	18,524
788,27	18,025
788,44	19,920
788,62	20,543
788,79	19,399
788,97	20,053
789,14	18,013
789,32	18,156
789,49	17,707
789,67	17,726
789,84	18,470
790,02	22,678
790,19	18,367
790,37	17,810
790,54	18,397
790,72	21,511
790,89	20,177
791,07	18,199
791,24	14,231
791,42	22,526
791,59	22,019
791,77	17,544
791,94	14,022
792,12	15,722
792,29	18,923
792,47	17,508
792,64	21,042
792,81	21,325
792,99	17,792
793,16	21,002
793,34	21,081
793,51	17,666
793,69	20,944
793,86	17,256
794,04	19,103
794,21	21,272
794,39	13,592
794,56	17,214
794,73	20,861
794,91	22,368
795,08	19,030
795,26	18,532
795,43	18,520
795,61	22,288
795,78	22,112
795,95	20,675
796,13	17,561
796,30	17,242
796,48	16,205
796,65	18,723
796,83	20,203
797,00	23,241
797,17	16,679
797,35	18,288
797,52	21,683
797,70	24,545
797,87	20,909
798,04	16,750
798,22	18,734
798,39	17,668
798,57	20,330
798,74	20,568
798,91	16,523
799,09	20,342
799,26	23,800
799,44	20,306
799,61	15,495
799,78	21,227
799,96	24,989
800,13	18,589
800,31	17,433
800,48	22,017
800,65	23,220
800,83	19,623
801,00	18,291
801,17	24,048
801,35	21,217
801,52	19,261
801,70	19,567
801,87	21,745
802,04	25,917
802,22	16,027
802,39	17,595
802,56	23,082
802,74	22,377
802,91	19,308
803,08	17,453
803,26	18,765
803,43	21,044
803,61	20,628
803,78	19,541
803,95	21,430
804,13	20,842
804,30	21,899
804,47	24,013
804,65	20,318
804,82	21,304
804,99	20,467
805,17	19,686
805,34	24,859
805,51	24,409
805,69	18,948
805,86	15,515
806,03	27,131
806,21	23,140
806,38	22,159
806,55	21,302
806,72	24,414
806,90	23,191
807,07	20,144
807,24	18,337
807,42	21,450
807,59	23,519
807,76	14,268
807,94	18,165
808,11	27,503
808,28	25,335
808,45	20,822
808,63	19,008
808,80	25,348
808,97	22,444
809,15	18,126
809,32	21,977
809,49	17,347
809,67	19,262
809,84	23,118
810,01	22,510
810,18	28,690
810,36	25,049
810,53	24,216
810,70	19,232
810,87	20,390
811,05	19,241
811,22	20,792
811,39	18,316
811,57	23,799
811,74	23,200
811,91	17,724
812,08	21,760
812,26	24,072
812,43	23,378
812,60	23,761
812,77	19,244
812,95	25,525
813,12	21,504
813,29	16,053
813,46	22,608
813,64	21,003
813,81	22,814
813,98	16,817
814,15	18,651
814,32	28,699
814,50	25,314
814,67	17,013
814,84	22,953
815,01	23,711
815,19	12,404
815,36	12,871
815,53	18,958
815,70	17,178
815,87	21,579
816,05	19,268
816,22	21,291
816,39	26,039
816,56	26,757
816,74	19,264
816,91	20,189
817,08	30,970
817,25	27,280
817,42	19,658
817,60	23,545
817,77	24,542
817,94	17,124
818,11	22,495
818,28	20,380
818,45	22,605
818,63	24,436
818,80	24,251
818,97	21,865
819,14	22,384
819,31	30,676
819,49	20,201
819,66	19,462
819,83	23,448
820,00	27,280
820,17	20,763
820,34	20,314
820,52	26,754
820,69	24,135
820,86	15,826
821,03	23,614
821,20	26,432
821,37	25,594
821,55	14,256
821,72	20,178
821,89	24,070
822,06	29,254
822,23	18,466
822,40	22,807
822,57	20,288
822,75	28,455
822,92	18,547
823,09	16,006
823,26	24,075
823,43	31,111
823,60	21,424
823,77	22,286
823,94	31,951
824,12	27,813
824,29	18,506
824,46	20,318
824,63	30,413
824,80	29,155
824,97	22,877
825,14	19,991
825,31	26,230
825,49	26,152
825,66	18,889
825,83	19,913
826,00	23,460
826,17	35,781
826,34	21,297
826,51	16,898
826,68	17,234
826,85	22,769
827,02	21,193
827,20	16,200
827,37	20,099
827,54	21,726
827,71	18,520
827,88	24,277
828,05	21,214
828,22	31,407
828,39	24,145
828,56	26,734
828,73	27,640
828,90	28,619
829,07	23,413
829,25	22,220
829,42	24,979
829,59	21,185
829,76	19,729
829,93	15,278
830,10	24,198
830,27	21,046
830,44	25,313
830,61	16,827
830,78	23,106
830,95	24,170
831,12	18,456
831,29	20,483
831,46	14,834
831,63	18,731
831,80	22,911
831,97	18,260
832,14	33,711
832,31	32,396
832,48	17,312
832,65	28,575
832,83	25,083
833,00	27,114
833,17	20,051
833,34	24,698
833,51	25,242
833,68	31,749
833,85	26,126
834,02	15,553
834,19	28,507
834,36	32,319
834,53	14,207
834,70	25,665
834,87	34,657
835,04	31,682
835,21	19,381
835,38	23,903
835,55	23,025
835,72	42,622
835,89	20,148
836,06	23,609
836,23	34,384
836,40	26,589
836,57	18,783
836,74	31,539
836,91	23,046
837,08	28,667
837,25	29,499
837,42	19,894
837,59	22,824
837,76	27,457
837,93	24,307
838,09	13,812
838,26	26,171
838,43	34,236
838,60	25,668
838,77	23,687
838,94	25,292
839,11	23,002
839,28	20,660
839,45	22,226
839,62	24,276
839,79	28,625
839,96	27,432
840,13	26,033
840,30	25,471
840,47	24,175
840,64	28,802
840,81	27,984
840,98	18,250
841,15	33,408
841,32	18,160
841,48	34,562
841,65	26,965
841,82	31,855
841,99	22,109
842,16	19,515
842,33	25,294
842,50	32,142
842,67	18,923
842,84	26,252
843,01	31,004
843,18	21,204
843,35	25,813
843,52	19,971
843,68	33,037
843,85	24,138
844,02	20,473
844,19	16,059
844,36	41,933
844,53	35,271
844,70	20,829
844,87	35,432
845,04	26,663
845,21	23,802
845,37	23,380
845,54	27,663
845,71	24,850
845,88	43,062
846,05	16,063
846,22	17,915
846,39	36,437
846,56	29,858
846,72	13,547
846,89	24,441
847,06	41,971
847,23	39,655
847,40	22,996
847,57	17,106
847,74	24,132
847,90	36,226
848,07	24,370
848,24	28,340
848,41	31,508
848,58	37,489
848,75	26,907
848,92	24,455
849,08	25,467
849,25	31,468
849,42	16,517
849,59	28,959
849,76	22,761
849,93	32,285
850,09	30,801
850,26	17,883
850,43	31,702
850,60	24,357
850,77	25,932
850,94	28,458
851,10	35,735
851,27	27,827
851,44	20,047
851,61	20,967
851,78	32,401
851,95	29,125
852,11	14,201
852,28	26,909
852,45	38,967
852,62	37,984
852,79	23,890
852,95	29,211
853,12	33,295
853,29	25,559
853,46	17,505
853,63	35,023
853,79	29,983
853,96	21,976
854,13	39,531
854,30	18,499
854,46	50,541
854,63	36,228
854,80	25,156
854,97	19,132
855,14	49,470
855,30	35,486
855,47	14,373
855,64	35,865
855,81	24,365
855,97	53,647
856,14	31,359
856,31	13,044
856,48	34,913
856,65	51,058
856,81	8,355
856,98	10,937
857,15	25,369
857,32	42,432
857,48	17,182
857,65	34,659
857,82	28,443
857,99	34,870
858,15	31,067
858,32	24,734
858,49	33,250
858,65	52,275
858,82	22,577
858,99	30,431
859,16	44,337
859,32	42,980
859,49	18,301
859,66	32,758
859,83	39,096
859,99	20,993
860,16	44,712
860,33	24,269
860,49	34,048
860,66	52,082
860,83	29,555
861,00	23,712
861,16	50,342
861,33	46,841
861,50	25,144
861,66	26,484
861,83	66,045
862,00	27,016
862,16	30,598
862,33	9,566
862,50	75,327
862,67	23,481
862,83	31,261
863,00	36,350
863,17	72,828
863,33	49,795
863,50	8,123
863,67	28,893
863,83	43,308
864,00	57,044
864,17	22,710
864,33	30,636
864,50	58,797
864,67	50,023
864,83	18,816
865,00	35,496
865,17	25,862
865,33	48,064
865,50	21,014
865,67	18,194
865,83	61,584
866,00	75,643
866,17	29,302
866,33	40,329
866,50	61,281
866,66	54,517
866,83	25,225
867,00	35,675
867,16	60,502
867,33	73,348
867,50	20,689
867,66	8,951
867,83	51,614
868,00	48,330
868,16	36,676
868,33	30,462
868,49	46,677
868,66	72,787
868,83	35,426
868,99	48,205
869,16	76,000
869,32	44,537
869,49	51,214
869,66	7,915
869,82	60,944
869,99	70,322
870,15	6,635
870,32	63,061
870,49	69,402
870,65	100,167
870,82	58,039
870,98	37,247
871,15	96,581
871,32	44,079
871,48	-1,285
871,65	16,515
871,81	39,740
871,98	29,089
872,15	16,884
872,31	27,759
872,48	92,262
872,64	49,252
872,81	15,294
872,97	48,032
873,14	60,234
873,31	64,292
873,47	55,553
873,64	34,425
873,80	81,498
873,97	89,759
874,13	9,852
874,30	51,005
874,46	79,354
874,63	41,699
874,80	15,086
874,96	36,363
875,13	86,299
875,29	46,752
875,46	81,693
875,62	13,963
875,79	59,072
875,95	44,542
876,12	26,206
876,28	-15,395
876,45	97,531
876,61	30,117
876,78	13,082
876,94	2,620
877,11	87,618
877,27	78,062
877,44	31,971
877,60	19,821
877,77	101,343
877,94	116,728
878,10	41,625
878,27	59,411
878,43	105,004
878,60	48,232
878,76	30,382
878,93	7,661
879,09	46,209
879,26	85,070
879,42	29,217
879,58	35,150
879,75	139,829
879,91	104,521
880,08	-71,382
880,24	47,499
880,41	50,650
880,57	81,548
880,74	21,228
880,90	88,155
881,07	72,560
881,23	72,349
881,40	72,378
881,56	81,203
881,73	90,777
881,89	65,857
882,06	12,816
882,22	168,310
882,38	159,807
882,55	146,365
882,71	47,348
882,88	64,632
883,04	239,253
883,21	178,836
883,37	78,501
883,54	54,258
883,70	264,486
883,86	114,902
884,03	47,059
884,19	27,462
884,36	63,068
884,52	173,498
884,69	7,068
884,85	37,168
885,01	157,817
885,18	114,401
885,34	15,692
885,51	-4,888
885,67	115,479
>>>>> Data<<<<< Espectral Procesado Extremo
