Fichero De Datos De SpectraSuite
++++++++++++++++++++++++++++++++++++
Fecha: Wed Apr 22 13:26:05 CEST 2009
Usuario: evoflor
Presente Oscuro Del Espectro: Sí
La Referencia de Presente Del Espectro De: Sí
Muestreados de los componentes de Número de espectros: 1
Espectrómetros: USB4F02353
Tiempo de integración (usec): 500000 (USB4F02353)
Promedio de Espectros Hechos un: 5 (USB4F02353)
El Alisar Del Furgón: 0 (USB4F02353)
Párrafo de de Corregir del la del del de Eléctrica del obscuridad: Sí (USB4F02353)
Estrobo/Lámpara Permitido: No (USB4F02353)
Correct for Detector Non-linearity: No (USB4F02353)
Párrafo de de Corregir del la del del de Externa del luz: No (USB4F02353)
Procesado del espectro de Número de pixeles en: 3648
>>>>> Comienza Data<<<<< Espectral Procesado Del EL
177,79	232,957
178,00	232,957
178,22	232,957
178,44	1891,813
178,66	-442,321
178,88	399,528
179,09	-355,085
179,31	279,730
179,53	656,796
179,75	64,292
179,96	835,733
180,18	-411,831
180,40	609,697
180,62	407,546
180,83	-201,880
181,05	-2367,622
181,27	-92445,000
181,49	18,163
181,70	584,019
181,92	551,497
182,14	441,099
182,36	48,671
182,58	-123,450
182,79	947,076
183,01	-16,820
183,23	146,506
183,45	-76,754
183,66	-46,659
183,88	771,441
184,10	-2777,182
184,32	32,785
184,53	268,851
184,75	-318,327
184,97	10,617
185,18	-65,498
185,40	-959,351
185,62	98,923
185,84	15,164
186,05	73,998
186,27	-90,684
186,49	6809,423
186,71	18,196
186,92	108,519
187,14	-200,641
187,36	149,907
187,58	53,631
187,79	-84,415
188,01	451,692
188,23	-254,957
188,45	95,908
188,66	452,879
188,88	-2826,273
189,10	-2571,450
189,31	-37,961
189,53	-72,728
189,75	404,420
189,97	75,173
190,18	-182,639
190,40	485,559
190,62	-257,796
190,83	-351,449
191,05	228,529
191,27	228,129
191,49	186,498
191,70	-543,966
191,92	47,924
192,14	-37,340
192,35	782,347
192,57	4852,714
192,79	-89,197
193,01	87,571
193,22	151,225
193,44	-100,930
193,66	168,358
193,87	45,707
194,09	-11,474
194,31	257,450
194,53	740,874
194,74	30,073
194,96	69,879
195,18	168,769
195,39	-569,248
195,61	-146,739
195,83	-242,054
196,04	137,047
196,26	-62,035
196,48	-15,393
196,70	142,634
196,91	171,028
197,13	183,911
197,35	-71,762
197,56	667,941
197,78	1798,097
198,00	325,490
198,21	890,024
198,43	-1149,680
198,65	146,852
198,86	335,773
199,08	126,049
199,30	269,119
199,51	-239,560
199,73	134,444
199,95	366,943
200,16	608,250
200,38	300,068
200,60	62,546
200,81	303,951
201,03	292,785
201,25	-1374,450
201,46	168,337
201,68	112,578
201,90	2489,659
202,11	-291,011
202,33	159,506
202,55	199,312
202,76	-20,303
202,98	278,206
203,20	79,111
203,41	-211,816
203,63	161,064
203,85	-163545,000
204,06	141,404
204,28	-194,566
204,50	212,239
204,71	317,571
204,93	5,160
205,15	343,509
205,36	-128,576
205,58	194,712
205,80	-212,066
206,01	67,016
206,23	141,499
206,45	298,317
206,66	169,559
206,88	0,429
207,10	351,239
207,31	399,000
207,53	174,129
207,75	19,073
207,96	501,828
208,18	-242,227
208,39	59,570
208,61	3309,857
208,83	-447,382
209,04	267,334
209,26	-330,622
209,48	210,626
209,69	327,653
209,91	622,449
210,13	40,508
210,34	160,642
210,56	193,024
210,77	-2166,496
210,99	78,396
211,21	6126,176
211,42	-225,613
211,64	-40,876
211,86	313,331
212,07	237,637
212,29	177,615
212,50	143,236
212,72	414,404
212,94	196,799
213,15	149,350
213,37	160,234
213,58	-208,969
213,80	-4780,179
214,02	12002,647
214,23	314,863
214,45	323,754
214,67	-128,598
214,88	-174,312
215,10	-362,403
215,31	9,269
215,53	-80,352
215,75	231,209
215,96	1787,236
216,18	-535,986
216,39	224,958
216,61	494,640
216,83	629,665
217,04	1382,528
217,26	1,040
217,47	138,756
217,69	432,197
217,91	153,750
218,12	-118545,000
218,34	164,845
218,55	426,645
218,77	46,512
218,99	85,416
219,20	-196,985
219,42	220,495
219,63	-1,375
219,85	-134,459
220,06	-84,058
220,28	253,388
220,50	128,249
220,71	91,599
220,93	2168,774
221,14	-1230,450
221,36	64,159
221,58	-92,809
221,79	191,150
222,01	711,595
222,22	797,664
222,44	-488,258
222,65	140,653
222,87	168,147
223,09	137,807
223,30	105,339
223,52	256,141
223,73	76,588
223,95	-2,894
224,16	238,856
224,38	238,258
224,60	121,575
224,81	80,847
225,03	127,583
225,24	140,622
225,46	60,872
225,67	-2,298
225,89	-3,868
226,10	424,834
226,32	1164,360
226,54	6,415
226,75	53,377
226,97	142,596
227,18	239,029
227,40	-79,567
227,61	38,541
227,83	17,767
228,04	213,398
228,26	73,802
228,47	40,949
228,69	175,992
228,91	43,540
229,12	80,520
229,34	48,101
229,55	69,688
229,77	26,621
229,98	31,433
230,20	57,920
230,41	-28,163
230,63	103,069
230,84	0,618
231,06	25,600
231,27	27,848
231,49	52,078
231,71	22,014
231,92	37,922
232,14	4,160
232,35	66,424
232,57	50,094
232,78	5,589
233,00	51,904
233,21	55,149
233,43	14,431
233,64	-6,307
233,86	41,253
234,07	53,056
234,29	23,187
234,50	11,385
234,72	43,284
234,93	28,285
235,15	13,901
235,36	28,270
235,58	45,356
235,79	45,344
236,01	14,515
236,22	11,458
236,44	44,367
236,65	21,597
236,87	26,599
237,08	3,674
237,30	-3,768
237,51	28,100
237,73	0,371
237,94	15,852
238,16	13,938
238,37	26,599
238,59	20,395
238,80	11,700
239,02	7,025
239,23	18,946
239,45	-4,675
239,66	21,864
239,88	39,952
240,09	19,050
240,31	0,076
240,52	4,667
240,74	22,242
240,95	13,570
241,17	3,245
241,38	5,373
241,60	11,075
241,81	21,343
242,03	5,535
242,24	16,484
242,46	21,914
242,67	3,589
242,89	12,307
243,10	18,268
243,32	19,332
243,53	13,083
243,75	5,196
243,96	9,341
244,18	14,464
244,39	17,736
244,60	8,104
244,82	2,235
245,03	24,130
245,25	10,939
245,46	24,418
245,68	7,758
245,89	21,930
246,11	10,526
246,32	7,934
246,54	7,112
246,75	8,961
246,97	13,785
247,18	17,649
247,39	1,246
247,61	12,967
247,82	15,597
248,04	3,144
248,25	8,440
248,47	18,130
248,68	10,770
248,90	1,290
249,11	7,483
249,33	17,764
249,54	8,690
249,75	10,455
249,97	2,640
250,18	16,512
250,40	19,828
250,61	-5,042
250,83	3,619
251,04	0,387
251,25	10,781
251,47	-0,970
251,68	9,216
251,90	12,621
252,11	9,843
252,33	3,599
252,54	8,036
252,76	5,563
252,97	2,082
253,18	0,958
253,40	6,962
253,61	1,839
253,83	8,062
254,04	9,337
254,25	6,772
254,47	6,366
254,68	10,359
254,90	2,473
255,11	8,664
255,33	9,851
255,54	-0,248
255,75	2,851
255,97	7,561
256,18	4,787
256,40	10,112
256,61	9,473
256,82	-1,709
257,04	13,187
257,25	0,738
257,47	4,598
257,68	0,325
257,89	10,062
258,11	11,732
258,32	1,870
258,54	5,393
258,75	10,941
258,96	11,717
259,18	3,883
259,39	3,983
259,61	10,385
259,82	3,867
260,03	7,322
260,25	7,921
260,46	3,914
260,68	5,576
260,89	4,229
261,10	6,264
261,32	7,328
261,53	3,268
261,75	9,977
261,96	-0,469
262,17	11,990
262,39	12,345
262,60	1,738
262,81	-2,130
263,03	10,901
263,24	9,286
263,46	1,874
263,67	3,356
263,88	8,080
264,10	8,750
264,31	-0,219
264,52	6,273
264,74	8,390
264,95	5,832
265,17	5,481
265,38	4,482
265,59	10,189
265,81	10,913
266,02	3,374
266,23	4,669
266,45	10,818
266,66	14,740
266,87	5,126
267,09	5,200
267,30	8,938
267,52	8,595
267,73	3,997
267,94	5,306
268,16	6,034
268,37	6,217
268,58	8,710
268,80	8,564
269,01	7,335
269,22	10,012
269,44	10,717
269,65	6,005
269,86	0,826
270,08	9,807
270,29	2,223
270,50	9,711
270,72	6,992
270,93	3,052
271,14	4,446
271,36	2,411
271,57	5,042
271,78	5,648
272,00	6,160
272,21	6,569
272,42	6,163
272,64	7,115
272,85	2,886
273,06	5,774
273,28	10,431
273,49	7,597
273,70	5,969
273,92	7,864
274,13	9,183
274,34	5,730
274,56	5,392
274,77	1,165
274,98	6,782
275,20	5,373
275,41	4,564
275,62	8,124
275,84	4,797
276,05	14,478
276,26	4,574
276,47	2,713
276,69	6,004
276,90	7,866
277,11	5,208
277,33	4,534
277,54	9,771
277,75	9,919
277,97	1,980
278,18	2,270
278,39	8,775
278,61	2,295
278,82	7,491
279,03	5,527
279,24	6,380
279,46	6,307
279,67	7,898
279,88	3,860
280,10	10,166
280,31	1,157
280,52	6,976
280,73	1,441
280,95	8,268
281,16	8,886
281,37	5,419
281,59	8,039
281,80	9,677
282,01	7,526
282,22	5,287
282,44	4,010
282,65	14,332
282,86	7,850
283,08	6,107
283,29	4,270
283,50	4,690
283,71	5,860
283,93	6,018
284,14	7,475
284,35	5,223
284,56	7,394
284,78	3,478
284,99	4,005
285,20	11,166
285,42	6,130
285,63	3,556
285,84	2,945
286,05	7,232
286,27	6,630
286,48	2,431
286,69	2,506
286,90	4,960
287,12	6,213
287,33	1,577
287,54	2,305
287,75	9,378
287,97	5,159
288,18	6,256
288,39	2,278
288,60	7,092
288,82	5,123
289,03	2,296
289,24	4,857
289,45	6,472
289,67	4,733
289,88	2,406
290,09	5,009
290,30	7,577
290,52	2,349
290,73	4,676
290,94	1,559
291,15	5,244
291,37	4,244
291,58	5,024
291,79	3,675
292,00	8,839
292,21	6,907
292,43	5,180
292,64	1,312
292,85	3,956
293,06	9,117
293,28	2,937
293,49	3,186
293,70	7,931
293,91	3,637
294,12	6,656
294,34	5,139
294,55	4,637
294,76	5,784
294,97	8,981
295,19	0,985
295,40	4,375
295,61	5,946
295,82	0,534
296,03	4,330
296,25	4,689
296,46	1,936
296,67	0,749
296,88	0,271
297,09	7,413
297,31	3,371
297,52	5,976
297,73	1,809
297,94	8,065
298,15	7,125
298,37	3,248
298,58	3,023
298,79	6,801
299,00	3,673
299,21	0,926
299,43	2,497
299,64	7,138
299,85	6,655
300,06	2,069
300,27	2,751
300,49	8,556
300,70	8,070
300,91	4,699
301,12	2,702
301,33	8,687
301,54	4,014
301,76	7,975
301,97	1,788
302,18	3,874
302,39	7,412
302,60	12,799
302,82	5,961
303,03	9,003
303,24	4,850
303,45	4,464
303,66	4,159
303,87	3,477
304,09	5,303
304,30	5,024
304,51	3,042
304,72	4,484
304,93	7,277
305,14	4,355
305,36	2,604
305,57	3,318
305,78	6,001
305,99	3,707
306,20	5,530
306,41	2,605
306,62	4,769
306,84	4,537
307,05	2,808
307,26	4,302
307,47	7,973
307,68	5,168
307,89	6,098
308,11	7,778
308,32	5,293
308,53	2,871
308,74	0,855
308,95	1,747
309,16	8,310
309,37	7,354
309,59	3,813
309,80	5,312
310,01	6,313
310,22	7,396
310,43	4,188
310,64	7,465
310,85	6,271
311,06	4,568
311,28	4,943
311,49	4,036
311,70	6,014
311,91	1,292
312,12	2,931
312,33	7,307
312,54	7,128
312,75	5,352
312,97	3,654
313,18	6,311
313,39	3,377
313,60	3,855
313,81	4,792
314,02	5,822
314,23	6,781
314,44	2,620
314,65	5,118
314,87	5,309
315,08	3,214
315,29	5,258
315,50	8,003
315,71	6,470
315,92	11,578
316,13	3,975
316,34	5,522
316,55	7,569
316,77	2,011
316,98	2,503
317,19	1,661
317,40	4,815
317,61	9,276
317,82	2,917
318,03	2,479
318,24	3,450
318,45	9,047
318,66	4,659
318,87	1,483
319,09	7,359
319,30	6,790
319,51	5,252
319,72	4,797
319,93	5,030
320,14	8,139
320,35	6,837
320,56	1,209
320,77	3,804
320,98	11,288
321,19	3,930
321,40	3,460
321,62	7,665
321,83	3,113
322,04	4,995
322,25	6,140
322,46	10,512
322,67	10,572
322,88	5,515
323,09	3,786
323,30	7,314
323,51	8,291
323,72	6,446
323,93	0,758
324,14	4,130
324,35	0,018
324,56	1,939
324,77	2,440
324,99	6,141
325,20	0,398
325,41	5,879
325,62	3,961
325,83	2,099
326,04	4,678
326,25	6,119
326,46	2,390
326,67	3,721
326,88	7,177
327,09	4,137
327,30	3,511
327,51	4,387
327,72	5,767
327,93	5,568
328,14	0,224
328,35	4,427
328,56	7,247
328,77	4,708
328,98	6,481
329,19	5,805
329,40	6,969
329,61	3,472
329,82	1,542
330,04	6,898
330,25	3,803
330,46	3,580
330,67	2,761
330,88	5,002
331,09	3,858
331,30	2,008
331,51	4,519
331,72	6,511
331,93	9,254
332,14	3,310
332,35	7,165
332,56	6,035
332,77	6,409
332,98	1,516
333,19	2,305
333,40	2,822
333,61	3,044
333,82	8,238
334,03	6,371
334,24	8,579
334,45	5,060
334,66	6,463
334,87	2,432
335,08	-0,166
335,29	2,298
335,50	3,366
335,71	4,083
335,92	6,448
336,13	5,806
336,34	1,952
336,55	4,950
336,76	10,818
336,97	6,503
337,18	2,207
337,39	5,557
337,60	5,696
337,81	3,162
338,02	2,484
338,23	3,403
338,44	6,138
338,65	4,312
338,86	6,157
339,07	5,263
339,28	6,960
339,49	3,906
339,70	3,490
339,91	5,374
340,11	7,191
340,32	4,009
340,53	0,716
340,74	1,517
340,95	3,353
341,16	5,195
341,37	7,952
341,58	1,874
341,79	4,414
342,00	5,584
342,21	1,042
342,42	2,659
342,63	8,467
342,84	2,398
343,05	4,494
343,26	6,129
343,47	6,119
343,68	3,912
343,89	3,529
344,10	6,348
344,31	4,616
344,52	5,452
344,73	-0,036
344,94	5,790
345,14	6,913
345,35	6,490
345,56	3,777
345,77	5,267
345,98	6,577
346,19	6,628
346,40	5,062
346,61	4,673
346,82	5,117
347,03	6,214
347,24	7,816
347,45	1,896
347,66	9,559
347,87	4,640
348,08	8,342
348,28	2,986
348,49	8,333
348,70	6,847
348,91	5,600
349,12	0,077
349,33	18,153
349,54	3,487
349,75	6,748
349,96	6,164
350,17	5,767
350,38	2,564
350,59	7,437
350,80	3,115
351,00	6,732
351,21	9,899
351,42	4,850
351,63	4,443
351,84	4,412
352,05	7,219
352,26	3,831
352,47	2,970
352,68	7,511
352,89	7,237
353,09	8,988
353,30	1,556
353,51	2,478
353,72	9,376
353,93	8,554
354,14	0,762
354,35	5,370
354,56	9,826
354,77	4,658
354,98	2,474
355,18	5,575
355,39	10,902
355,60	6,372
355,81	8,880
356,02	6,610
356,23	5,409
356,44	2,870
356,65	5,195
356,85	10,811
357,06	9,492
357,27	7,412
357,48	0,921
357,69	4,973
357,90	4,482
358,11	2,807
358,32	4,437
358,52	5,304
358,73	5,014
358,94	4,151
359,15	4,564
359,36	6,828
359,57	5,180
359,78	7,021
359,98	3,984
360,19	2,431
360,40	7,601
360,61	9,305
360,82	3,082
361,03	10,279
361,24	7,771
361,44	1,655
361,65	6,077
361,86	5,549
362,07	5,556
362,28	4,398
362,49	1,786
362,70	7,279
362,90	8,706
363,11	1,238
363,32	4,953
363,53	5,007
363,74	6,512
363,95	5,664
364,15	5,885
364,36	6,304
364,57	3,079
364,78	3,082
364,99	3,771
365,20	9,088
365,40	7,937
365,61	5,400
365,82	7,470
366,03	5,582
366,24	6,528
366,45	2,835
366,65	3,962
366,86	7,028
367,07	6,223
367,28	1,257
367,49	4,267
367,69	8,997
367,90	5,216
368,11	4,690
368,32	1,753
368,53	6,915
368,73	6,442
368,94	3,412
369,15	2,583
369,36	10,830
369,57	6,956
369,78	3,113
369,98	5,356
370,19	11,741
370,40	5,508
370,61	5,119
370,82	5,858
371,02	9,252
371,23	8,651
371,44	5,168
371,65	3,769
371,85	9,731
372,06	4,054
372,27	3,286
372,48	6,810
372,69	3,745
372,89	7,029
373,10	5,086
373,31	4,684
373,52	5,064
373,73	9,592
373,93	3,871
374,14	3,374
374,35	6,005
374,56	8,206
374,76	3,774
374,97	5,563
375,18	5,711
375,39	6,922
375,60	4,841
375,80	4,376
376,01	5,444
376,22	4,324
376,43	3,775
376,63	4,432
376,84	3,649
377,05	8,313
377,26	2,070
377,46	2,857
377,67	4,032
377,88	7,544
378,09	5,329
378,29	2,495
378,50	7,169
378,71	5,239
378,92	-0,159
379,12	4,782
379,33	5,585
379,54	4,506
379,75	6,390
379,95	3,906
380,16	7,585
380,37	6,239
380,58	6,329
380,78	6,936
380,99	2,530
381,20	5,468
381,41	6,764
381,61	8,577
381,82	7,629
382,03	4,273
382,24	6,528
382,44	7,467
382,65	3,238
382,86	6,686
383,06	6,156
383,27	5,537
383,48	5,302
383,69	8,581
383,89	6,146
384,10	6,044
384,31	5,747
384,51	8,687
384,72	7,674
384,93	5,778
385,14	4,083
385,34	6,632
385,55	6,145
385,76	3,597
385,96	12,809
386,17	8,242
386,38	7,347
386,59	7,025
386,79	7,502
387,00	8,512
387,21	12,341
387,41	9,103
387,62	3,915
387,83	9,420
388,03	3,520
388,24	2,456
388,45	7,717
388,66	9,608
388,86	7,306
389,07	4,051
389,28	11,840
389,48	8,131
389,69	9,239
389,90	4,416
390,10	7,598
390,31	9,740
390,52	1,484
390,72	7,104
390,93	9,305
391,14	8,103
391,34	7,294
391,55	9,009
391,76	12,404
391,96	7,811
392,17	4,755
392,38	8,534
392,58	6,789
392,79	8,974
393,00	4,497
393,20	6,162
393,41	8,544
393,62	9,097
393,82	9,284
394,03	9,704
394,24	8,164
394,44	13,230
394,65	9,952
394,86	5,663
395,06	13,032
395,27	7,567
395,48	5,623
395,68	10,210
395,89	10,227
396,10	10,878
396,30	8,731
396,51	6,951
396,72	11,212
396,92	6,806
397,13	11,355
397,34	3,821
397,54	13,513
397,75	6,460
397,95	5,499
398,16	10,815
398,37	11,117
398,57	7,751
398,78	13,039
398,99	12,231
399,19	13,298
399,40	13,159
399,60	10,494
399,81	10,076
400,02	10,638
400,22	12,930
400,43	8,523
400,64	9,512
400,84	9,988
401,05	13,094
401,25	10,323
401,46	11,520
401,67	11,619
401,87	13,300
402,08	10,061
402,29	10,038
402,49	14,339
402,70	17,544
402,90	11,167
403,11	10,073
403,32	14,387
403,52	14,000
403,73	17,526
403,93	15,460
404,14	21,700
404,35	13,791
404,55	10,409
404,76	13,596
404,96	16,410
405,17	14,244
405,38	17,487
405,58	16,192
405,79	17,400
405,99	17,250
406,20	14,702
406,40	12,003
406,61	18,525
406,82	15,858
407,02	16,603
407,23	14,692
407,43	18,901
407,64	15,186
407,85	15,268
408,05	12,635
408,26	26,267
408,46	20,871
408,67	13,886
408,87	13,925
409,08	17,391
409,29	23,505
409,49	21,187
409,70	13,561
409,90	22,039
410,11	22,067
410,31	24,101
410,52	19,558
410,72	19,548
410,93	21,715
411,14	18,832
411,34	15,910
411,55	21,801
411,75	23,355
411,96	22,582
412,16	19,608
412,37	19,486
412,57	23,206
412,78	21,216
412,99	19,695
413,19	19,003
413,40	20,494
413,60	18,204
413,81	18,693
414,01	19,568
414,22	25,638
414,42	22,126
414,63	19,167
414,83	21,374
415,04	25,435
415,24	22,763
415,45	19,370
415,65	24,532
415,86	27,692
416,07	18,267
416,27	23,667
416,48	27,054
416,68	30,020
416,89	20,885
417,09	22,905
417,30	26,905
417,50	24,523
417,71	29,115
417,91	25,961
418,12	22,555
418,32	25,887
418,53	22,637
418,73	25,109
418,94	26,660
419,14	25,379
419,35	18,482
419,55	20,684
419,76	26,577
419,96	26,154
420,17	20,798
420,37	26,294
420,58	30,381
420,78	28,947
420,99	25,773
421,19	28,470
421,40	26,908
421,60	31,070
421,81	26,208
422,01	27,686
422,22	23,754
422,42	31,043
422,63	29,576
422,83	24,886
423,04	29,509
423,24	33,747
423,45	25,788
423,65	28,139
423,86	33,050
424,06	29,271
424,27	28,365
424,47	23,928
424,67	25,452
424,88	28,914
425,08	26,994
425,29	34,158
425,49	27,687
425,70	22,916
425,90	30,162
426,11	24,785
426,31	29,829
426,52	29,615
426,72	26,007
426,93	24,863
427,13	32,645
427,33	31,311
427,54	29,442
427,74	30,790
427,95	37,098
428,15	25,215
428,36	29,807
428,56	29,604
428,77	33,491
428,97	27,906
429,18	29,021
429,38	27,872
429,58	30,674
429,79	30,732
429,99	29,027
430,20	25,578
430,40	33,656
430,61	26,081
430,81	28,879
431,01	32,064
431,22	28,627
431,42	32,728
431,63	22,641
431,83	29,114
432,04	28,613
432,24	33,102
432,44	32,229
432,65	29,544
432,85	30,986
433,06	30,885
433,26	28,614
433,47	25,221
433,67	30,868
433,87	30,821
434,08	24,640
434,28	28,431
434,49	27,775
434,69	37,338
434,89	23,829
435,10	29,565
435,30	32,309
435,51	27,746
435,71	28,651
435,91	25,324
436,12	28,866
436,32	30,085
436,53	29,475
436,73	24,867
436,93	31,299
437,14	31,555
437,34	30,332
437,55	24,581
437,75	28,639
437,95	35,033
438,16	29,158
438,36	25,661
438,57	24,772
438,77	29,181
438,97	31,000
439,18	36,287
439,38	29,605
439,58	25,396
439,79	28,562
439,99	26,996
440,20	34,301
440,40	34,840
440,60	29,075
440,81	31,376
441,01	27,979
441,21	33,634
441,42	32,963
441,62	30,709
441,83	29,865
442,03	31,856
442,23	30,741
442,44	30,240
442,64	33,324
442,84	25,531
443,05	30,126
443,25	29,337
443,45	28,499
443,66	31,287
443,86	28,966
444,06	32,861
444,27	29,105
444,47	34,882
444,67	29,026
444,88	34,042
445,08	32,469
445,28	30,321
445,49	26,944
445,69	28,647
445,90	31,226
446,10	37,123
446,30	30,309
446,51	29,554
446,71	34,993
446,91	32,536
447,12	37,058
447,32	31,462
447,52	35,140
447,72	33,571
447,93	32,941
448,13	28,810
448,33	35,843
448,54	33,504
448,74	26,305
448,94	29,099
449,15	36,204
449,35	35,472
449,55	27,623
449,76	35,784
449,96	29,095
450,16	30,445
450,37	27,673
450,57	31,780
450,77	25,775
450,98	34,848
451,18	35,442
451,38	32,486
451,58	34,253
451,79	34,266
451,99	32,933
452,19	30,235
452,40	36,321
452,60	26,094
452,80	29,566
453,00	32,153
453,21	33,454
453,41	34,660
453,61	32,718
453,82	34,570
454,02	29,444
454,22	32,986
454,42	32,531
454,63	31,980
454,83	32,799
455,03	34,173
455,24	31,410
455,44	28,026
455,64	27,404
455,84	27,312
456,05	27,440
456,25	25,418
456,45	30,801
456,65	27,998
456,86	35,192
457,06	31,940
457,26	32,726
457,47	38,524
457,67	30,943
457,87	27,315
458,07	31,886
458,28	35,684
458,48	35,086
458,68	23,457
458,88	33,676
459,09	33,387
459,29	33,337
459,49	27,665
459,69	32,498
459,90	33,070
460,10	27,372
460,30	36,535
460,50	30,690
460,71	31,119
460,91	27,231
461,11	31,260
461,31	30,803
461,52	36,267
461,72	30,923
461,92	31,051
462,12	42,518
462,32	28,679
462,53	30,310
462,73	30,512
462,93	34,866
463,13	32,374
463,34	28,956
463,54	28,525
463,74	33,729
463,94	29,540
464,14	32,007
464,35	29,458
464,55	36,519
464,75	39,291
464,95	34,915
465,16	24,344
465,36	35,660
465,56	31,726
465,76	29,342
465,96	30,300
466,17	28,364
466,37	26,267
466,57	32,609
466,77	30,777
466,97	26,090
467,18	33,977
467,38	29,453
467,58	31,894
467,78	35,693
467,98	35,891
468,19	32,219
468,39	31,835
468,59	30,885
468,79	33,349
468,99	28,621
469,19	24,972
469,40	31,626
469,60	31,321
469,80	26,345
470,00	36,804
470,20	34,836
470,41	30,653
470,61	31,790
470,81	33,609
471,01	29,500
471,21	34,337
471,41	28,333
471,62	33,705
471,82	28,033
472,02	29,850
472,22	31,817
472,42	28,215
472,62	35,155
472,83	29,381
473,03	30,070
473,23	31,706
473,43	36,140
473,63	34,608
473,83	30,711
474,03	32,049
474,24	36,249
474,44	29,966
474,64	32,779
474,84	30,045
475,04	28,786
475,24	31,276
475,45	32,268
475,65	25,804
475,85	34,895
476,05	25,093
476,25	29,882
476,45	30,256
476,65	38,922
476,85	32,012
477,06	30,799
477,26	28,366
477,46	28,282
477,66	34,627
477,86	30,684
478,06	29,291
478,26	38,310
478,46	28,703
478,67	32,652
478,87	27,825
479,07	30,773
479,27	32,297
479,47	30,101
479,67	26,319
479,87	24,850
480,07	33,767
480,28	27,834
480,48	28,497
480,68	30,374
480,88	35,526
481,08	30,493
481,28	32,889
481,48	33,862
481,68	27,729
481,88	27,955
482,08	30,515
482,29	32,869
482,49	26,836
482,69	31,924
482,89	29,330
483,09	34,256
483,29	30,134
483,49	27,423
483,69	30,704
483,89	29,164
484,09	29,444
484,29	24,931
484,50	29,959
484,70	30,057
484,90	26,546
485,10	25,181
485,30	29,811
485,50	34,310
485,70	31,218
485,90	25,770
486,10	25,653
486,30	26,368
486,50	28,514
486,70	27,091
486,90	25,978
487,10	30,571
487,30	26,784
487,51	28,602
487,71	26,525
487,91	27,612
488,11	31,566
488,31	23,776
488,51	28,823
488,71	26,478
488,91	30,382
489,11	26,605
489,31	26,931
489,51	26,420
489,71	29,141
489,91	28,799
490,11	27,509
490,31	27,484
490,51	30,769
490,71	26,597
490,91	25,849
491,11	27,958
491,31	25,984
491,51	26,707
491,72	25,658
491,92	27,684
492,12	32,355
492,32	28,720
492,52	30,827
492,72	28,499
492,92	28,369
493,12	31,070
493,32	26,024
493,52	24,638
493,72	29,415
493,92	28,556
494,12	28,172
494,32	28,499
494,52	27,917
494,72	25,693
494,92	27,461
495,12	28,898
495,32	29,237
495,52	27,718
495,72	28,443
495,92	29,280
496,12	31,808
496,32	26,185
496,52	26,016
496,72	30,610
496,92	31,082
497,12	28,127
497,32	31,592
497,52	29,377
497,72	31,026
497,92	30,184
498,12	29,126
498,32	28,243
498,52	29,700
498,72	26,597
498,92	26,779
499,12	31,562
499,32	26,648
499,52	28,905
499,72	30,236
499,92	32,973
500,12	32,065
500,32	28,943
500,52	27,221
500,72	33,794
500,91	32,120
501,11	27,833
501,31	22,221
501,51	31,167
501,71	34,754
501,91	30,462
502,11	27,248
502,31	28,690
502,51	32,494
502,71	26,103
502,91	27,523
503,11	31,006
503,31	30,052
503,51	26,120
503,71	25,917
503,91	31,771
504,11	29,625
504,31	26,673
504,51	29,386
504,71	32,724
504,91	29,519
505,10	28,638
505,30	27,330
505,50	30,261
505,70	27,196
505,90	26,425
506,10	26,204
506,30	28,228
506,50	30,118
506,70	27,728
506,90	26,768
507,10	30,517
507,30	28,359
507,50	30,090
507,70	28,117
507,89	30,731
508,09	27,817
508,29	26,986
508,49	27,440
508,69	27,599
508,89	26,390
509,09	26,499
509,29	29,389
509,49	30,537
509,69	31,225
509,89	27,475
510,09	24,012
510,28	27,148
510,48	29,276
510,68	26,504
510,88	27,428
511,08	28,155
511,28	30,845
511,48	28,676
511,68	24,501
511,88	22,342
512,07	31,362
512,27	29,359
512,47	26,477
512,67	24,675
512,87	26,883
513,07	27,024
513,27	21,460
513,47	24,413
513,67	24,337
513,86	28,642
514,06	27,597
514,26	28,099
514,46	28,565
514,66	24,036
514,86	30,141
515,06	32,642
515,26	31,279
515,45	26,818
515,65	24,008
515,85	28,852
516,05	23,540
516,25	25,006
516,45	29,066
516,65	27,287
516,84	29,903
517,04	29,212
517,24	26,915
517,44	28,403
517,64	30,937
517,84	28,639
518,04	26,778
518,23	29,304
518,43	31,801
518,63	22,976
518,83	24,699
519,03	27,971
519,23	28,390
519,42	25,259
519,62	25,731
519,82	26,377
520,02	24,527
520,22	24,279
520,42	24,747
520,61	25,481
520,81	29,138
521,01	26,934
521,21	24,068
521,41	25,884
521,61	27,520
521,80	25,715
522,00	28,144
522,20	27,613
522,40	26,242
522,60	24,086
522,79	26,206
522,99	28,504
523,19	23,683
523,39	26,133
523,59	26,287
523,78	29,580
523,98	27,012
524,18	25,673
524,38	24,262
524,58	27,664
524,77	28,992
524,97	26,639
525,17	23,956
525,37	26,198
525,57	30,769
525,76	24,909
525,96	26,112
526,16	25,454
526,36	23,648
526,56	26,099
526,75	23,937
526,95	27,711
527,15	26,336
527,35	26,055
527,55	26,061
527,74	26,038
527,94	23,403
528,14	22,972
528,34	25,216
528,53	25,127
528,73	28,049
528,93	25,875
529,13	24,715
529,32	26,095
529,52	24,419
529,72	23,897
529,92	22,785
530,12	23,674
530,31	24,435
530,51	25,378
530,71	25,038
530,91	28,382
531,10	21,136
531,30	23,018
531,50	22,305
531,70	27,509
531,89	24,341
532,09	22,802
532,29	21,872
532,49	26,171
532,68	26,139
532,88	22,562
533,08	24,560
533,28	23,561
533,47	25,059
533,67	24,548
533,87	24,524
534,06	27,878
534,26	23,346
534,46	23,123
534,66	23,261
534,85	26,681
535,05	20,083
535,25	24,445
535,45	20,934
535,64	23,954
535,84	24,446
536,04	22,572
536,23	23,306
536,43	26,161
536,63	24,796
536,83	22,959
537,02	22,076
537,22	22,514
537,42	23,457
537,61	21,312
537,81	24,390
538,01	25,898
538,20	21,882
538,40	22,037
538,60	21,842
538,80	22,728
538,99	22,102
539,19	21,390
539,39	20,941
539,58	22,364
539,78	19,437
539,98	20,283
540,17	20,066
540,37	22,058
540,57	20,698
540,76	20,208
540,96	17,994
541,16	21,627
541,36	19,097
541,55	15,675
541,75	17,195
541,95	17,954
542,14	18,781
542,34	16,118
542,54	16,816
542,73	20,390
542,93	19,300
543,13	16,372
543,32	16,463
543,52	16,865
543,72	15,943
543,91	18,077
544,11	16,379
544,31	16,079
544,50	17,714
544,70	18,029
544,89	19,010
545,09	19,883
545,29	17,599
545,48	18,479
545,68	16,957
545,88	17,806
546,07	18,025
546,27	18,107
546,47	17,956
546,66	19,469
546,86	18,956
547,06	17,011
547,25	18,657
547,45	20,097
547,64	19,289
547,84	23,038
548,04	21,804
548,23	22,404
548,43	23,136
548,63	22,058
548,82	21,764
549,02	20,423
549,21	20,814
549,41	21,517
549,61	21,210
549,80	21,785
550,00	20,668
550,20	21,377
550,39	20,260
550,59	21,037
550,78	22,221
550,98	19,396
551,18	22,457
551,37	21,888
551,57	21,083
551,76	20,892
551,96	20,918
552,16	19,716
552,35	23,289
552,55	22,235
552,74	21,407
552,94	23,921
553,14	19,583
553,33	21,186
553,53	21,124
553,72	21,476
553,92	24,959
554,12	21,843
554,31	22,346
554,51	22,134
554,70	18,776
554,90	20,871
555,09	23,581
555,29	25,884
555,49	22,247
555,68	24,499
555,88	21,206
556,07	24,110
556,27	24,156
556,46	20,622
556,66	21,625
556,86	24,643
557,05	24,218
557,25	22,427
557,44	21,653
557,64	21,066
557,83	20,941
558,03	23,153
558,22	20,397
558,42	23,727
558,62	23,997
558,81	22,493
559,01	22,500
559,20	22,917
559,40	20,631
559,59	23,759
559,79	19,808
559,98	23,069
560,18	24,543
560,37	24,841
560,57	26,324
560,76	20,537
560,96	19,529
561,16	23,309
561,35	19,110
561,55	25,496
561,74	22,844
561,94	23,009
562,13	22,250
562,33	24,048
562,52	24,777
562,72	22,180
562,91	20,491
563,11	22,398
563,30	26,993
563,50	18,914
563,69	20,188
563,89	21,875
564,08	23,385
564,28	20,787
564,47	21,350
564,67	21,131
564,86	22,762
565,06	20,329
565,25	23,040
565,45	24,108
565,64	25,866
565,84	22,990
566,03	20,794
566,23	23,199
566,42	24,089
566,62	21,997
566,81	23,100
567,01	21,556
567,20	23,346
567,40	20,223
567,59	19,568
567,79	24,796
567,98	23,493
568,18	22,228
568,37	23,393
568,57	22,531
568,76	24,712
568,96	22,161
569,15	22,174
569,35	22,447
569,54	26,060
569,73	23,135
569,93	22,211
570,12	21,178
570,32	23,182
570,51	22,427
570,71	23,606
570,90	22,966
571,10	20,549
571,29	21,332
571,49	20,255
571,68	22,904
571,87	21,857
572,07	21,570
572,26	19,258
572,46	23,649
572,65	20,946
572,85	19,961
573,04	23,583
573,24	22,424
573,43	24,506
573,62	23,657
573,82	23,242
574,01	23,718
574,21	22,077
574,40	19,902
574,60	20,302
574,79	25,805
574,98	21,613
575,18	23,629
575,37	21,001
575,57	23,485
575,76	23,400
575,96	23,639
576,15	20,102
576,34	22,067
576,54	24,284
576,73	22,701
576,93	22,468
577,12	22,397
577,31	23,077
577,51	21,578
577,70	22,917
577,90	22,220
578,09	22,089
578,28	22,142
578,48	21,996
578,67	24,008
578,87	22,800
579,06	22,215
579,25	23,589
579,45	23,477
579,64	20,583
579,84	21,754
580,03	21,161
580,22	24,468
580,42	22,722
580,61	23,191
580,81	23,558
581,00	23,164
581,19	24,015
581,39	21,373
581,58	22,605
581,77	23,050
581,97	24,121
582,16	22,864
582,35	20,883
582,55	22,998
582,74	24,981
582,94	22,757
583,13	20,210
583,32	22,300
583,52	23,022
583,71	24,408
583,90	24,067
584,10	23,778
584,29	25,247
584,48	22,954
584,68	24,247
584,87	25,263
585,06	24,728
585,26	22,256
585,45	24,200
585,65	25,967
585,84	24,904
586,03	23,709
586,23	20,884
586,42	23,688
586,61	27,835
586,81	24,732
587,00	24,475
587,19	22,678
587,39	26,789
587,58	24,689
587,77	24,839
587,97	23,772
588,16	23,964
588,35	26,174
588,54	26,843
588,74	26,206
588,93	27,591
589,12	26,140
589,32	27,023
589,51	25,978
589,70	24,613
589,90	23,879
590,09	24,740
590,28	30,323
590,48	26,115
590,67	26,391
590,86	26,422
591,06	25,772
591,25	28,621
591,44	28,598
591,63	26,975
591,83	27,964
592,02	28,166
592,21	25,535
592,41	24,579
592,60	26,907
592,79	26,956
592,98	26,697
593,18	26,309
593,37	27,635
593,56	28,128
593,76	28,297
593,95	26,209
594,14	25,980
594,33	29,808
594,53	28,902
594,72	26,984
594,91	30,569
595,10	29,439
595,30	29,529
595,49	28,836
595,68	30,647
595,88	29,945
596,07	27,686
596,26	28,232
596,45	29,505
596,65	25,863
596,84	28,176
597,03	28,904
597,22	29,950
597,42	32,633
597,61	29,311
597,80	28,972
597,99	30,706
598,19	31,061
598,38	29,892
598,57	29,290
598,76	31,514
598,95	32,380
599,15	30,081
599,34	29,873
599,53	29,423
599,72	29,581
599,92	30,288
600,11	31,194
600,30	31,610
600,49	32,068
600,69	29,330
600,88	29,048
601,07	30,236
601,26	30,021
601,45	30,196
601,65	31,126
601,84	32,599
602,03	31,580
602,22	32,553
602,42	31,580
602,61	30,408
602,80	31,924
602,99	31,457
603,18	30,256
603,38	31,472
603,57	32,525
603,76	30,308
603,95	30,155
604,14	32,170
604,34	31,896
604,53	30,025
604,72	32,645
604,91	31,507
605,10	31,800
605,29	31,694
605,49	30,137
605,68	32,178
605,87	33,038
606,06	31,319
606,25	32,287
606,45	33,382
606,64	30,023
606,83	32,174
607,02	32,158
607,21	34,387
607,40	30,998
607,60	30,101
607,79	31,538
607,98	30,707
608,17	29,665
608,36	32,207
608,55	32,013
608,75	32,062
608,94	31,487
609,13	28,086
609,32	27,553
609,51	29,112
609,70	28,287
609,89	30,438
610,09	27,118
610,28	31,305
610,47	29,141
610,66	27,367
610,85	27,054
611,04	30,229
611,23	28,646
611,43	26,913
611,62	27,474
611,81	28,796
612,00	28,904
612,19	28,108
612,38	28,286
612,57	30,599
612,77	29,014
612,96	30,247
613,15	29,472
613,34	31,692
613,53	31,702
613,72	31,441
613,91	29,921
614,10	32,002
614,29	33,770
614,49	30,488
614,68	30,821
614,87	32,485
615,06	34,490
615,25	29,177
615,44	33,546
615,63	32,794
615,82	31,592
616,01	31,073
616,21	32,389
616,40	34,588
616,59	36,367
616,78	33,761
616,97	33,335
617,16	32,897
617,35	34,639
617,54	33,432
617,73	35,547
617,92	34,353
618,11	35,560
618,31	32,426
618,50	32,812
618,69	33,792
618,88	33,449
619,07	32,897
619,26	32,716
619,45	33,140
619,64	32,576
619,83	33,471
620,02	31,975
620,21	35,363
620,40	35,684
620,59	34,059
620,78	32,490
620,97	35,892
621,17	35,945
621,36	33,976
621,55	32,657
621,74	35,720
621,93	33,998
622,12	33,368
622,31	33,470
622,50	34,287
622,69	38,195
622,88	34,015
623,07	34,655
623,26	35,327
623,45	37,699
623,64	34,537
623,83	35,204
624,02	37,560
624,21	35,783
624,40	34,083
624,59	34,553
624,78	35,635
624,97	36,361
625,16	31,934
625,35	32,408
625,54	33,981
625,73	34,888
625,92	35,440
626,12	36,433
626,31	36,665
626,50	36,542
626,69	35,302
626,88	33,597
627,07	36,633
627,26	36,140
627,45	34,281
627,64	34,188
627,83	36,458
628,02	34,244
628,21	33,588
628,40	34,953
628,59	36,223
628,78	34,047
628,97	33,548
629,16	33,810
629,35	36,172
629,54	38,077
629,73	34,741
629,92	34,292
630,10	35,422
630,29	36,024
630,48	34,889
630,67	34,467
630,86	37,050
631,05	35,961
631,24	36,231
631,43	33,981
631,62	37,302
631,81	35,838
632,00	34,600
632,19	32,724
632,38	36,716
632,57	34,890
632,76	35,623
632,95	35,964
633,14	38,532
633,33	37,332
633,52	35,560
633,71	38,910
633,90	34,985
634,09	36,550
634,28	36,420
634,47	34,820
634,66	35,903
634,85	37,562
635,04	37,414
635,22	36,674
635,41	36,207
635,60	37,913
635,79	38,172
635,98	35,024
636,17	37,371
636,36	36,221
636,55	36,106
636,74	33,748
636,93	37,073
637,12	38,421
637,31	35,897
637,50	37,566
637,69	38,110
637,87	38,013
638,06	36,837
638,25	34,948
638,44	36,856
638,63	34,924
638,82	36,805
639,01	36,067
639,20	36,730
639,39	39,183
639,58	34,911
639,77	37,829
639,95	35,320
640,14	37,768
640,33	36,047
640,52	36,306
640,71	39,861
640,90	37,504
641,09	38,372
641,28	36,545
641,47	37,162
641,66	37,894
641,84	36,694
642,03	35,586
642,22	38,310
642,41	40,378
642,60	39,606
642,79	37,986
642,98	37,593
643,17	36,153
643,35	35,420
643,54	36,602
643,73	38,589
643,92	39,439
644,11	37,208
644,30	35,921
644,49	40,413
644,67	35,742
644,86	35,023
645,05	39,761
645,24	37,029
645,43	36,304
645,62	37,079
645,81	37,918
645,99	39,556
646,18	38,466
646,37	34,960
646,56	38,313
646,75	38,763
646,94	39,621
647,13	35,474
647,31	36,547
647,50	37,289
647,69	39,512
647,88	36,824
648,07	36,976
648,26	41,319
648,44	36,829
648,63	36,312
648,82	37,137
649,01	39,404
649,20	35,958
649,38	36,770
649,57	36,797
649,76	35,983
649,95	38,082
650,14	35,163
650,33	35,067
650,51	36,414
650,70	38,068
650,89	36,298
651,08	37,945
651,27	38,753
651,45	34,955
651,64	35,703
651,83	38,917
652,02	35,606
652,21	36,296
652,39	39,187
652,58	39,710
652,77	38,517
652,96	38,551
653,15	38,181
653,33	36,358
653,52	36,773
653,71	38,654
653,90	37,199
654,09	36,476
654,27	36,262
654,46	38,494
654,65	36,104
654,84	36,273
655,02	38,479
655,21	37,097
655,40	37,430
655,59	37,077
655,77	36,974
655,96	36,575
656,15	38,681
656,34	36,987
656,53	36,075
656,71	37,244
656,90	36,300
657,09	36,639
657,28	35,990
657,46	35,361
657,65	36,730
657,84	35,707
658,03	38,441
658,21	38,175
658,40	37,147
658,59	36,516
658,78	38,974
658,96	36,388
659,15	36,072
659,34	37,263
659,52	39,090
659,71	37,876
659,90	35,850
660,09	36,673
660,27	36,414
660,46	40,623
660,65	38,619
660,84	36,473
661,02	38,193
661,21	38,887
661,40	37,950
661,58	37,783
661,77	37,961
661,96	35,470
662,15	36,925
662,33	36,544
662,52	36,323
662,71	39,638
662,89	36,586
663,08	36,502
663,27	39,294
663,45	38,224
663,64	37,797
663,83	34,816
664,02	37,376
664,20	38,352
664,39	36,338
664,58	37,935
664,76	38,140
664,95	37,197
665,14	36,715
665,32	35,672
665,51	39,883
665,70	37,379
665,88	37,872
666,07	37,931
666,26	38,955
666,44	37,919
666,63	37,278
666,82	36,188
667,00	38,668
667,19	36,583
667,38	38,178
667,56	39,617
667,75	37,702
667,94	38,849
668,12	36,228
668,31	38,258
668,50	38,783
668,68	39,387
668,87	36,420
669,06	36,573
669,24	38,572
669,43	36,735
669,62	35,729
669,80	35,578
669,99	38,197
670,18	36,193
670,36	36,020
670,55	38,061
670,74	36,988
670,92	36,317
671,11	39,055
671,29	34,752
671,48	36,556
671,67	37,809
671,85	38,571
672,04	34,364
672,23	35,407
672,41	37,027
672,60	36,521
672,78	34,762
672,97	35,678
673,16	41,652
673,34	36,483
673,53	35,271
673,71	36,147
673,90	39,374
674,09	36,999
674,27	35,382
674,46	37,340
674,64	36,661
674,83	36,514
675,02	34,812
675,20	36,826
675,39	36,973
675,57	36,706
675,76	35,357
675,95	39,812
676,13	38,890
676,32	36,715
676,50	37,037
676,69	35,100
676,88	36,107
677,06	35,080
677,25	36,280
677,43	40,399
677,62	37,615
677,80	36,765
677,99	37,806
678,18	38,869
678,36	39,216
678,55	35,097
678,73	35,348
678,92	37,384
679,10	36,939
679,29	36,363
679,48	33,953
679,66	36,689
679,85	37,290
680,03	36,319
680,22	37,747
680,40	36,774
680,59	34,997
680,77	35,676
680,96	38,221
681,15	35,465
681,33	37,801
681,52	36,364
681,70	36,881
681,89	38,435
682,07	39,179
682,26	36,623
682,44	37,196
682,63	38,242
682,81	38,643
683,00	38,316
683,18	34,237
683,37	37,991
683,55	36,111
683,74	37,188
683,92	41,767
684,11	38,369
684,29	36,934
684,48	34,876
684,67	35,957
684,85	37,611
685,04	37,701
685,22	36,152
685,41	37,686
685,59	38,050
685,78	36,840
685,96	35,057
686,15	36,279
686,33	36,913
686,52	37,160
686,70	35,974
686,89	36,484
687,07	36,674
687,26	38,576
687,44	37,718
687,62	37,055
687,81	38,991
687,99	36,863
688,18	37,783
688,36	36,610
688,55	37,617
688,73	37,278
688,92	35,268
689,10	36,341
689,29	38,459
689,47	38,650
689,66	36,208
689,84	36,085
690,03	36,780
690,21	37,084
690,40	37,430
690,58	35,651
690,76	35,280
690,95	38,683
691,13	36,838
691,32	37,163
691,50	38,372
691,69	36,327
691,87	35,134
692,06	35,376
692,24	35,454
692,43	37,056
692,61	34,306
692,79	34,360
692,98	36,559
693,16	39,381
693,35	36,321
693,53	36,898
693,72	37,058
693,90	38,345
694,08	35,294
694,27	35,815
694,45	40,600
694,64	38,825
694,82	36,528
695,01	36,433
695,19	36,816
695,37	38,075
695,56	35,537
695,74	36,366
695,93	37,005
696,11	35,427
696,29	38,147
696,48	38,177
696,66	36,765
696,85	35,696
697,03	35,138
697,21	38,709
697,40	36,756
697,58	38,025
697,77	35,317
697,95	36,850
698,13	37,782
698,32	35,773
698,50	36,516
698,69	36,279
698,87	37,541
699,05	36,743
699,24	35,737
699,42	36,068
699,60	35,476
699,79	35,791
699,97	34,676
700,16	34,590
700,34	38,085
700,52	36,367
700,71	37,405
700,89	36,246
701,07	36,540
701,26	36,544
701,44	34,844
701,63	36,081
701,81	36,938
701,99	37,274
702,18	35,524
702,36	35,943
702,54	35,695
702,73	37,123
702,91	35,287
703,09	36,743
703,28	35,239
703,46	38,110
703,64	36,513
703,83	36,274
704,01	37,807
704,19	35,369
704,38	34,288
704,56	35,060
704,74	36,807
704,93	34,366
705,11	36,264
705,29	36,802
705,48	41,458
705,66	37,624
705,84	36,373
706,03	34,584
706,21	36,405
706,39	35,593
706,58	36,772
706,76	34,655
706,94	38,138
707,12	37,033
707,31	36,312
707,49	34,145
707,67	36,668
707,86	38,967
708,04	36,451
708,22	34,365
708,41	36,128
708,59	36,289
708,77	34,340
708,95	37,278
709,14	39,328
709,32	36,852
709,50	34,916
709,69	36,182
709,87	35,573
710,05	36,597
710,23	35,491
710,42	33,438
710,60	35,703
710,78	38,709
710,97	36,150
711,15	33,670
711,33	37,668
711,51	36,713
711,70	33,534
711,88	34,726
712,06	38,500
712,24	36,126
712,43	37,695
712,61	34,430
712,79	37,301
712,97	35,438
713,16	35,304
713,34	36,152
713,52	36,706
713,70	35,307
713,89	34,565
714,07	35,382
714,25	35,625
714,43	37,025
714,62	33,845
714,80	34,905
714,98	33,158
715,16	34,775
715,35	34,728
715,53	35,885
715,71	37,558
715,89	38,055
716,07	34,605
716,26	40,255
716,44	38,090
716,62	37,146
716,80	36,530
716,99	35,115
717,17	36,864
717,35	36,944
717,53	36,106
717,71	33,981
717,90	35,166
718,08	36,439
718,26	32,997
718,44	36,303
718,62	37,987
718,81	36,286
718,99	35,367
719,17	36,665
719,35	37,317
719,53	34,973
719,72	35,529
719,90	36,540
720,08	35,293
720,26	39,399
720,44	34,372
720,62	36,089
720,81	36,914
720,99	39,392
721,17	36,982
721,35	36,469
721,53	36,264
721,72	37,338
721,90	36,881
722,08	33,260
722,26	37,929
722,44	35,916
722,62	35,125
722,81	35,292
722,99	36,013
723,17	35,388
723,35	36,406
723,53	35,841
723,71	37,177
723,89	38,981
724,08	31,253
724,26	35,808
724,44	35,413
724,62	35,153
724,80	34,109
724,98	35,517
725,16	38,488
725,35	36,006
725,53	34,157
725,71	34,807
725,89	38,123
726,07	39,459
726,25	39,208
726,43	35,290
726,61	37,925
726,80	37,114
726,98	35,383
727,16	33,735
727,34	37,482
727,52	36,118
727,70	34,829
727,88	34,261
728,06	33,691
728,25	34,165
728,43	35,928
728,61	37,494
728,79	36,105
728,97	37,697
729,15	34,385
729,33	35,583
729,51	38,015
729,69	37,347
729,87	35,821
730,06	35,477
730,24	36,391
730,42	38,456
730,60	34,709
730,78	36,143
730,96	35,398
731,14	37,006
731,32	35,283
731,50	33,497
731,68	35,222
731,86	38,070
732,04	36,653
732,22	34,916
732,41	39,543
732,59	35,847
732,77	35,940
732,95	35,986
733,13	37,449
733,31	35,549
733,49	33,541
733,67	35,755
733,85	38,392
734,03	37,962
734,21	35,432
734,39	33,844
734,57	37,085
734,75	37,657
734,93	36,095
735,11	36,062
735,29	34,644
735,47	37,513
735,65	36,009
735,84	33,620
736,02	37,180
736,20	38,872
736,38	34,402
736,56	36,028
736,74	34,617
736,92	36,300
737,10	36,435
737,28	36,375
737,46	35,966
737,64	35,084
737,82	35,353
738,00	36,664
738,18	37,714
738,36	35,553
738,54	33,613
738,72	34,312
738,90	38,225
739,08	36,833
739,26	33,138
739,44	35,032
739,62	36,071
739,80	36,109
739,98	36,352
740,16	34,312
740,34	36,523
740,52	37,876
740,70	34,854
740,88	34,501
741,06	33,109
741,24	35,613
741,42	37,876
741,60	34,699
741,78	38,734
741,96	35,437
742,14	36,108
742,32	34,506
742,50	35,941
742,68	37,824
742,86	35,507
743,04	33,793
743,21	37,650
743,39	37,649
743,57	35,714
743,75	34,161
743,93	34,619
744,11	34,656
744,29	35,111
744,47	36,852
744,65	37,521
744,83	35,383
745,01	32,846
745,19	36,335
745,37	38,673
745,55	38,843
745,73	36,579
745,91	34,220
746,09	34,840
746,27	35,467
746,45	33,451
746,62	34,664
746,80	37,291
746,98	37,200
747,16	34,869
747,34	35,711
747,52	35,012
747,70	36,532
747,88	34,066
748,06	36,511
748,24	36,854
748,42	36,333
748,60	34,430
748,78	34,685
748,95	37,533
749,13	40,863
749,31	34,102
749,49	36,547
749,67	36,897
749,85	37,623
750,03	34,118
750,21	35,011
750,39	37,095
750,57	38,569
750,74	37,872
750,92	34,863
751,10	37,702
751,28	33,159
751,46	33,565
751,64	36,989
751,82	37,392
752,00	36,170
752,17	37,480
752,35	34,528
752,53	35,157
752,71	36,088
752,89	35,724
753,07	37,335
753,25	37,087
753,43	33,274
753,60	37,014
753,78	34,035
753,96	39,067
754,14	36,395
754,32	35,596
754,50	35,849
754,68	37,280
754,85	35,789
755,03	37,164
755,21	36,207
755,39	39,374
755,57	36,380
755,75	36,013
755,92	33,345
756,10	35,167
756,28	37,858
756,46	33,609
756,64	36,081
756,82	35,977
756,99	34,679
757,17	34,444
757,35	34,983
757,53	37,739
757,71	39,425
757,89	35,172
758,06	35,186
758,24	36,164
758,42	36,122
758,60	34,628
758,78	34,761
758,95	35,032
759,13	37,098
759,31	35,087
759,49	34,658
759,67	35,274
759,84	34,912
760,02	36,510
760,20	34,488
760,38	35,819
760,56	35,553
760,73	35,604
760,91	35,835
761,09	36,320
761,27	35,534
761,45	35,031
761,62	35,673
761,80	35,865
761,98	36,621
762,16	34,923
762,33	33,021
762,51	37,498
762,69	35,354
762,87	34,932
763,05	36,446
763,22	36,179
763,40	34,758
763,58	33,313
763,76	34,659
763,93	38,065
764,11	37,714
764,29	35,578
764,47	33,989
764,64	38,400
764,82	38,630
765,00	34,519
765,18	32,582
765,35	34,081
765,53	34,724
765,71	35,239
765,89	34,260
766,06	32,832
766,24	34,720
766,42	35,369
766,60	34,666
766,77	34,394
766,95	33,898
767,13	33,957
767,30	35,474
767,48	35,820
767,66	33,591
767,84	33,197
768,01	35,938
768,19	36,180
768,37	37,172
768,54	36,211
768,72	35,797
768,90	36,148
769,08	36,643
769,25	35,001
769,43	34,487
769,61	32,410
769,78	36,998
769,96	33,878
770,14	37,154
770,31	37,316
770,49	36,487
770,67	37,064
770,85	34,481
771,02	36,114
771,20	34,141
771,38	35,425
771,55	35,970
771,73	34,671
771,91	36,972
772,08	36,021
772,26	35,404
772,44	35,691
772,61	35,465
772,79	33,574
772,97	35,355
773,14	33,024
773,32	36,183
773,50	35,219
773,67	34,843
773,85	37,320
774,03	39,956
774,20	33,976
774,38	34,544
774,56	33,913
774,73	35,195
774,91	34,331
775,09	33,992
775,26	37,116
775,44	37,815
775,61	36,557
775,79	34,637
775,97	36,987
776,14	35,850
776,32	31,969
776,50	36,486
776,67	36,300
776,85	36,335
777,03	35,836
777,20	35,093
777,38	38,186
777,55	37,942
777,73	32,045
777,91	37,062
778,08	37,122
778,26	37,143
778,43	33,273
778,61	30,565
778,79	33,751
778,96	35,118
779,14	34,141
779,32	34,764
779,49	34,503
779,67	40,192
779,84	34,935
780,02	36,443
780,20	33,448
780,37	35,751
780,55	33,314
780,72	35,684
780,90	37,263
781,07	34,921
781,25	33,953
781,43	34,900
781,60	34,251
781,78	35,718
781,95	34,115
782,13	35,978
782,30	37,809
782,48	36,068
782,66	34,442
782,83	33,687
783,01	40,862
783,18	37,334
783,36	36,811
783,53	37,035
783,71	35,801
783,89	33,813
784,06	34,964
784,24	35,826
784,41	38,111
784,59	35,726
784,76	36,579
784,94	35,846
785,11	34,059
785,29	36,429
785,46	35,975
785,64	35,008
785,82	37,864
785,99	37,886
786,17	36,050
786,34	34,342
786,52	36,688
786,69	38,378
786,87	32,511
787,04	35,063
787,22	33,420
787,39	36,543
787,57	37,543
787,74	34,324
787,92	38,463
788,09	38,248
788,27	33,861
788,44	31,792
788,62	35,930
788,79	35,396
788,97	37,515
789,14	33,852
789,32	36,165
789,49	35,230
789,67	34,865
789,84	36,308
790,02	35,309
790,19	34,459
790,37	37,298
790,54	34,902
790,72	40,266
790,89	40,417
791,07	39,761
791,24	32,328
791,42	38,206
791,59	38,543
791,77	37,065
791,94	31,609
792,12	32,031
792,29	36,384
792,47	35,961
792,64	38,129
792,81	39,999
792,99	35,225
793,16	36,322
793,34	36,128
793,51	36,889
793,69	35,059
793,86	35,708
794,04	34,678
794,21	37,548
794,39	31,504
794,56	35,817
794,73	36,093
794,91	38,996
795,08	33,773
795,26	34,674
795,43	36,384
795,61	38,065
795,78	37,120
795,95	36,482
796,13	38,782
796,30	37,392
796,48	36,882
796,65	33,661
796,83	35,292
797,00	41,665
797,17	35,765
797,35	34,912
797,52	37,607
797,70	38,893
797,87	38,413
798,04	35,095
798,22	34,002
798,39	37,223
798,57	38,021
798,74	38,258
798,91	32,766
799,09	33,820
799,26	37,558
799,44	38,181
799,61	33,706
799,78	35,408
799,96	40,010
800,13	35,707
800,31	35,095
800,48	38,933
800,65	39,639
800,83	32,706
801,00	36,447
801,17	35,575
801,35	40,534
801,52	36,598
801,70	36,293
801,87	37,601
802,04	38,226
802,22	34,331
802,39	34,197
802,56	43,049
802,74	42,571
802,91	34,510
803,08	34,765
803,26	40,131
803,43	43,278
803,61	34,108
803,78	36,401
803,95	36,737
804,13	39,916
804,30	32,018
804,47	38,794
804,65	38,910
804,82	37,839
804,99	36,478
805,17	37,972
805,34	42,509
805,51	41,273
805,69	34,611
805,86	31,828
806,03	42,795
806,21	42,994
806,38	37,075
806,55	40,739
806,72	43,482
806,90	38,471
807,07	35,034
807,24	37,253
807,42	33,832
807,59	38,486
807,76	32,616
807,94	38,177
808,11	44,310
808,28	44,987
808,45	38,719
808,63	36,769
808,80	44,824
808,97	35,132
809,15	36,639
809,32	37,848
809,49	34,501
809,67	36,358
809,84	39,991
810,01	41,830
810,18	50,222
810,36	40,877
810,53	38,785
810,70	38,412
810,87	38,888
811,05	36,601
811,22	40,944
811,39	35,696
811,57	38,388
811,74	41,885
811,91	33,594
812,08	34,633
812,26	40,744
812,43	37,907
812,60	37,372
812,77	38,279
812,95	43,019
813,12	39,899
813,29	34,908
813,46	39,676
813,64	39,983
813,81	43,273
813,98	37,005
814,15	40,875
814,32	40,197
814,50	41,367
814,67	39,830
814,84	40,222
815,01	37,486
815,19	34,285
815,36	32,436
815,53	38,054
815,70	36,749
815,87	40,215
816,05	34,447
816,22	41,077
816,39	43,427
816,56	45,612
816,74	39,461
816,91	32,839
817,08	45,827
817,25	38,988
817,42	37,011
817,60	35,973
817,77	39,158
817,94	44,804
818,11	41,883
818,28	39,586
818,45	41,301
818,63	41,502
818,80	40,916
818,97	38,852
819,14	46,740
819,31	44,467
819,49	41,729
819,66	37,903
819,83	43,060
820,00	40,501
820,17	34,232
820,34	40,990
820,52	44,434
820,69	39,846
820,86	36,393
821,03	40,228
821,20	45,205
821,37	44,059
821,55	33,573
821,72	35,995
821,89	41,710
822,06	46,161
822,23	36,274
822,40	40,445
822,57	39,463
822,75	48,248
822,92	31,915
823,09	38,968
823,26	45,571
823,43	45,179
823,60	38,753
823,77	36,004
823,94	49,938
824,12	52,101
824,29	40,161
824,46	33,820
824,63	50,803
824,80	44,971
824,97	38,517
825,14	43,213
825,31	43,965
825,49	41,536
825,66	37,376
825,83	36,481
826,00	43,708
826,17	50,060
826,34	37,377
826,51	33,171
826,68	42,080
826,85	40,028
827,02	40,078
827,20	31,449
827,37	43,923
827,54	45,113
827,71	40,690
827,88	43,550
828,05	41,871
828,22	38,312
828,39	39,601
828,56	43,728
828,73	42,178
828,90	42,401
829,07	37,371
829,25	33,915
829,42	44,721
829,59	39,468
829,76	37,256
829,93	32,636
830,10	41,270
830,27	38,365
830,44	39,241
830,61	35,204
830,78	50,205
830,95	42,030
831,12	41,079
831,29	39,202
831,46	39,196
831,63	40,988
831,80	37,632
831,97	38,291
832,14	43,563
832,31	58,178
832,48	38,367
832,65	44,786
832,83	41,992
833,00	44,205
833,17	37,493
833,34	43,306
833,51	39,385
833,68	48,130
833,85	42,625
834,02	35,004
834,19	41,515
834,36	44,409
834,53	31,533
834,70	37,669
834,87	55,922
835,04	40,364
835,21	38,367
835,38	35,654
835,55	42,086
835,72	57,218
835,89	41,126
836,06	44,224
836,23	52,471
836,40	37,731
836,57	34,422
836,74	43,423
836,91	48,811
837,08	50,533
837,25	40,658
837,42	32,537
837,59	40,038
837,76	37,707
837,93	40,937
838,09	34,385
838,26	46,701
838,43	57,855
838,60	44,029
838,77	35,453
838,94	43,884
839,11	38,783
839,28	36,238
839,45	39,484
839,62	43,793
839,79	40,235
839,96	39,189
840,13	42,003
840,30	32,083
840,47	43,051
840,64	37,501
840,81	47,008
840,98	41,456
841,15	60,369
841,32	32,603
841,48	53,606
841,65	44,204
841,82	45,488
841,99	43,424
842,16	34,886
842,33	46,903
842,50	49,427
842,67	35,112
842,84	42,449
843,01	50,020
843,18	50,668
843,35	32,572
843,52	33,666
843,68	48,150
843,85	48,162
844,02	35,095
844,19	37,626
844,36	60,674
844,53	45,771
844,70	42,447
844,87	49,892
845,04	52,748
845,21	29,636
845,37	48,251
845,54	43,520
845,71	42,190
845,88	65,664
846,05	34,457
846,22	34,550
846,39	50,664
846,56	46,651
846,72	37,170
846,89	45,786
847,06	57,982
847,23	63,409
847,40	38,243
847,57	31,239
847,74	53,683
847,90	61,955
848,07	50,151
848,24	41,392
848,41	42,163
848,58	58,360
848,75	42,084
848,92	30,857
849,08	40,324
849,25	52,086
849,42	35,519
849,59	52,514
849,76	44,805
849,93	55,120
850,09	44,805
850,26	35,548
850,43	66,084
850,60	43,098
850,77	40,015
850,94	38,831
851,10	42,467
851,27	45,684
851,44	40,382
851,61	42,388
851,78	61,471
851,95	54,817
852,11	39,996
852,28	39,996
852,45	52,674
852,62	60,672
852,79	46,338
852,95	37,139
853,12	55,601
853,29	45,449
853,46	33,422
853,63	55,954
853,79	41,558
853,96	42,165
854,13	60,291
854,30	27,318
854,46	59,510
854,63	48,438
854,80	37,316
854,97	38,769
855,14	70,797
855,30	51,401
855,47	33,882
855,64	41,242
855,81	47,923
855,97	46,399
856,14	44,237
856,31	36,698
856,48	64,682
856,65	65,872
856,81	44,706
856,98	40,088
857,15	47,852
857,32	51,914
857,48	48,142
857,65	57,047
857,82	62,386
857,99	62,748
858,15	53,255
858,32	50,535
858,49	54,866
858,65	86,019
858,82	52,186
858,99	34,173
859,16	57,190
859,32	64,381
859,49	41,009
859,66	47,585
859,83	53,886
859,99	42,058
860,16	51,246
860,33	41,272
860,49	49,965
860,66	55,752
860,83	51,506
861,00	46,760
861,16	68,966
861,33	67,522
861,50	47,657
861,66	39,994
861,83	79,908
862,00	51,581
862,16	41,535
862,33	46,237
862,50	92,839
862,67	59,188
862,83	57,060
863,00	45,726
863,17	82,869
863,33	58,021
863,50	14,630
863,67	55,208
863,83	63,881
864,00	72,996
864,17	29,419
864,33	39,906
864,50	54,390
864,67	53,598
864,83	51,578
865,00	39,801
865,17	40,914
865,33	71,128
865,50	35,498
865,67	37,697
865,83	67,343
866,00	81,540
866,17	57,258
866,33	68,626
866,50	71,692
866,66	83,769
866,83	54,723
867,00	69,858
867,16	73,736
867,33	102,347
867,50	41,727
867,66	28,519
867,83	77,807
868,00	71,392
868,16	35,259
868,33	35,422
868,49	65,725
868,66	77,018
868,83	61,028
868,99	71,548
869,16	95,139
869,32	112,713
869,49	52,186
869,66	31,217
869,82	86,719
869,99	86,502
870,15	26,862
870,32	67,283
870,49	99,970
870,65	102,566
870,82	38,763
870,98	56,209
871,15	103,813
871,32	66,838
871,48	9,541
871,65	26,207
871,81	49,390
871,98	66,415
872,15	26,547
872,31	31,814
872,48	130,845
872,64	66,349
872,81	11,592
872,97	56,336
873,14	86,634
873,31	90,981
873,47	62,086
873,64	58,828
873,80	139,531
873,97	116,372
874,13	29,042
874,30	49,582
874,46	118,131
874,63	69,816
874,80	57,122
874,96	5,650
875,13	113,859
875,29	47,608
875,46	71,542
875,62	31,125
875,79	92,172
875,95	42,379
876,12	58,708
876,28	6,897
876,45	139,545
876,61	61,489
876,78	47,733
876,94	43,712
877,11	88,035
877,27	103,314
877,44	51,019
877,60	50,237
877,77	112,986
877,94	103,259
878,10	39,755
878,27	109,597
878,43	132,759
878,60	57,940
878,76	58,498
878,93	37,503
879,09	120,026
879,26	132,913
879,42	52,292
879,58	72,077
879,75	117,813
879,91	129,290
880,08	-39,212
880,24	50,830
880,41	49,123
880,57	142,181
880,74	14,784
880,90	75,952
881,07	118,011
881,23	99,905
881,40	80,063
881,56	77,217
881,73	123,079
881,89	99,120
882,06	17,475
882,22	99,884
882,38	204,930
882,55	183,061
882,71	19,529
882,88	43,082
883,04	151,399
883,21	209,384
883,37	73,709
883,54	81,771
883,70	297,498
883,86	170,775
884,03	52,310
884,19	25,983
884,36	221,556
884,52	187,654
884,69	44,511
884,85	43,371
885,01	239,767
885,18	125,041
885,34	64,579
885,51	28,990
885,67	97,400
>>>>> Data<<<<< Espectral Procesado Extremo
