Fichero De Datos De SpectraSuite
++++++++++++++++++++++++++++++++++++
Fecha: Wed Apr 22 13:25:17 CEST 2009
Usuario: evoflor
Presente Oscuro Del Espectro: Sí
La Referencia de Presente Del Espectro De: Sí
Muestreados de los componentes de Número de espectros: 1
Espectrómetros: USB4F02353
Tiempo de integración (usec): 500000 (USB4F02353)
Promedio de Espectros Hechos un: 5 (USB4F02353)
El Alisar Del Furgón: 0 (USB4F02353)
Párrafo de de Corregir del la del del de Eléctrica del obscuridad: Sí (USB4F02353)
Estrobo/Lámpara Permitido: No (USB4F02353)
Correct for Detector Non-linearity: No (USB4F02353)
Párrafo de de Corregir del la del del de Externa del luz: No (USB4F02353)
Procesado del espectro de Número de pixeles en: 3648
>>>>> Comienza Data<<<<< Espectral Procesado Del EL
177,79	232,659
178,00	232,659
178,22	232,659
178,44	2116,868
178,66	-214,947
178,88	483,827
179,09	-133,894
179,31	170,548
179,53	735,495
179,75	306,220
179,96	1085,905
180,18	-287,892
180,40	515,812
180,62	367,546
180,83	7,293
181,05	-1075,183
181,27	-132265,000
181,49	-103,620
181,70	131,404
181,92	712,513
182,14	544,774
182,36	70,621
182,58	495,350
182,79	915,915
183,01	-40,245
183,23	225,616
183,45	-38,662
183,66	67,854
183,88	809,794
184,10	-4041,182
184,32	452,141
184,53	193,736
184,75	-260,760
184,97	40,795
185,18	-289,220
185,40	-731,082
185,62	110,168
185,84	-0,076
186,05	117,273
186,27	-173,076
186,49	6264,038
186,71	48,593
186,92	76,137
187,14	-259,316
187,36	178,698
187,58	76,005
187,79	-17,728
188,01	407,519
188,23	7,770
188,45	2,950
188,66	112,344
188,88	-1095,727
189,10	-2123,650
189,31	-95,162
189,53	-31,268
189,75	411,057
189,97	221,404
190,18	-116,030
190,40	253,912
190,62	-392,103
190,83	-229,309
191,05	167,353
191,27	226,186
191,49	265,012
191,70	-536,370
191,92	-564,110
192,14	-32,740
192,35	668,342
192,57	2801,857
192,79	-23,201
193,01	223,566
193,22	33,627
193,44	-139,701
193,66	142,842
193,87	217,698
194,09	-61,659
194,31	305,639
194,53	484,371
194,74	111,718
194,96	20,671
195,18	207,917
195,39	-543,707
195,61	-130,427
195,83	-309,054
196,04	116,821
196,26	-153,593
196,48	-1,079
196,70	232,535
196,91	115,406
197,13	280,165
197,35	78,862
197,56	713,204
197,78	1994,515
198,00	937,517
198,21	476,044
198,43	-1449,215
198,65	208,864
198,86	566,421
199,08	150,377
199,30	287,783
199,51	-369,267
199,73	241,320
199,95	467,735
200,16	747,558
200,38	262,504
200,60	137,325
200,81	441,253
201,03	371,644
201,25	-2609,650
201,46	116,746
201,68	66,979
201,90	2842,386
202,11	-515,134
202,33	22,558
202,55	-146,687
202,76	-118,381
202,98	313,467
203,20	-138,293
203,41	-284,026
203,63	169,077
203,85	-118765,000
204,06	181,589
204,28	-314,373
204,50	142,210
204,71	378,383
204,93	-187,480
205,15	2,605
205,36	-211,597
205,58	184,770
205,80	-181,869
206,01	105,403
206,23	173,723
206,45	247,617
206,66	160,103
206,88	-58,933
207,10	163,557
207,31	400,483
207,53	120,757
207,75	63,475
207,96	1390,037
208,18	-155,060
208,39	85,625
208,61	5501,857
208,83	-452,145
209,04	325,621
209,26	-385,553
209,48	273,688
209,69	291,718
209,91	887,720
210,13	19,989
210,34	176,429
210,56	219,388
210,77	-2132,795
210,99	137,602
211,21	4550,882
211,42	-260,095
211,64	-60,651
211,86	235,622
212,07	407,030
212,29	278,736
212,50	128,183
212,72	20,635
212,94	168,621
213,15	224,432
213,37	166,783
213,58	-135,621
213,80	-2216,607
214,02	9897,941
214,23	402,308
214,45	392,344
214,67	-636,159
214,88	108,842
215,10	-415,079
215,31	5,819
215,53	-65,534
215,75	223,765
215,96	1497,919
216,18	-241,338
216,39	235,278
216,61	375,251
216,83	755,201
217,04	1344,551
217,26	55,105
217,47	188,612
217,69	327,325
217,91	176,379
218,12	-94465,000
218,34	84,593
218,55	503,621
218,77	61,710
218,99	97,360
219,20	-227,360
219,42	318,239
219,63	-193,742
219,85	-77,344
220,06	-27,827
220,28	292,615
220,50	72,775
220,71	143,531
220,93	4074,811
221,14	-2708,650
221,36	-122,113
221,58	-135,755
221,79	145,920
222,01	1768,664
222,22	514,901
222,44	181,629
222,65	142,835
222,87	12,343
223,09	118,070
223,30	127,424
223,52	48,259
223,73	168,474
223,95	-1,317
224,16	276,423
224,38	328,353
224,60	115,447
224,81	-4,258
225,03	137,737
225,24	109,319
225,46	113,563
225,67	-4,226
225,89	22,336
226,10	631,521
226,32	870,920
226,54	-29,464
226,75	3,056
226,97	145,301
227,18	144,604
227,40	-73,186
227,61	103,357
227,83	57,818
228,04	138,892
228,26	93,003
228,47	77,579
228,69	238,289
228,91	135,814
229,12	60,664
229,34	27,131
229,55	79,864
229,77	48,097
229,98	-13,618
230,20	105,217
230,41	1,764
230,63	105,304
230,84	50,877
231,06	4,002
231,27	23,893
231,49	55,528
231,71	28,067
231,92	36,176
232,14	14,671
232,35	108,965
232,57	39,102
232,78	23,578
233,00	47,297
233,21	58,881
233,43	11,050
233,64	12,961
233,86	54,216
234,07	58,544
234,29	9,551
234,50	8,171
234,72	33,089
234,93	-4,732
235,15	25,904
235,36	5,955
235,58	64,390
235,79	52,402
236,01	23,331
236,22	8,781
236,44	51,020
236,65	27,868
236,87	33,333
237,08	0,852
237,30	4,596
237,51	21,142
237,73	-8,067
237,94	11,078
238,16	21,612
238,37	9,657
238,59	13,303
238,80	15,814
239,02	9,852
239,23	24,573
239,45	-5,134
239,66	14,592
239,88	41,403
240,09	15,201
240,31	-1,392
240,52	11,683
240,74	16,322
240,95	7,842
241,17	5,237
241,38	2,890
241,60	10,624
241,81	24,868
242,03	4,167
242,24	12,156
242,46	20,742
242,67	3,215
242,89	4,056
243,10	19,012
243,32	21,906
243,53	19,769
243,75	5,876
243,96	6,387
244,18	13,171
244,39	8,802
244,60	10,782
244,82	1,842
245,03	18,579
245,25	9,082
245,46	25,187
245,68	2,453
245,89	20,888
246,11	14,303
246,32	3,311
246,54	7,255
246,75	6,500
246,97	14,736
247,18	18,632
247,39	-2,466
247,61	5,916
247,82	12,226
248,04	6,940
248,25	7,495
248,47	16,877
248,68	12,167
248,90	3,206
249,11	7,813
249,33	18,604
249,54	6,862
249,75	3,866
249,97	4,884
250,18	14,413
250,40	15,116
250,61	-6,456
250,83	1,966
251,04	2,303
251,25	14,721
251,47	-1,410
251,68	9,703
251,90	9,706
252,11	8,599
252,33	4,960
252,54	5,193
252,76	0,367
252,97	0,379
253,18	2,379
253,40	5,852
253,61	5,129
253,83	9,372
254,04	11,923
254,25	6,104
254,47	4,691
254,68	7,192
254,90	7,766
255,11	6,110
255,33	7,122
255,54	8,586
255,75	6,084
255,97	1,991
256,18	1,892
256,40	8,512
256,61	5,793
256,82	-1,010
257,04	10,661
257,25	4,179
257,47	8,805
257,68	4,162
257,89	10,985
258,11	10,645
258,32	2,089
258,54	9,425
258,75	16,890
258,96	15,143
259,18	4,910
259,39	0,514
259,61	4,132
259,82	7,296
260,03	4,874
260,25	8,052
260,46	6,581
260,68	2,501
260,89	3,079
261,10	1,294
261,32	6,168
261,53	2,731
261,75	10,027
261,96	1,287
262,17	13,203
262,39	13,838
262,60	4,148
262,81	1,037
263,03	10,712
263,24	6,847
263,46	0,777
263,67	3,633
263,88	5,883
264,10	8,721
264,31	-0,748
264,52	5,525
264,74	7,444
264,95	4,286
265,17	7,822
265,38	8,229
265,59	8,013
265,81	9,718
266,02	-0,440
266,23	-2,457
266,45	7,475
266,66	10,570
266,87	10,938
267,09	1,709
267,30	9,432
267,52	9,043
267,73	2,040
267,94	5,872
268,16	6,156
268,37	5,713
268,58	6,901
268,80	1,944
269,01	5,814
269,22	9,180
269,44	6,181
269,65	3,792
269,86	3,877
270,08	8,701
270,29	1,437
270,50	5,077
270,72	11,023
270,93	4,460
271,14	-0,915
271,36	-0,332
271,57	6,560
271,78	8,034
272,00	7,517
272,21	8,868
272,42	6,244
272,64	6,581
272,85	-0,808
273,06	2,267
273,28	9,676
273,49	6,852
273,70	7,947
273,92	3,443
274,13	8,181
274,34	4,679
274,56	7,142
274,77	0,711
274,98	5,810
275,20	2,601
275,41	5,914
275,62	5,977
275,84	5,964
276,05	12,387
276,26	2,220
276,47	4,242
276,69	7,453
276,90	8,231
277,11	2,851
277,33	4,265
277,54	8,005
277,75	6,629
277,97	2,400
278,18	-0,392
278,39	7,097
278,61	2,967
278,82	4,397
279,03	5,909
279,24	8,441
279,46	3,257
279,67	6,233
279,88	4,810
280,10	8,522
280,31	3,302
280,52	5,087
280,73	2,108
280,95	4,791
281,16	9,624
281,37	5,267
281,59	7,530
281,80	10,339
282,01	3,482
282,22	0,248
282,44	2,372
282,65	8,799
282,86	7,826
283,08	5,262
283,29	5,363
283,50	5,082
283,71	6,111
283,93	5,494
284,14	4,465
284,35	1,984
284,56	7,713
284,78	3,332
284,99	5,883
285,20	9,147
285,42	5,742
285,63	2,095
285,84	-0,432
286,05	2,463
286,27	2,889
286,48	4,550
286,69	1,577
286,90	3,340
287,12	3,955
287,33	2,857
287,54	1,329
287,75	5,725
287,97	7,077
288,18	5,010
288,39	1,562
288,60	4,207
288,82	4,566
289,03	2,691
289,24	4,432
289,45	7,330
289,67	4,055
289,88	1,902
290,09	4,534
290,30	6,662
290,52	3,222
290,73	2,825
290,94	-0,386
291,15	4,901
291,37	7,130
291,58	3,621
291,79	0,826
292,00	5,062
292,21	7,909
292,43	4,241
292,64	-0,688
292,85	3,936
293,06	6,505
293,28	2,181
293,49	-1,822
293,70	8,427
293,91	3,359
294,12	5,552
294,34	3,526
294,55	3,263
294,76	4,290
294,97	6,433
295,19	1,046
295,40	6,139
295,61	5,723
295,82	-1,341
296,03	3,698
296,25	5,385
296,46	2,172
296,67	-1,009
296,88	0,024
297,09	5,429
297,31	4,927
297,52	3,761
297,73	0,146
297,94	7,629
298,15	5,367
298,37	2,956
298,58	7,110
298,79	5,845
299,00	2,167
299,21	0,403
299,43	1,069
299,64	9,088
299,85	4,506
300,06	2,759
300,27	0,740
300,49	7,464
300,70	6,083
300,91	4,484
301,12	1,217
301,33	7,716
301,54	2,829
301,76	5,613
301,97	2,777
302,18	3,507
302,39	4,633
302,60	12,781
302,82	3,953
303,03	6,937
303,24	4,930
303,45	5,648
303,66	3,816
303,87	2,071
304,09	6,911
304,30	2,526
304,51	4,345
304,72	4,276
304,93	6,049
305,14	2,216
305,36	0,560
305,57	1,504
305,78	6,226
305,99	3,900
306,20	3,536
306,41	1,659
306,62	0,621
306,84	1,756
307,05	0,733
307,26	2,816
307,47	7,414
307,68	4,324
307,89	2,466
308,11	5,048
308,32	1,725
308,53	2,330
308,74	1,870
308,95	3,848
309,16	7,386
309,37	6,887
309,59	1,586
309,80	4,799
310,01	3,135
310,22	6,540
310,43	-0,072
310,64	5,943
310,85	7,420
311,06	2,719
311,28	4,198
311,49	3,170
311,70	7,083
311,91	2,452
312,12	1,586
312,33	3,465
312,54	6,275
312,75	4,127
312,97	1,458
313,18	6,511
313,39	2,531
313,60	2,230
313,81	3,029
314,02	4,575
314,23	6,140
314,44	1,252
314,65	4,374
314,87	2,356
315,08	2,943
315,29	3,701
315,50	3,584
315,71	6,452
315,92	6,984
316,13	4,577
316,34	5,745
316,55	7,355
316,77	-0,506
316,98	2,211
317,19	2,851
317,40	7,097
317,61	6,522
317,82	3,666
318,03	3,703
318,24	2,905
318,45	6,850
318,66	2,502
318,87	1,709
319,09	5,264
319,30	5,333
319,51	5,480
319,72	4,308
319,93	5,111
320,14	5,078
320,35	6,049
320,56	1,513
320,77	2,865
320,98	8,954
321,19	3,550
321,40	2,638
321,62	6,376
321,83	2,221
322,04	3,831
322,25	5,690
322,46	8,213
322,67	5,357
322,88	5,912
323,09	2,844
323,30	8,212
323,51	8,455
323,72	7,385
323,93	0,331
324,14	3,206
324,35	-0,052
324,56	1,642
324,77	3,645
324,99	3,844
325,20	-0,406
325,41	2,704
325,62	2,636
325,83	1,309
326,04	3,162
326,25	7,465
326,46	0,516
326,67	6,446
326,88	4,585
327,09	0,957
327,30	1,507
327,51	6,394
327,72	5,222
327,93	6,815
328,14	0,076
328,35	3,854
328,56	5,352
328,77	3,452
328,98	4,789
329,19	3,205
329,40	6,411
329,61	3,629
329,82	0,696
330,04	3,953
330,25	5,019
330,46	6,465
330,67	1,474
330,88	3,808
331,09	3,494
331,30	3,766
331,51	3,519
331,72	5,838
331,93	6,305
332,14	2,365
332,35	5,060
332,56	5,482
332,77	4,522
332,98	-0,658
333,19	1,471
333,40	7,403
333,61	4,761
333,82	5,049
334,03	3,682
334,24	5,968
334,45	5,147
334,66	6,909
334,87	2,677
335,08	1,536
335,29	-0,134
335,50	1,954
335,71	2,280
335,92	4,496
336,13	6,755
336,34	4,778
336,55	6,097
336,76	8,038
336,97	5,103
337,18	-0,397
337,39	1,488
337,60	5,016
337,81	3,803
338,02	2,436
338,23	4,168
338,44	4,595
338,65	4,529
338,86	3,859
339,07	1,676
339,28	5,788
339,49	2,375
339,70	2,069
339,91	5,961
340,11	8,111
340,32	1,546
340,53	1,982
340,74	-0,135
340,95	-0,056
341,16	5,040
341,37	1,249
341,58	1,494
341,79	3,185
342,00	1,628
342,21	2,674
342,42	2,992
342,63	5,040
342,84	0,791
343,05	4,473
343,26	6,242
343,47	5,053
343,68	0,648
343,89	3,316
344,10	5,818
344,31	8,618
344,52	3,035
344,73	2,410
344,94	1,830
345,14	4,659
345,35	6,340
345,56	4,971
345,77	4,432
345,98	2,962
346,19	4,841
346,40	3,494
346,61	4,596
346,82	3,885
347,03	5,151
347,24	7,683
347,45	1,623
347,66	6,595
347,87	3,311
348,08	6,877
348,28	-0,258
348,49	5,145
348,70	4,864
348,91	4,691
349,12	0,741
349,33	16,850
349,54	3,256
349,75	3,835
349,96	5,870
350,17	2,658
350,38	0,788
350,59	8,545
350,80	2,394
351,00	5,615
351,21	9,906
351,42	1,931
351,63	-1,015
351,84	3,965
352,05	7,883
352,26	2,661
352,47	4,525
352,68	7,063
352,89	6,051
353,09	4,162
353,30	0,872
353,51	2,126
353,72	6,126
353,93	7,363
354,14	0,615
354,35	4,506
354,56	7,411
354,77	4,146
354,98	-1,616
355,18	5,024
355,39	7,650
355,60	1,154
355,81	3,050
356,02	4,692
356,23	6,865
356,44	3,117
356,65	5,202
356,85	9,414
357,06	5,270
357,27	4,109
357,48	0,239
357,69	4,508
357,90	6,856
358,11	0,057
358,32	3,877
358,52	9,509
358,73	5,346
358,94	0,508
359,15	3,579
359,36	3,965
359,57	2,669
359,78	5,994
359,98	4,202
360,19	1,505
360,40	5,963
360,61	7,559
360,82	3,579
361,03	9,429
361,24	6,121
361,44	0,967
361,65	5,206
361,86	2,578
362,07	3,934
362,28	2,559
362,49	-0,488
362,70	5,716
362,90	6,414
363,11	2,520
363,32	1,848
363,53	3,899
363,74	7,075
363,95	4,692
364,15	5,450
364,36	7,860
364,57	6,539
364,78	4,249
364,99	3,867
365,20	5,925
365,40	5,958
365,61	1,242
365,82	7,685
366,03	5,830
366,24	4,192
366,45	6,207
366,65	4,352
366,86	4,873
367,07	4,876
367,28	2,023
367,49	2,879
367,69	9,622
367,90	3,085
368,11	4,582
368,32	1,541
368,53	6,330
368,73	5,335
368,94	3,839
369,15	1,462
369,36	6,316
369,57	3,734
369,78	1,716
369,98	6,750
370,19	8,467
370,40	4,994
370,61	4,132
370,82	1,488
371,02	8,296
371,23	6,921
371,44	3,945
371,65	5,931
371,85	4,134
372,06	6,186
372,27	2,647
372,48	5,083
372,69	5,754
372,89	5,440
373,10	2,063
373,31	4,789
373,52	3,924
373,73	9,909
373,93	3,481
374,14	2,912
374,35	4,181
374,56	6,935
374,76	6,514
374,97	1,251
375,18	5,813
375,39	3,619
375,60	8,447
375,80	6,404
376,01	5,021
376,22	4,053
376,43	5,689
376,63	4,591
376,84	6,157
377,05	5,654
377,26	-0,513
377,46	0,251
377,67	6,189
377,88	5,641
378,09	4,570
378,29	-0,847
378,50	4,892
378,71	7,491
378,92	3,228
379,12	0,913
379,33	3,602
379,54	4,233
379,75	8,845
379,95	2,733
380,16	7,225
380,37	7,664
380,58	5,775
380,78	8,003
380,99	2,062
381,20	1,384
381,41	3,846
381,61	5,743
381,82	4,235
382,03	6,047
382,24	6,151
382,44	7,189
382,65	4,471
382,86	6,363
383,06	2,485
383,27	4,823
383,48	4,047
383,69	6,509
383,89	5,616
384,10	3,544
384,31	3,848
384,51	7,114
384,72	7,108
384,93	3,353
385,14	3,474
385,34	6,736
385,55	3,108
385,76	3,271
385,96	4,535
386,17	5,874
386,38	5,685
386,59	8,205
386,79	4,820
387,00	7,737
387,21	7,175
387,41	8,076
387,62	2,014
387,83	10,502
388,03	5,947
388,24	2,364
388,45	6,323
388,66	5,547
388,86	5,838
389,07	3,112
389,28	9,567
389,48	4,876
389,69	4,868
389,90	1,474
390,10	8,306
390,31	8,081
390,52	-3,520
390,72	1,402
390,93	4,275
391,14	4,963
391,34	4,227
391,55	6,135
391,76	8,168
391,96	4,323
392,17	2,524
392,38	4,930
392,58	5,315
392,79	7,501
393,00	0,032
393,20	1,647
393,41	8,519
393,62	5,174
393,82	8,164
394,03	3,470
394,24	4,151
394,44	8,537
394,65	7,428
394,86	1,771
395,06	6,268
395,27	1,144
395,48	2,191
395,68	2,923
395,89	4,910
396,10	8,351
396,30	3,102
396,51	2,924
396,72	5,689
396,92	0,235
397,13	5,811
397,34	2,264
397,54	8,845
397,75	4,505
397,95	1,596
398,16	4,425
398,37	5,326
398,57	4,256
398,78	4,285
398,99	7,745
399,19	5,178
399,40	9,270
399,60	4,567
399,81	3,429
400,02	5,760
400,22	5,188
400,43	0,464
400,64	5,525
400,84	4,673
401,05	4,861
401,25	7,560
401,46	3,898
401,67	4,550
401,87	4,214
402,08	-0,001
402,29	4,120
402,49	7,832
402,70	6,619
402,90	1,641
403,11	3,797
403,32	4,541
403,52	1,484
403,73	6,888
403,93	6,444
404,14	7,796
404,35	6,140
404,55	0,829
404,76	1,849
404,96	7,990
405,17	8,354
405,38	9,081
405,58	2,024
405,79	5,182
405,99	6,467
406,20	2,530
406,40	-1,655
406,61	7,952
406,82	7,588
407,02	6,019
407,23	2,350
407,43	2,635
407,64	0,107
407,85	3,622
408,05	-1,652
408,26	12,172
408,46	7,283
408,67	3,169
408,87	4,204
409,08	4,261
409,29	8,803
409,49	4,161
409,70	4,432
409,90	7,383
410,11	2,843
410,31	9,765
410,52	1,638
410,72	4,716
410,93	5,240
411,14	5,429
411,34	-1,400
411,55	7,008
411,75	8,492
411,96	4,496
412,16	8,745
412,37	3,295
412,57	3,426
412,78	4,363
412,99	2,927
413,19	6,534
413,40	2,373
413,60	1,820
413,81	0,243
414,01	2,464
414,22	1,203
414,42	2,928
414,63	0,414
414,83	7,408
415,04	9,474
415,24	6,431
415,45	2,298
415,65	1,136
415,86	4,291
416,07	4,469
416,27	6,054
416,48	9,885
416,68	6,441
416,89	-0,331
417,09	-1,188
417,30	7,542
417,50	1,942
417,71	5,510
417,91	4,321
418,12	2,898
418,32	3,476
418,53	5,065
418,73	3,650
418,94	3,669
419,14	5,427
419,35	0,506
419,55	3,823
419,76	3,969
419,96	2,106
420,17	-0,139
420,37	2,338
420,58	5,775
420,78	2,581
420,99	4,369
421,19	4,740
421,40	5,575
421,60	8,488
421,81	2,617
422,01	3,628
422,22	4,049
422,42	5,042
422,63	3,601
422,83	5,613
423,04	5,275
423,24	11,152
423,45	0,107
423,65	6,104
423,86	14,740
424,06	8,524
424,27	3,727
424,47	0,260
424,67	3,087
424,88	5,363
425,08	6,211
425,29	9,672
425,49	2,052
425,70	-2,240
425,90	8,941
426,11	2,948
426,31	7,314
426,52	4,042
426,72	4,433
426,93	0,690
427,13	8,162
427,33	3,630
427,54	5,140
427,74	9,714
427,95	11,249
428,15	1,995
428,36	4,133
428,56	2,034
428,77	6,924
428,97	6,623
429,18	4,778
429,38	1,612
429,58	5,793
429,79	9,109
429,99	1,174
430,20	-0,968
430,40	6,341
430,61	2,106
430,81	2,181
431,01	8,937
431,22	10,312
431,42	9,771
431,63	2,928
431,83	3,826
432,04	5,370
432,24	6,319
432,44	1,978
432,65	-0,244
432,85	2,349
433,06	8,868
433,26	5,425
433,47	7,333
433,67	7,597
433,87	5,518
434,08	1,079
434,28	3,916
434,49	6,786
434,69	6,310
434,89	3,632
435,10	2,976
435,30	9,473
435,51	3,308
435,71	4,727
435,91	0,397
436,12	3,560
436,32	3,047
436,53	6,551
436,73	3,583
436,93	7,860
437,14	6,145
437,34	3,805
437,55	2,701
437,75	7,080
437,95	9,741
438,16	2,705
438,36	4,246
438,57	1,383
438,77	5,830
438,97	4,828
439,18	9,064
439,38	5,985
439,58	2,248
439,79	3,433
439,99	0,353
440,20	7,798
440,40	6,801
440,60	1,952
440,81	4,923
441,01	6,138
441,21	6,956
441,42	5,633
441,62	5,550
441,83	7,639
442,03	6,356
442,23	7,137
442,44	5,799
442,64	8,516
442,84	6,863
443,05	2,371
443,25	4,593
443,45	-3,067
443,66	4,784
443,86	2,317
444,06	3,180
444,27	5,105
444,47	2,653
444,67	0,603
444,88	6,349
445,08	7,008
445,28	4,347
445,49	2,055
445,69	2,547
445,90	8,903
446,10	5,714
446,30	4,400
446,51	3,058
446,71	6,787
446,91	11,976
447,12	10,205
447,32	2,342
447,52	7,225
447,72	6,337
447,93	5,317
448,13	-1,020
448,33	13,185
448,54	7,816
448,74	1,883
448,94	6,981
449,15	14,528
449,35	11,967
449,55	5,861
449,76	7,112
449,96	4,971
450,16	8,902
450,37	2,098
450,57	7,783
450,77	2,978
450,98	4,457
451,18	7,706
451,38	5,484
451,58	10,353
451,79	9,371
451,99	9,919
452,19	9,572
452,40	10,878
452,60	1,260
452,80	6,124
453,00	6,629
453,21	10,257
453,41	9,250
453,61	4,517
453,82	10,600
454,02	5,494
454,22	13,076
454,42	6,468
454,63	5,815
454,83	5,915
455,03	16,897
455,24	8,150
455,44	4,216
455,64	7,437
455,84	7,714
456,05	3,878
456,25	4,570
456,45	9,736
456,65	6,364
456,86	10,228
457,06	10,995
457,26	17,955
457,47	14,477
457,67	7,641
457,87	5,012
458,07	10,994
458,28	13,114
458,48	12,463
458,68	1,853
458,88	11,065
459,09	11,232
459,29	14,638
459,49	9,867
459,69	11,516
459,90	16,278
460,10	11,401
460,30	12,958
460,50	9,893
460,71	13,781
460,91	4,384
461,11	10,487
461,31	7,153
461,52	19,385
461,72	7,043
461,92	10,003
462,12	16,001
462,32	9,247
462,53	8,813
462,73	5,268
462,93	13,154
463,13	14,669
463,34	10,460
463,54	12,959
463,74	12,104
463,94	12,728
464,14	10,025
464,35	8,825
464,55	18,046
464,75	16,219
464,95	15,941
465,16	3,408
465,36	15,661
465,56	13,234
465,76	10,775
465,96	11,148
466,17	14,560
466,37	9,281
466,57	14,923
466,77	16,739
466,97	10,446
467,18	19,550
467,38	17,363
467,58	17,126
467,78	18,557
467,98	19,999
468,19	17,523
468,39	16,395
468,59	18,726
468,79	16,526
468,99	13,237
469,19	13,964
469,40	18,181
469,60	17,869
469,80	15,671
470,00	21,960
470,20	19,500
470,41	18,770
470,61	18,593
470,81	20,296
471,01	15,578
471,21	18,784
471,41	17,355
471,62	14,259
471,82	15,619
472,02	18,916
472,22	17,209
472,42	22,187
472,62	19,711
472,83	19,316
473,03	20,041
473,23	20,663
473,43	24,459
473,63	21,022
473,83	19,557
474,03	17,443
474,24	24,563
474,44	18,647
474,64	20,438
474,84	18,378
475,04	22,317
475,24	24,912
475,45	23,802
475,65	18,538
475,85	28,311
476,05	18,561
476,25	23,221
476,45	27,072
476,65	30,471
476,85	25,277
477,06	24,962
477,26	23,200
477,46	26,071
477,66	25,734
477,86	29,505
478,06	24,394
478,26	31,659
478,46	26,695
478,67	26,707
478,87	25,988
479,07	29,143
479,27	30,675
479,47	27,774
479,67	22,779
479,87	24,628
480,07	31,327
480,28	29,638
480,48	27,671
480,68	29,429
480,88	36,929
481,08	31,053
481,28	30,052
481,48	32,206
481,68	29,321
481,88	29,393
482,08	30,874
482,29	34,681
482,49	28,633
482,69	31,452
482,89	31,169
483,09	35,521
483,29	33,389
483,49	29,488
483,69	35,159
483,89	32,107
484,09	31,469
484,29	29,154
484,50	33,714
484,70	32,124
484,90	32,715
485,10	31,176
485,30	35,312
485,50	36,596
485,70	34,607
485,90	33,899
486,10	30,000
486,30	34,010
486,50	38,635
486,70	33,568
486,90	35,459
487,10	38,936
487,30	36,931
487,51	37,494
487,71	33,694
487,91	37,270
488,11	38,961
488,31	34,550
488,51	39,409
488,71	38,562
488,91	37,857
489,11	35,716
489,31	36,750
489,51	38,727
489,71	39,609
489,91	38,176
490,11	36,447
490,31	38,970
490,51	38,911
490,71	41,581
490,91	38,805
491,11	39,305
491,31	40,653
491,51	37,940
491,72	42,696
491,92	41,771
492,12	47,255
492,32	45,082
492,52	45,381
492,72	43,326
492,92	43,941
493,12	44,874
493,32	39,833
493,52	40,552
493,72	44,870
493,92	46,025
494,12	44,503
494,32	45,253
494,52	43,888
494,72	42,946
494,92	44,651
495,12	46,009
495,32	50,617
495,52	44,959
495,72	47,174
495,92	50,156
496,12	48,534
496,32	45,620
496,52	46,849
496,72	47,664
496,92	51,056
497,12	46,782
497,32	48,856
497,52	50,209
497,72	51,497
497,92	47,939
498,12	49,468
498,32	50,830
498,52	50,843
498,72	48,238
498,92	46,523
499,12	52,732
499,32	50,316
499,52	51,108
499,72	52,737
499,92	52,481
500,12	53,173
500,32	52,332
500,52	51,823
500,72	56,050
500,91	55,741
501,11	53,170
501,31	47,205
501,51	56,551
501,71	58,454
501,91	52,452
502,11	52,742
502,31	52,479
502,51	57,655
502,71	55,505
502,91	51,565
503,11	56,648
503,31	55,041
503,51	50,451
503,71	52,962
503,91	58,164
504,11	57,361
504,31	53,946
504,51	55,467
504,71	63,627
504,91	57,194
505,10	56,455
505,30	56,974
505,50	55,516
505,70	54,912
505,90	54,441
506,10	52,601
506,30	54,594
506,50	57,117
506,70	57,961
506,90	54,187
507,10	57,345
507,30	57,686
507,50	59,809
507,70	57,412
507,89	57,200
508,09	55,739
508,29	54,746
508,49	58,644
508,69	56,860
508,89	56,078
509,09	55,294
509,29	58,377
509,49	56,970
509,69	63,068
509,89	58,558
510,09	55,797
510,28	58,901
510,48	57,731
510,68	57,806
510,88	58,764
511,08	59,436
511,28	58,771
511,48	57,904
511,68	57,730
511,88	55,774
512,07	57,830
512,27	59,669
512,47	57,637
512,67	59,069
512,87	56,393
513,07	58,314
513,27	57,285
513,47	58,430
513,67	54,185
513,86	57,540
514,06	57,092
514,26	57,855
514,46	61,506
514,66	59,551
514,86	59,339
515,06	63,799
515,26	63,912
515,45	57,519
515,65	58,039
515,85	59,112
516,05	57,955
516,25	60,742
516,45	61,222
516,65	56,610
516,84	60,828
517,04	62,157
517,24	60,434
517,44	60,736
517,64	63,090
517,84	64,880
518,04	61,218
518,23	62,546
518,43	62,901
518,63	57,337
518,83	57,301
519,03	61,189
519,23	62,973
519,42	61,648
519,62	57,397
519,82	61,168
520,02	60,213
520,22	61,498
520,42	58,400
520,61	63,276
520,81	60,293
521,01	63,101
521,21	57,966
521,41	61,771
521,61	64,212
521,80	58,398
522,00	58,523
522,20	60,768
522,40	60,332
522,60	60,132
522,79	60,608
522,99	61,953
523,19	59,173
523,39	60,466
523,59	60,548
523,78	62,087
523,98	61,259
524,18	58,238
524,38	58,263
524,58	61,029
524,77	63,655
524,97	59,773
525,17	57,402
525,37	58,545
525,57	64,381
525,76	59,135
525,96	60,985
526,16	59,686
526,36	59,853
526,56	58,306
526,75	60,934
526,95	61,616
527,15	57,623
527,35	61,381
527,55	59,738
527,74	60,747
527,94	58,039
528,14	59,622
528,34	59,804
528,53	60,401
528,73	60,767
528,93	61,945
529,13	58,887
529,32	60,289
529,52	60,494
529,72	57,833
529,92	60,054
530,12	59,349
530,31	57,629
530,51	61,911
530,71	60,096
530,91	61,968
531,10	55,535
531,30	58,882
531,50	58,742
531,70	64,443
531,89	59,710
532,09	58,017
532,29	57,653
532,49	59,165
532,68	57,771
532,88	56,315
533,08	58,861
533,28	61,464
533,47	59,711
533,67	57,541
533,87	58,094
534,06	63,167
534,26	59,170
534,46	57,847
534,66	59,672
534,85	60,305
535,05	56,619
535,25	56,790
535,45	57,432
535,64	61,500
535,84	58,994
536,04	57,818
536,23	58,538
536,43	62,186
536,63	58,899
536,83	58,885
537,02	58,500
537,22	58,056
537,42	56,280
537,61	54,921
537,81	59,016
538,01	57,302
538,20	58,074
538,40	56,339
538,60	54,923
538,80	53,356
538,99	55,845
539,19	53,046
539,39	52,308
539,58	51,792
539,78	49,270
539,98	48,360
540,17	46,913
540,37	49,982
540,57	46,050
540,76	46,592
540,96	44,553
541,16	48,347
541,36	44,009
541,55	42,748
541,75	42,143
541,95	44,466
542,14	43,214
542,34	42,307
542,54	39,564
542,73	44,082
542,93	42,328
543,13	41,191
543,32	40,480
543,52	41,420
543,72	40,677
543,91	41,199
544,11	40,920
544,31	42,637
544,50	41,969
544,70	42,350
544,89	42,702
545,09	44,939
545,29	44,967
545,48	44,489
545,68	42,340
545,88	44,288
546,07	46,292
546,27	45,343
546,47	46,962
546,66	47,299
546,86	49,691
547,06	48,216
547,25	47,837
547,45	51,522
547,64	50,219
547,84	54,171
548,04	50,611
548,23	54,561
548,43	53,400
548,63	55,526
548,82	53,986
549,02	52,489
549,21	51,598
549,41	53,930
549,61	55,407
549,80	53,324
550,00	54,623
550,20	51,205
550,39	53,800
550,59	53,672
550,78	56,809
550,98	53,146
551,18	56,253
551,37	57,583
551,57	55,229
551,76	55,359
551,96	53,458
552,16	55,834
552,35	56,290
552,55	56,482
552,74	54,287
552,94	60,150
553,14	54,650
553,33	57,895
553,53	54,224
553,72	57,495
553,92	61,053
554,12	55,740
554,31	59,039
554,51	56,875
554,70	55,389
554,90	57,493
555,09	60,831
555,29	59,357
555,49	57,349
555,68	61,097
555,88	55,509
556,07	59,695
556,27	62,445
556,46	56,596
556,66	56,675
556,86	62,751
557,05	59,871
557,25	55,409
557,44	56,661
557,64	58,527
557,83	58,842
558,03	56,284
558,22	57,248
558,42	56,984
558,62	61,291
558,81	56,327
559,01	56,990
559,20	59,161
559,40	57,302
559,59	55,605
559,79	56,877
559,98	59,458
560,18	60,374
560,37	60,210
560,57	56,925
560,76	55,888
560,96	58,029
561,16	56,922
561,35	60,269
561,55	61,238
561,74	56,418
561,94	59,601
562,13	58,525
562,33	61,002
562,52	59,747
562,72	58,239
562,91	55,946
563,11	59,728
563,30	63,789
563,50	58,459
563,69	57,561
563,89	57,830
564,08	59,039
564,28	57,451
564,47	58,181
564,67	58,038
564,86	56,819
565,06	56,527
565,25	60,856
565,45	56,433
565,64	62,520
565,84	57,774
566,03	56,278
566,23	59,897
566,42	58,080
566,62	56,589
566,81	58,021
567,01	59,260
567,20	61,799
567,40	56,500
567,59	55,783
567,79	60,671
567,98	60,495
568,18	60,909
568,37	60,417
568,57	60,847
568,76	60,756
568,96	58,856
569,15	56,904
569,35	60,628
569,54	63,447
569,73	61,268
569,93	57,342
570,12	59,891
570,32	62,683
570,51	59,673
570,71	60,790
570,90	61,540
571,10	58,346
571,29	58,254
571,49	58,374
571,68	60,083
571,87	60,961
572,07	59,471
572,26	56,694
572,46	58,827
572,65	59,427
572,85	56,957
573,04	57,862
573,24	59,788
573,43	61,949
573,62	60,718
573,82	57,897
574,01	59,548
574,21	60,209
574,40	58,863
574,60	55,740
574,79	60,957
574,98	57,827
575,18	58,205
575,37	56,790
575,57	56,327
575,76	59,566
575,96	59,707
576,15	57,669
576,34	58,220
576,54	60,298
576,73	60,220
576,93	57,871
577,12	58,962
577,31	59,334
577,51	57,244
577,70	58,983
577,90	59,417
578,09	58,438
578,28	56,565
578,48	57,899
578,67	60,694
578,87	58,472
579,06	57,024
579,25	57,673
579,45	59,095
579,64	57,818
579,84	57,338
580,03	56,863
580,22	59,970
580,42	56,378
580,61	59,116
580,81	56,076
581,00	58,235
581,19	60,344
581,39	56,817
581,58	58,486
581,77	56,929
581,97	60,624
582,16	54,833
582,35	57,931
582,55	58,238
582,74	59,930
582,94	58,753
583,13	56,166
583,32	57,942
583,52	58,305
583,71	56,880
583,90	58,768
584,10	58,995
584,29	58,220
584,48	57,875
584,68	56,959
584,87	59,621
585,06	57,279
585,26	56,856
585,45	56,251
585,65	60,512
585,84	56,933
586,03	57,562
586,23	55,442
586,42	57,393
586,61	58,894
586,81	57,681
587,00	58,713
587,19	55,756
587,39	57,771
587,58	57,090
587,77	56,644
587,97	56,798
588,16	56,553
588,35	57,249
588,54	56,483
588,74	56,991
588,93	59,208
589,12	57,338
589,32	55,648
589,51	57,860
589,70	56,129
589,90	56,689
590,09	57,003
590,28	62,017
590,48	56,670
590,67	58,423
590,86	58,442
591,06	56,858
591,25	59,028
591,44	60,299
591,63	57,564
591,83	60,942
592,02	59,044
592,21	57,102
592,41	55,575
592,60	59,963
592,79	57,275
592,98	58,209
593,18	58,363
593,37	58,740
593,56	58,709
593,76	60,685
593,95	58,561
594,14	58,104
594,33	62,406
594,53	59,504
594,72	58,760
594,91	62,945
595,10	59,703
595,30	58,416
595,49	58,517
595,68	63,115
595,88	61,051
596,07	62,066
596,26	60,316
596,45	61,011
596,65	59,113
596,84	58,353
597,03	58,721
597,22	61,415
597,42	62,694
597,61	59,620
597,80	60,951
597,99	59,278
598,19	60,999
598,38	62,045
598,57	60,367
598,76	62,381
598,95	60,428
599,15	62,342
599,34	61,020
599,53	58,554
599,72	61,335
599,92	60,901
600,11	60,668
600,30	60,602
600,49	61,948
600,69	58,737
600,88	61,504
601,07	62,170
601,26	60,159
601,45	60,700
601,65	60,993
601,84	62,210
602,03	62,034
602,22	61,863
602,42	63,905
602,61	60,031
602,80	62,564
602,99	61,163
603,18	59,545
603,38	60,592
603,57	58,538
603,76	60,270
603,95	60,535
604,14	61,214
604,34	61,317
604,53	60,535
604,72	61,397
604,91	63,672
605,10	63,105
605,29	62,660
605,49	60,932
605,68	60,681
605,87	61,289
606,06	60,348
606,25	59,382
606,45	61,758
606,64	61,976
606,83	61,058
607,02	57,340
607,21	60,822
607,40	60,207
607,60	56,010
607,79	57,525
607,98	57,246
608,17	54,932
608,36	56,858
608,55	56,007
608,75	56,300
608,94	55,628
609,13	51,283
609,32	48,407
609,51	50,573
609,70	48,586
609,89	50,861
610,09	49,477
610,28	50,453
610,47	50,073
610,66	49,192
610,85	47,126
611,04	51,424
611,23	49,024
611,43	48,317
611,62	49,866
611,81	49,075
612,00	50,487
612,19	47,502
612,38	49,570
612,57	52,029
612,77	50,045
612,96	50,510
613,15	51,672
613,34	54,417
613,53	54,697
613,72	55,985
613,91	55,468
614,10	54,597
614,29	57,606
614,49	54,132
614,68	55,580
614,87	57,540
615,06	58,624
615,25	55,149
615,44	58,226
615,63	57,177
615,82	58,150
616,01	56,180
616,21	56,236
616,40	58,915
616,59	59,480
616,78	57,273
616,97	58,173
617,16	58,278
617,35	61,049
617,54	58,852
617,73	59,189
617,92	59,518
618,11	61,256
618,31	57,560
618,50	59,563
618,69	59,121
618,88	57,209
619,07	57,045
619,26	56,876
619,45	58,486
619,64	57,676
619,83	55,679
620,02	55,970
620,21	59,641
620,40	59,025
620,59	57,225
620,78	55,476
620,97	60,015
621,17	59,864
621,36	57,265
621,55	58,442
621,74	58,690
621,93	58,528
622,12	57,228
622,31	56,845
622,50	57,328
622,69	60,490
622,88	58,654
623,07	60,463
623,26	59,901
623,45	62,535
623,64	58,131
623,83	56,824
624,02	60,249
624,21	61,542
624,40	59,638
624,59	57,556
624,78	59,178
624,97	63,124
625,16	56,618
625,35	54,303
625,54	58,496
625,73	58,816
625,92	59,625
626,12	57,347
626,31	59,367
626,50	58,673
626,69	59,586
626,88	55,768
627,07	59,328
627,26	60,587
627,45	57,787
627,64	59,143
627,83	58,274
628,02	58,580
628,21	56,966
628,40	57,804
628,59	59,261
628,78	56,248
628,97	58,962
629,16	57,933
629,35	58,458
629,54	62,192
629,73	56,441
629,92	54,583
630,10	58,917
630,29	59,606
630,48	57,838
630,67	56,812
630,86	59,675
631,05	59,212
631,24	58,588
631,43	58,288
631,62	56,602
631,81	57,710
632,00	58,361
632,19	56,189
632,38	58,029
632,57	55,294
632,76	58,840
632,95	58,496
633,14	60,883
633,33	58,258
633,52	58,074
633,71	58,677
633,90	56,936
634,09	58,668
634,28	57,776
634,47	58,473
634,66	60,424
634,85	59,627
635,04	62,712
635,22	58,713
635,41	59,875
635,60	63,683
635,79	60,938
635,98	56,394
636,17	60,053
636,36	59,119
636,55	57,296
636,74	57,563
636,93	58,649
637,12	60,499
637,31	60,047
637,50	56,705
637,69	61,027
637,87	60,033
638,06	60,858
638,25	58,871
638,44	60,391
638,63	54,976
638,82	58,265
639,01	58,798
639,20	59,057
639,39	59,793
639,58	56,977
639,77	61,843
639,95	58,384
640,14	59,472
640,33	57,029
640,52	60,349
640,71	60,282
640,90	59,319
641,09	62,473
641,28	58,387
641,47	59,968
641,66	59,066
641,84	58,638
642,03	58,687
642,22	59,495
642,41	61,439
642,60	59,019
642,79	60,155
642,98	61,126
643,17	58,907
643,35	56,749
643,54	58,125
643,73	59,937
643,92	60,875
644,11	57,522
644,30	57,143
644,49	60,463
644,67	57,882
644,86	57,476
645,05	60,939
645,24	57,984
645,43	57,615
645,62	60,590
645,81	59,023
645,99	61,035
646,18	60,272
646,37	56,960
646,56	57,768
646,75	60,241
646,94	61,560
647,13	58,461
647,31	58,484
647,50	59,752
647,69	61,106
647,88	58,960
648,07	59,754
648,26	62,996
648,44	58,818
648,63	56,731
648,82	59,875
649,01	62,467
649,20	57,400
649,38	59,537
649,57	58,233
649,76	57,522
649,95	59,470
650,14	55,616
650,33	57,126
650,51	58,800
650,70	62,042
650,89	58,883
651,08	58,434
651,27	60,642
651,45	57,902
651,64	55,862
651,83	59,682
652,02	57,846
652,21	58,785
652,39	58,638
652,58	59,492
652,77	58,898
652,96	59,800
653,15	59,799
653,33	59,451
653,52	59,993
653,71	63,309
653,90	62,240
654,09	59,013
654,27	61,262
654,46	63,635
654,65	61,318
654,84	59,954
655,02	63,474
655,21	61,658
655,40	62,457
655,59	61,716
655,77	62,264
655,96	61,228
656,15	62,049
656,34	62,250
656,53	61,594
656,71	61,480
656,90	61,673
657,09	63,476
657,28	62,423
657,46	59,924
657,65	61,235
657,84	58,257
658,03	60,467
658,21	58,934
658,40	59,128
658,59	59,250
658,78	59,591
658,96	59,057
659,15	58,853
659,34	57,743
659,52	58,781
659,71	60,356
659,90	59,042
660,09	59,459
660,27	60,375
660,46	61,461
660,65	58,466
660,84	57,265
661,02	59,934
661,21	60,626
661,40	58,368
661,58	59,364
661,77	59,346
661,96	56,107
662,15	56,694
662,33	57,916
662,52	58,224
662,71	57,827
662,89	55,762
663,08	58,353
663,27	59,058
663,45	57,632
663,64	57,842
663,83	55,396
664,02	58,931
664,20	57,954
664,39	56,990
664,58	58,804
664,76	58,122
664,95	58,408
665,14	58,608
665,32	56,571
665,51	59,072
665,70	61,028
665,88	59,391
666,07	59,032
666,26	61,277
666,44	61,022
666,63	59,275
666,82	56,811
667,00	59,007
667,19	56,944
667,38	59,636
667,56	59,191
667,75	58,752
667,94	57,313
668,12	57,165
668,31	57,617
668,50	57,354
668,68	59,244
668,87	58,311
669,06	58,355
669,24	59,801
669,43	56,568
669,62	55,793
669,80	54,757
669,99	58,215
670,18	59,564
670,36	56,330
670,55	59,458
670,74	55,966
670,92	56,040
671,11	59,686
671,29	56,579
671,48	58,048
671,67	59,365
671,85	58,865
672,04	57,720
672,23	57,362
672,41	57,282
672,60	57,227
672,78	57,014
672,97	58,911
673,16	59,794
673,34	57,419
673,53	57,196
673,71	59,149
673,90	58,890
674,09	58,329
674,27	55,984
674,46	56,584
674,64	58,840
674,83	57,128
675,02	55,906
675,20	57,119
675,39	55,779
675,57	58,451
675,76	57,424
675,95	58,353
676,13	61,230
676,32	59,350
676,50	59,858
676,69	58,205
676,88	60,030
677,06	57,536
677,25	57,239
677,43	62,849
677,62	59,707
677,80	57,589
677,99	56,740
678,18	58,781
678,36	60,092
678,55	56,227
678,73	57,168
678,92	58,858
679,10	60,889
679,29	57,683
679,48	57,836
679,66	58,718
679,85	57,766
680,03	58,027
680,22	57,470
680,40	57,109
680,59	57,837
680,77	56,844
680,96	58,879
681,15	58,706
681,33	61,639
681,52	56,195
681,70	57,770
681,89	60,898
682,07	60,152
682,26	57,930
682,44	57,962
682,63	58,219
682,81	59,495
683,00	57,796
683,18	57,765
683,37	59,456
683,55	56,505
683,74	59,634
683,92	63,343
684,11	59,202
684,29	58,441
684,48	55,936
684,67	57,529
684,85	59,569
685,04	58,387
685,22	58,891
685,41	57,207
685,59	58,285
685,78	57,572
685,96	56,463
686,15	57,439
686,33	56,665
686,52	59,778
686,70	57,887
686,89	58,929
687,07	58,524
687,26	60,424
687,44	56,973
687,62	55,640
687,81	58,314
687,99	58,984
688,18	58,471
688,36	56,877
688,55	60,940
688,73	58,744
688,92	56,813
689,10	57,340
689,29	58,386
689,47	58,744
689,66	58,196
689,84	56,687
690,03	60,724
690,21	59,100
690,40	57,930
690,58	56,539
690,76	54,718
690,95	59,594
691,13	58,070
691,32	58,487
691,50	58,475
691,69	58,167
691,87	57,682
692,06	57,494
692,24	56,603
692,43	59,440
692,61	56,651
692,79	56,725
692,98	55,672
693,16	59,786
693,35	57,209
693,53	58,609
693,72	59,512
693,90	59,678
694,08	55,747
694,27	56,915
694,45	60,200
694,64	60,646
694,82	57,869
695,01	56,713
695,19	59,460
695,37	58,235
695,56	57,652
695,74	57,823
695,93	58,459
696,11	58,654
696,29	58,216
696,48	57,605
696,66	60,901
696,85	58,780
697,03	56,815
697,21	60,062
697,40	58,955
697,58	59,107
697,77	56,969
697,95	58,468
698,13	62,146
698,32	58,410
698,50	58,214
698,69	56,016
698,87	56,914
699,05	58,222
699,24	56,076
699,42	58,118
699,60	54,659
699,79	56,343
699,97	58,058
700,16	55,598
700,34	58,694
700,52	57,858
700,71	58,003
700,89	56,437
701,07	58,440
701,26	58,236
701,44	55,548
701,63	56,319
701,81	56,936
701,99	60,902
702,18	55,637
702,36	55,599
702,54	58,864
702,73	57,275
702,91	56,547
703,09	57,197
703,28	57,589
703,46	57,741
703,64	57,398
703,83	56,598
704,01	58,097
704,19	56,906
704,38	53,991
704,56	55,975
704,74	58,322
704,93	57,782
705,11	58,357
705,29	58,253
705,48	62,065
705,66	57,372
705,84	56,653
706,03	53,920
706,21	57,005
706,39	58,539
706,58	56,987
706,76	55,996
706,94	57,388
707,12	58,558
707,31	54,589
707,49	54,777
707,67	56,249
707,86	59,439
708,04	57,847
708,22	56,246
708,41	57,940
708,59	56,940
708,77	53,977
708,95	58,004
709,14	60,034
709,32	58,003
709,50	55,313
709,69	54,615
709,87	57,153
710,05	55,731
710,23	55,397
710,42	52,750
710,60	57,946
710,78	59,132
710,97	56,439
711,15	58,597
711,33	57,972
711,51	56,155
711,70	56,289
711,88	55,366
712,06	58,476
712,24	57,956
712,43	55,454
712,61	58,310
712,79	56,789
712,97	55,789
713,16	59,196
713,34	56,432
713,52	57,597
713,70	59,048
713,89	56,394
714,07	56,213
714,25	55,559
714,43	58,721
714,62	56,866
714,80	56,205
714,98	54,812
715,16	57,497
715,35	55,345
715,53	55,380
715,71	58,375
715,89	58,216
716,07	57,477
716,26	60,663
716,44	58,896
716,62	59,019
716,80	57,115
716,99	57,190
717,17	59,093
717,35	56,812
717,53	56,110
717,71	55,775
717,90	56,530
718,08	57,476
718,26	54,821
718,44	57,670
718,62	61,104
718,81	57,721
718,99	56,695
719,17	56,282
719,35	56,533
719,53	58,595
719,72	55,807
719,90	56,652
720,08	57,797
720,26	61,521
720,44	57,214
720,62	55,476
720,81	59,168
720,99	59,624
721,17	56,676
721,35	57,048
721,53	57,284
721,72	59,716
721,90	55,682
722,08	56,426
722,26	58,378
722,44	58,611
722,62	54,746
722,81	54,511
722,99	56,564
723,17	56,620
723,35	56,003
723,53	56,931
723,71	59,773
723,89	58,593
724,08	55,729
724,26	57,355
724,44	57,535
724,62	58,015
724,80	58,179
724,98	56,049
725,16	58,752
725,35	56,153
725,53	55,972
725,71	56,840
725,89	57,830
726,07	60,836
726,25	61,427
726,43	55,577
726,61	57,218
726,80	59,071
726,98	54,261
727,16	56,086
727,34	57,629
727,52	56,900
727,70	54,325
727,88	58,201
728,06	53,900
728,25	57,746
728,43	57,829
728,61	57,271
728,79	56,106
728,97	56,817
729,15	56,163
729,33	56,666
729,51	60,185
729,69	58,121
729,87	59,802
730,06	56,802
730,24	57,905
730,42	61,475
730,60	57,042
730,78	59,323
730,96	56,096
731,14	63,579
731,32	57,345
731,50	53,830
731,68	58,027
731,86	58,747
732,04	56,422
732,22	57,198
732,41	61,043
732,59	58,971
732,77	59,717
732,95	60,386
733,13	59,632
733,31	56,811
733,49	56,504
733,67	56,801
733,85	57,931
734,03	57,558
734,21	56,447
734,39	56,343
734,57	59,327
734,75	57,186
734,93	55,036
735,11	56,963
735,29	55,319
735,47	60,092
735,65	56,432
735,84	55,219
736,02	57,100
736,20	60,874
736,38	57,459
736,56	56,023
736,74	58,144
736,92	56,799
737,10	57,515
737,28	58,598
737,46	57,868
737,64	57,047
737,82	57,309
738,00	58,125
738,18	57,762
738,36	58,801
738,54	55,528
738,72	53,687
738,90	56,649
739,08	57,892
739,26	52,416
739,44	55,740
739,62	58,622
739,80	59,339
739,98	56,933
740,16	57,537
740,34	57,563
740,52	58,587
740,70	57,077
740,88	55,852
741,06	55,539
741,24	57,634
741,42	57,637
741,60	56,958
741,78	59,022
741,96	57,207
742,14	56,854
742,32	54,982
742,50	57,896
742,68	57,927
742,86	55,838
743,04	54,219
743,21	57,872
743,39	58,817
743,57	57,436
743,75	55,058
743,93	56,299
744,11	53,692
744,29	55,853
744,47	57,979
744,65	56,901
744,83	55,738
745,01	56,177
745,19	56,141
745,37	58,141
745,55	59,939
745,73	58,302
745,91	54,317
746,09	57,058
746,27	55,365
746,45	52,165
746,62	54,973
746,80	58,248
746,98	57,428
747,16	54,916
747,34	57,272
747,52	54,302
747,70	55,965
747,88	57,883
748,06	56,604
748,24	58,465
748,42	57,661
748,60	57,204
748,78	55,157
748,95	58,717
749,13	61,193
749,31	55,569
749,49	56,298
749,67	58,761
749,85	58,675
750,03	56,876
750,21	57,243
750,39	57,365
750,57	57,893
750,74	58,124
750,92	55,619
751,10	58,141
751,28	56,659
751,46	56,010
751,64	58,258
751,82	58,863
752,00	57,798
752,17	56,417
752,35	55,300
752,53	55,794
752,71	57,758
752,89	57,861
753,07	55,049
753,25	57,354
753,43	55,448
753,60	58,671
753,78	55,210
753,96	58,799
754,14	57,913
754,32	57,472
754,50	57,062
754,68	58,818
754,85	56,211
755,03	57,011
755,21	57,315
755,39	60,440
755,57	58,237
755,75	55,856
755,92	54,445
756,10	57,143
756,28	60,257
756,46	55,151
756,64	58,535
756,82	58,749
756,99	58,520
757,17	56,190
757,35	54,549
757,53	59,580
757,71	60,525
757,89	56,920
758,06	56,142
758,24	58,552
758,42	57,260
758,60	55,325
758,78	58,995
758,95	58,596
759,13	58,729
759,31	56,981
759,49	55,979
759,67	58,464
759,84	57,698
760,02	57,584
760,20	57,706
760,38	56,335
760,56	55,649
760,73	59,215
760,91	59,644
761,09	59,939
761,27	58,681
761,45	55,755
761,62	56,936
761,80	57,381
761,98	58,486
762,16	55,851
762,33	56,296
762,51	60,190
762,69	55,819
762,87	55,716
763,05	59,307
763,22	55,664
763,40	57,375
763,58	55,502
763,76	57,682
763,93	58,245
764,11	59,231
764,29	54,879
764,47	58,389
764,64	59,011
764,82	59,932
765,00	56,689
765,18	52,771
765,35	56,228
765,53	59,577
765,71	56,171
765,89	55,750
766,06	55,445
766,24	55,316
766,42	58,665
766,60	54,706
766,77	56,528
766,95	57,146
767,13	58,273
767,30	57,610
767,48	57,199
767,66	56,236
767,84	56,026
768,01	55,501
768,19	58,723
768,37	57,929
768,54	55,799
768,72	57,028
768,90	57,583
769,08	57,251
769,25	57,700
769,43	54,806
769,61	55,065
769,78	57,996
769,96	56,030
770,14	57,315
770,31	58,980
770,49	59,374
770,67	57,420
770,85	55,524
771,02	56,758
771,20	55,961
771,38	56,782
771,55	56,286
771,73	56,186
771,91	56,437
772,08	61,498
772,26	57,310
772,44	55,256
772,61	55,025
772,79	53,519
772,97	56,970
773,14	54,858
773,32	57,839
773,50	55,634
773,67	55,276
773,85	61,416
774,03	60,469
774,20	60,730
774,38	57,884
774,56	56,592
774,73	56,300
774,91	56,739
775,09	57,704
775,26	59,091
775,44	57,952
775,61	57,127
775,79	56,237
775,97	58,808
776,14	57,408
776,32	56,524
776,50	55,624
776,67	56,475
776,85	55,954
777,03	55,317
777,20	58,571
777,38	59,194
777,55	57,237
777,73	55,188
777,91	57,914
778,08	59,745
778,26	58,106
778,43	59,231
778,61	52,567
778,79	55,415
778,96	56,763
779,14	56,834
779,32	55,447
779,49	58,169
779,67	60,034
779,84	56,824
780,02	57,146
780,20	55,340
780,37	60,067
780,55	56,722
780,72	58,448
780,90	58,404
781,07	57,210
781,25	58,901
781,43	56,676
781,60	57,695
781,78	58,884
781,95	57,429
782,13	58,003
782,30	58,875
782,48	60,307
782,66	54,972
782,83	55,207
783,01	63,159
783,18	58,377
783,36	57,907
783,53	60,148
783,71	55,682
783,89	57,246
784,06	59,925
784,24	58,650
784,41	60,352
784,59	56,205
784,76	58,775
784,94	58,561
785,11	57,629
785,29	57,019
785,46	59,878
785,64	57,127
785,82	58,247
785,99	61,366
786,17	59,076
786,34	58,033
786,52	57,533
786,69	60,141
786,87	55,724
787,04	56,835
787,22	56,846
787,39	60,300
787,57	61,790
787,74	57,465
787,92	60,604
788,09	61,724
788,27	56,236
788,44	56,099
788,62	61,678
788,79	57,699
788,97	59,634
789,14	56,603
789,32	60,101
789,49	60,378
789,67	59,041
789,84	60,417
790,02	59,668
790,19	56,961
790,37	59,516
790,54	59,946
790,72	60,459
790,89	62,526
791,07	59,845
791,24	58,791
791,42	59,436
791,59	62,009
791,77	59,076
791,94	56,844
792,12	58,440
792,29	60,242
792,47	58,587
792,64	59,807
792,81	62,734
792,99	56,316
793,16	56,456
793,34	59,232
793,51	59,256
793,69	61,514
793,86	60,381
794,04	61,316
794,21	63,235
794,39	56,287
794,56	61,817
794,73	58,285
794,91	63,239
795,08	58,983
795,26	57,053
795,43	58,649
795,61	62,484
795,78	57,661
795,95	61,355
796,13	61,185
796,30	62,954
796,48	55,921
796,65	59,605
796,83	62,233
797,00	61,968
797,17	60,474
797,35	58,647
797,52	60,573
797,70	63,225
797,87	60,030
798,04	59,820
798,22	61,028
798,39	62,051
798,57	62,504
798,74	58,516
798,91	56,794
799,09	56,221
799,26	61,204
799,44	56,810
799,61	60,199
799,78	58,455
799,96	60,068
800,13	58,258
800,31	58,250
800,48	65,779
800,65	61,254
800,83	58,215
801,00	57,767
801,17	58,628
801,35	62,927
801,52	57,787
801,70	61,324
801,87	56,429
802,04	63,534
802,22	57,221
802,39	56,681
802,56	65,128
802,74	62,035
802,91	58,623
803,08	57,653
803,26	63,517
803,43	64,033
803,61	58,878
803,78	62,735
803,95	62,312
804,13	64,191
804,30	60,567
804,47	61,322
804,65	62,795
804,82	63,855
804,99	62,205
805,17	59,283
805,34	68,162
805,51	64,641
805,69	60,119
805,86	54,428
806,03	65,898
806,21	65,403
806,38	59,452
806,55	58,853
806,72	65,978
806,90	64,100
807,07	60,474
807,24	58,549
807,42	57,139
807,59	63,357
807,76	53,751
807,94	61,534
808,11	64,638
808,28	66,000
808,45	59,324
808,63	62,368
808,80	67,162
808,97	59,840
809,15	56,098
809,32	63,710
809,49	56,352
809,67	59,729
809,84	64,343
810,01	63,437
810,18	71,299
810,36	64,001
810,53	60,488
810,70	59,873
810,87	62,413
811,05	62,186
811,22	63,591
811,39	58,918
811,57	65,022
811,74	63,476
811,91	58,870
812,08	58,998
812,26	62,794
812,43	59,425
812,60	59,109
812,77	59,038
812,95	68,068
813,12	65,740
813,29	57,436
813,46	61,926
813,64	65,640
813,81	61,768
813,98	59,674
814,15	62,077
814,32	65,637
814,50	64,000
814,67	65,303
814,84	58,344
815,01	62,895
815,19	57,172
815,36	54,785
815,53	61,350
815,70	56,878
815,87	65,947
816,05	55,589
816,22	63,567
816,39	70,857
816,56	69,893
816,74	66,861
816,91	57,071
817,08	66,895
817,25	67,657
817,42	62,328
817,60	64,970
817,77	60,333
817,94	63,251
818,11	58,355
818,28	62,218
818,45	66,048
818,63	61,325
818,80	63,580
818,97	59,957
819,14	64,733
819,31	70,997
819,49	67,654
819,66	60,349
819,83	63,203
820,00	67,116
820,17	62,036
820,34	65,440
820,52	67,741
820,69	66,979
820,86	59,458
821,03	62,987
821,20	70,793
821,37	67,976
821,55	60,143
821,72	59,434
821,89	69,085
822,06	70,369
822,23	59,538
822,40	60,147
822,57	70,086
822,75	75,060
822,92	60,198
823,09	58,327
823,26	65,211
823,43	67,856
823,60	60,956
823,77	62,936
823,94	69,598
824,12	72,891
824,29	62,637
824,46	58,335
824,63	73,830
824,80	68,577
824,97	59,501
825,14	59,933
825,31	67,289
825,49	66,573
825,66	61,902
825,83	62,972
826,00	67,828
826,17	73,282
826,34	60,783
826,51	59,110
826,68	61,876
826,85	65,004
827,02	61,800
827,20	58,575
827,37	68,690
827,54	60,747
827,71	70,381
827,88	62,929
828,05	69,135
828,22	68,934
828,39	68,113
828,56	64,781
828,73	66,478
828,90	62,094
829,07	65,887
829,25	68,130
829,42	69,071
829,59	66,048
829,76	61,862
829,93	61,421
830,10	62,906
830,27	67,122
830,44	64,701
830,61	54,132
830,78	77,690
830,95	67,178
831,12	62,881
831,29	59,777
831,46	55,673
831,63	65,989
831,80	62,911
831,97	65,527
832,14	71,611
832,31	83,279
832,48	63,262
832,65	68,019
832,83	68,391
833,00	67,230
833,17	65,074
833,34	67,512
833,51	67,232
833,68	74,074
833,85	70,850
834,02	62,452
834,19	69,296
834,36	72,369
834,53	55,984
834,70	60,446
834,87	77,940
835,04	65,488
835,21	66,425
835,38	61,429
835,55	70,240
835,72	76,353
835,89	60,210
836,06	68,666
836,23	75,742
836,40	61,003
836,57	53,520
836,74	65,565
836,91	73,980
837,08	75,309
837,25	68,550
837,42	58,625
837,59	66,602
837,76	65,397
837,93	72,794
838,09	53,813
838,26	66,555
838,43	81,415
838,60	65,553
838,77	61,693
838,94	75,039
839,11	67,972
839,28	60,100
839,45	62,411
839,62	62,918
839,79	62,336
839,96	67,477
840,13	73,167
840,30	61,051
840,47	67,602
840,64	52,829
840,81	69,306
840,98	59,910
841,15	84,406
841,32	59,059
841,48	77,418
841,65	69,708
841,82	67,305
841,99	62,550
842,16	62,436
842,33	67,835
842,50	76,707
842,67	65,334
842,84	67,711
843,01	72,535
843,18	62,712
843,35	64,694
843,52	60,002
843,68	75,150
843,85	73,202
844,02	58,447
844,19	59,894
844,36	77,013
844,53	77,339
844,70	66,062
844,87	75,836
845,04	69,200
845,21	61,382
845,37	77,932
845,54	65,772
845,71	75,488
845,88	87,320
846,05	65,771
846,22	62,956
846,39	68,517
846,56	84,962
846,72	57,067
846,89	73,729
847,06	88,405
847,23	84,148
847,40	57,752
847,57	63,235
847,74	77,690
847,90	79,852
848,07	66,215
848,24	66,394
848,41	77,569
848,58	91,149
848,75	69,584
848,92	58,473
849,08	70,313
849,25	72,898
849,42	60,194
849,59	74,550
849,76	71,556
849,93	80,220
850,09	67,688
850,26	61,786
850,43	84,230
850,60	67,860
850,77	57,132
850,94	66,053
851,10	82,812
851,27	65,748
851,44	68,790
851,61	70,255
851,78	82,990
851,95	80,411
852,11	65,596
852,28	71,461
852,45	74,797
852,62	78,817
852,79	69,794
852,95	67,475
853,12	87,932
853,29	80,026
853,46	61,252
853,63	74,506
853,79	65,926
853,96	70,069
854,13	78,698
854,30	64,206
854,46	88,495
854,63	77,418
854,80	66,746
854,97	75,590
855,14	90,936
855,30	83,339
855,47	74,976
855,64	73,571
855,81	77,543
855,97	78,003
856,14	70,341
856,31	68,004
856,48	79,870
856,65	97,580
856,81	72,786
856,98	67,403
857,15	63,804
857,32	84,230
857,48	65,409
857,65	74,491
857,82	79,383
857,99	71,173
858,15	73,308
858,32	72,846
858,49	68,262
858,65	92,015
858,82	71,752
858,99	86,353
859,16	92,254
859,32	82,477
859,49	68,065
859,66	75,281
859,83	85,108
859,99	74,559
860,16	71,717
860,33	68,347
860,49	84,731
860,66	92,696
860,83	60,852
861,00	60,610
861,16	81,014
861,33	91,929
861,50	63,372
861,66	73,760
861,83	105,300
862,00	81,213
862,16	78,981
862,33	67,863
862,50	124,805
862,67	76,019
862,83	67,216
863,00	73,837
863,17	103,467
863,33	76,907
863,50	34,300
863,67	70,272
863,83	79,134
864,00	93,386
864,17	69,751
864,33	76,365
864,50	94,273
864,67	78,215
864,83	67,453
865,00	55,881
865,17	80,989
865,33	116,002
865,50	65,685
865,67	69,050
865,83	108,210
866,00	130,183
866,17	92,444
866,33	91,125
866,50	93,666
866,66	92,441
866,83	81,667
867,00	92,089
867,16	113,224
867,33	132,363
867,50	65,533
867,66	90,559
867,83	112,676
868,00	106,443
868,16	68,585
868,33	54,300
868,49	83,905
868,66	105,751
868,83	70,809
868,99	83,252
869,16	105,807
869,32	109,689
869,49	81,596
869,66	55,889
869,82	94,042
869,99	115,594
870,15	42,069
870,32	90,301
870,49	113,279
870,65	158,563
870,82	101,551
870,98	87,483
871,15	138,590
871,32	95,469
871,48	49,276
871,65	61,141
871,81	87,038
871,98	60,423
872,15	53,904
872,31	79,280
872,48	139,179
872,64	89,517
872,81	55,017
872,97	87,734
873,14	118,232
873,31	105,826
873,47	69,220
873,64	95,449
873,80	149,426
873,97	170,791
874,13	55,229
874,30	90,814
874,46	135,728
874,63	108,466
874,80	75,150
874,96	75,353
875,13	167,499
875,29	96,457
875,46	101,875
875,62	38,928
875,79	125,861
875,95	76,115
876,12	73,404
876,28	44,239
876,45	188,741
876,61	113,554
876,78	81,247
876,94	73,463
877,11	126,060
877,27	117,953
877,44	112,693
877,60	53,380
877,77	179,768
877,94	162,298
878,10	53,648
878,27	96,989
878,43	158,961
878,60	88,840
878,76	66,587
878,93	100,380
879,09	131,499
879,26	145,601
879,42	113,924
879,58	76,489
879,75	137,686
879,91	171,873
880,08	58,838
880,24	105,413
880,41	114,602
880,57	110,392
880,74	53,825
880,90	71,190
881,07	93,199
881,23	146,772
881,40	96,657
881,56	78,039
881,73	120,388
881,89	174,962
882,06	26,791
882,22	187,362
882,38	185,661
882,55	194,449
882,71	93,478
882,88	76,078
883,04	192,096
883,21	238,570
883,37	83,893
883,54	103,291
883,70	297,653
883,86	136,100
884,03	100,829
884,19	48,793
884,36	180,692
884,52	222,990
884,69	152,754
884,85	54,239
885,01	330,461
885,18	152,600
885,34	119,045
885,51	-6,125
885,67	138,085
>>>>> Data<<<<< Espectral Procesado Extremo
