Fichero De Datos De SpectraSuite
++++++++++++++++++++++++++++++++++++
Fecha: Wed Apr 22 13:29:15 CEST 2009
Usuario: evoflor
Presente Oscuro Del Espectro: Sí
La Referencia de Presente Del Espectro De: Sí
Muestreados de los componentes de Número de espectros: 1
Espectrómetros: USB4F02353
Tiempo de integración (usec): 500000 (USB4F02353)
Promedio de Espectros Hechos un: 5 (USB4F02353)
El Alisar Del Furgón: 0 (USB4F02353)
Párrafo de de Corregir del la del del de Eléctrica del obscuridad: Sí (USB4F02353)
Estrobo/Lámpara Permitido: No (USB4F02353)
Correct for Detector Non-linearity: No (USB4F02353)
Párrafo de de Corregir del la del del de Externa del luz: No (USB4F02353)
Procesado del espectro de Número de pixeles en: 3648
>>>>> Comienza Data<<<<< Espectral Procesado Del EL
177,79	389,716
178,00	389,716
178,22	389,716
178,44	692,308
178,66	-241,114
178,88	263,844
179,09	-26,809
179,31	435,130
179,53	537,771
179,75	246,687
179,96	605,172
180,18	-423,692
180,40	355,414
180,62	341,379
180,83	-208,264
181,05	-1942,683
181,27	-135900,000
181,49	125,217
181,70	231,923
181,92	900,000
182,14	534,036
182,36	6,883
182,58	-99,000
182,79	827,679
183,01	-65,835
183,23	273,739
183,45	60,923
183,66	-47,788
183,88	630,000
184,10	-3894,545
184,32	133,663
184,53	191,185
184,75	-344,544
184,97	98,313
185,18	-177,632
185,40	-822,115
185,62	167,143
185,84	-37,336
186,05	98,728
186,27	-204,192
186,49	5088,462
186,71	31,479
186,92	148,005
187,14	-159,510
187,36	108,032
187,58	23,102
187,79	-123,100
188,01	275,425
188,23	-332,386
188,45	-4,341
188,66	285,268
188,88	-1570,909
189,10	-1926,000
189,31	-9,215
189,53	-8,212
189,75	413,182
189,97	276,923
190,18	-54,077
190,40	942,353
190,62	-36,272
190,83	-269,650
191,05	198,887
191,27	378,000
191,49	274,010
191,70	-389,423
191,92	-1388,136
192,14	3,197
192,35	594,430
192,57	5168,571
192,79	32,762
193,01	192,460
193,22	111,614
193,44	-116,724
193,66	135,625
193,87	28,908
194,09	-56,801
194,31	240,710
194,53	1076,224
194,74	71,129
194,96	42,583
195,18	154,657
195,39	-645,910
195,61	-118,899
195,83	-232,826
196,04	130,027
196,26	-429,648
196,48	47,132
196,70	288,072
196,91	144,340
197,13	248,354
197,35	4,553
197,56	735,604
197,78	1974,627
198,00	440,559
198,21	166,019
198,43	-1004,651
198,65	173,211
198,86	74,460
199,08	2,951
199,30	120,243
199,51	-328,339
199,73	172,040
199,95	554,703
200,16	633,462
200,38	300,451
200,60	124,536
200,81	289,079
201,03	273,913
201,25	-1935,000
201,46	220,390
201,68	2,545
201,90	2740,909
202,11	-515,267
202,33	263,375
202,55	1417,500
202,76	-152,403
202,98	210,105
203,20	-12,981
203,41	-663,158
203,63	166,199
203,85	-152100,000
204,06	171,230
204,28	-67,229
204,50	127,317
204,71	322,792
204,93	-432,000
205,15	143,675
205,36	-91,205
205,58	264,299
205,80	-199,642
206,01	122,241
206,23	143,327
206,45	270,949
206,66	205,354
206,88	19,664
207,10	286,364
207,31	348,079
207,53	349,714
207,75	58,134
207,96	1430,597
208,18	-167,406
208,39	95,986
208,61	4705,714
208,83	-458,075
209,04	111,777
209,26	-373,272
209,48	212,922
209,69	143,710
209,91	602,027
210,13	77,391
210,34	176,513
210,56	168,606
210,77	-1601,575
210,99	88,481
211,21	6141,176
211,42	-222,044
211,64	-52,941
211,86	284,288
212,07	314,740
212,29	165,441
212,50	173,244
212,72	332,308
212,94	134,764
213,15	161,241
213,37	157,282
213,58	-57,871
213,80	-3535,714
214,02	10905,882
214,23	320,255
214,45	283,279
214,67	910,976
214,88	-232,550
215,10	-318,486
215,31	37,336
215,53	177,955
215,75	154,957
215,96	2180,124
216,18	114,085
216,39	168,985
216,61	485,371
216,83	711,161
217,04	1324,719
217,26	-20,323
217,47	118,080
217,69	354,394
217,91	57,990
218,12	-119700,000
218,34	129,014
218,55	501,326
218,77	53,326
218,99	114,529
219,20	-237,032
219,42	380,030
219,63	-165,032
219,85	-79,889
220,06	138,462
220,28	212,912
220,50	103,540
220,71	90,414
220,93	3701,887
221,14	-1710,000
221,36	68,834
221,58	-58,909
221,79	213,559
222,01	1497,414
222,22	568,421
222,44	182,022
222,65	172,030
222,87	868,531
223,09	116,229
223,30	50,825
223,52	123,805
223,73	59,837
223,95	128,028
224,16	124,330
224,38	452,133
224,60	101,477
224,81	373,782
225,03	93,172
225,24	159,444
225,46	32,890
225,67	44,090
225,89	53,010
226,10	328,012
226,32	79,200
226,54	44,154
226,75	-5,161
226,97	135,127
227,18	152,171
227,40	-128,374
227,61	35,934
227,83	63,046
228,04	111,286
228,26	23,258
228,47	41,682
228,69	243,773
228,91	211,817
229,12	103,300
229,34	45,747
229,55	58,552
229,77	28,638
229,98	-0,000
230,20	30,479
230,41	39,907
230,63	155,881
230,84	55,225
231,06	0,402
231,27	12,505
231,49	72,417
231,71	18,253
231,92	29,724
232,14	22,643
232,35	75,037
232,57	63,692
232,78	7,764
233,00	43,700
233,21	44,521
233,43	27,526
233,64	13,969
233,86	25,534
234,07	54,488
234,29	9,886
234,50	19,398
234,72	42,422
234,93	15,815
235,15	17,938
235,36	15,731
235,58	35,624
235,79	40,230
236,01	2,808
236,22	21,569
236,44	50,009
236,65	22,791
236,87	20,241
237,08	7,001
237,30	-3,541
237,51	8,746
237,73	-0,273
237,94	13,754
238,16	17,150
238,37	10,837
238,59	15,594
238,80	11,099
239,02	22,513
239,23	25,308
239,45	-7,327
239,66	12,848
239,88	43,488
240,09	18,321
240,31	-0,961
240,52	7,664
240,74	13,083
240,95	17,784
241,17	9,171
241,38	6,558
241,60	14,233
241,81	25,484
242,03	12,606
242,24	10,790
242,46	14,945
242,67	-0,549
242,89	14,779
243,10	15,894
243,32	18,523
243,53	18,699
243,75	6,687
243,96	13,597
244,18	18,633
244,39	13,794
244,60	7,424
244,82	5,875
245,03	20,878
245,25	7,138
245,46	25,395
245,68	4,775
245,89	17,433
246,11	10,881
246,32	14,580
246,54	6,366
246,75	12,075
246,97	11,638
247,18	20,328
247,39	6,254
247,61	16,305
247,82	16,922
248,04	4,854
248,25	9,753
248,47	16,015
248,68	14,603
248,90	8,438
249,11	7,762
249,33	21,500
249,54	10,045
249,75	9,490
249,97	2,602
250,18	17,424
250,40	20,240
250,61	-4,226
250,83	2,573
251,04	4,496
251,25	8,343
251,47	4,980
251,68	7,226
251,90	12,049
252,11	13,297
252,33	4,432
252,54	11,746
252,76	5,300
252,97	5,524
253,18	-1,992
253,40	7,122
253,61	1,378
253,83	14,339
254,04	12,151
254,25	6,694
254,47	4,738
254,68	9,180
254,90	5,859
255,11	11,112
255,33	10,366
255,54	7,556
255,75	4,474
255,97	11,117
256,18	5,504
256,40	10,217
256,61	9,614
256,82	5,179
257,04	11,222
257,25	0,705
257,47	8,848
257,68	-0,463
257,89	11,290
258,11	11,947
258,32	11,037
258,54	10,223
258,75	12,006
258,96	10,988
259,18	7,198
259,39	4,725
259,61	15,032
259,82	3,128
260,03	10,425
260,25	12,910
260,46	1,507
260,68	5,380
260,89	5,000
261,10	4,899
261,32	8,226
261,53	4,450
261,75	8,230
261,96	-3,909
262,17	12,272
262,39	11,574
262,60	5,859
262,81	-0,291
263,03	12,744
263,24	8,837
263,46	1,025
263,67	4,208
263,88	6,253
264,10	9,102
264,31	3,277
264,52	8,327
264,74	11,341
264,95	7,626
265,17	7,586
265,38	10,935
265,59	9,548
265,81	9,599
266,02	2,429
266,23	3,567
266,45	13,835
266,66	14,143
266,87	7,280
267,09	3,262
267,30	10,142
267,52	11,435
267,73	2,269
267,94	5,799
268,16	11,269
268,37	6,923
268,58	4,713
268,80	5,717
269,01	6,159
269,22	8,413
269,44	9,746
269,65	3,755
269,86	4,259
270,08	11,543
270,29	2,498
270,50	8,524
270,72	9,386
270,93	5,293
271,14	3,433
271,36	1,394
271,57	12,331
271,78	7,582
272,00	8,795
272,21	9,270
272,42	7,880
272,64	9,331
272,85	3,556
273,06	7,335
273,28	7,562
273,49	8,504
273,70	8,378
273,92	7,311
274,13	9,959
274,34	2,523
274,56	6,853
274,77	2,350
274,98	8,831
275,20	8,236
275,41	9,354
275,62	8,099
275,84	4,141
276,05	12,320
276,26	2,892
276,47	1,697
276,69	12,172
276,90	9,551
277,11	5,983
277,33	3,954
277,54	5,221
277,75	6,974
277,97	5,626
278,18	3,908
278,39	9,312
278,61	3,492
278,82	7,024
279,03	8,492
279,24	7,073
279,46	4,255
279,67	7,513
279,88	5,619
280,10	11,001
280,31	4,793
280,52	7,175
280,73	4,186
280,95	7,138
281,16	10,197
281,37	8,334
281,59	7,531
281,80	13,205
282,01	4,387
282,22	7,134
282,44	2,753
282,65	13,233
282,86	10,416
283,08	5,050
283,29	6,729
283,50	4,994
283,71	5,287
283,93	10,133
284,14	8,846
284,35	6,398
284,56	6,625
284,78	4,679
284,99	6,216
285,20	8,582
285,42	6,898
285,63	4,582
285,84	0,677
286,05	4,411
286,27	6,438
286,48	4,670
286,69	6,431
286,90	4,184
287,12	3,354
287,33	2,801
287,54	2,487
287,75	7,615
287,97	7,670
288,18	7,016
288,39	1,852
288,60	5,840
288,82	7,781
289,03	5,912
289,24	4,692
289,45	9,830
289,67	4,851
289,88	2,329
290,09	7,852
290,30	8,370
290,52	3,928
290,73	4,119
290,94	0,412
291,15	5,467
291,37	9,796
291,58	6,884
291,79	5,311
292,00	7,381
292,21	5,998
292,43	3,837
292,64	3,711
292,85	6,133
293,06	8,199
293,28	4,101
293,49	2,191
293,70	6,933
293,91	5,997
294,12	4,959
294,34	3,292
294,55	3,901
294,76	5,291
294,97	7,109
295,19	4,133
295,40	7,601
295,61	7,377
295,82	0,825
296,03	5,128
296,25	6,024
296,46	3,298
296,67	3,376
296,88	1,038
297,09	7,248
297,31	4,166
297,52	5,605
297,73	3,682
297,94	7,140
298,15	6,362
298,37	6,336
298,58	7,486
298,79	7,178
299,00	4,059
299,21	2,320
299,43	2,018
299,64	8,652
299,85	8,401
300,06	3,538
300,27	2,324
300,49	10,808
300,70	6,058
300,91	4,044
301,12	2,908
301,33	8,987
301,54	5,883
301,76	6,786
301,97	2,581
302,18	7,587
302,39	7,747
302,60	14,146
302,82	3,659
303,03	7,348
303,24	7,890
303,45	4,423
303,66	5,288
303,87	4,614
304,09	7,702
304,30	4,034
304,51	6,003
304,72	4,728
304,93	6,222
305,14	5,887
305,36	1,049
305,57	3,494
305,78	7,253
305,99	3,361
306,20	3,976
306,41	4,223
306,62	3,035
306,84	4,918
307,05	2,227
307,26	6,179
307,47	10,116
307,68	3,790
307,89	2,857
308,11	7,971
308,32	4,338
308,53	5,066
308,74	3,914
308,95	5,213
309,16	7,689
309,37	7,882
309,59	2,803
309,80	5,047
310,01	6,295
310,22	6,495
310,43	2,474
310,64	5,920
310,85	6,107
311,06	3,907
311,28	6,076
311,49	5,810
311,70	8,777
311,91	4,593
312,12	4,880
312,33	6,071
312,54	6,395
312,75	3,307
312,97	3,314
313,18	8,158
313,39	2,386
313,60	4,294
313,81	6,593
314,02	5,805
314,23	5,172
314,44	2,410
314,65	4,810
314,87	4,163
315,08	3,624
315,29	7,596
315,50	5,390
315,71	9,883
315,92	7,764
316,13	4,912
316,34	5,336
316,55	7,380
316,77	3,406
316,98	3,529
317,19	3,794
317,40	6,265
317,61	7,803
317,82	3,451
318,03	3,509
318,24	5,386
318,45	8,933
318,66	6,780
318,87	1,197
319,09	8,404
319,30	5,383
319,51	6,562
319,72	7,999
319,93	7,506
320,14	8,430
320,35	4,384
320,56	4,295
320,77	2,460
320,98	10,761
321,19	5,353
321,40	3,415
321,62	8,580
321,83	2,327
322,04	5,908
322,25	6,014
322,46	10,281
322,67	6,500
322,88	4,402
323,09	5,021
323,30	10,129
323,51	9,563
323,72	6,201
323,93	0,918
324,14	5,327
324,35	3,755
324,56	1,264
324,77	4,258
324,99	6,074
325,20	-1,088
325,41	5,767
325,62	5,154
325,83	2,854
326,04	4,994
326,25	5,312
326,46	1,692
326,67	4,454
326,88	6,364
327,09	5,940
327,30	4,810
327,51	5,297
327,72	4,528
327,93	5,575
328,14	-4,091
328,35	5,190
328,56	7,929
328,77	4,793
328,98	6,184
329,19	7,324
329,40	8,618
329,61	4,033
329,82	2,013
330,04	6,458
330,25	2,891
330,46	5,835
330,67	4,166
330,88	5,035
331,09	7,043
331,30	3,554
331,51	5,320
331,72	6,383
331,93	7,151
332,14	2,700
332,35	2,849
332,56	7,985
332,77	9,230
332,98	2,154
333,19	3,075
333,40	6,320
333,61	5,104
333,82	6,519
334,03	5,978
334,24	9,660
334,45	5,174
334,66	6,185
334,87	4,374
335,08	4,319
335,29	5,062
335,50	3,641
335,71	4,903
335,92	5,847
336,13	7,777
336,34	-0,376
336,55	5,117
336,76	9,313
336,97	3,490
337,18	4,825
337,39	5,277
337,60	5,704
337,81	8,407
338,02	5,258
338,23	3,925
338,44	7,169
338,65	4,003
338,86	5,763
339,07	3,221
339,28	6,024
339,49	6,095
339,70	0,923
339,91	6,463
340,11	11,147
340,32	1,954
340,53	1,340
340,74	2,941
340,95	2,486
341,16	8,599
341,37	4,618
341,58	3,377
341,79	3,406
342,00	6,271
342,21	3,541
342,42	5,361
342,63	6,676
342,84	3,623
343,05	6,426
343,26	5,443
343,47	8,498
343,68	5,499
343,89	3,673
344,10	5,122
344,31	6,785
344,52	4,067
344,73	3,104
344,94	3,578
345,14	5,652
345,35	8,550
345,56	5,442
345,77	2,918
345,98	3,841
346,19	5,725
346,40	3,208
346,61	4,820
346,82	5,886
347,03	4,702
347,24	6,562
347,45	4,481
347,66	8,695
347,87	4,445
348,08	7,133
348,28	1,796
348,49	7,125
348,70	7,767
348,91	7,611
349,12	4,250
349,33	19,122
349,54	4,183
349,75	7,501
349,96	6,936
350,17	5,718
350,38	3,829
350,59	6,547
350,80	2,456
351,00	8,209
351,21	10,330
351,42	5,597
351,63	3,324
351,84	6,479
352,05	9,655
352,26	4,287
352,47	6,394
352,68	8,431
352,89	8,234
353,09	4,745
353,30	1,144
353,51	5,692
353,72	7,352
353,93	9,118
354,14	3,328
354,35	4,688
354,56	9,717
354,77	7,690
354,98	1,106
355,18	6,994
355,39	12,639
355,60	3,493
355,81	3,344
356,02	6,468
356,23	5,330
356,44	4,558
356,65	3,947
356,85	11,199
357,06	8,666
357,27	7,734
357,48	2,159
357,69	6,278
357,90	6,614
358,11	1,857
358,32	3,013
358,52	9,716
358,73	5,702
358,94	3,710
359,15	8,634
359,36	5,823
359,57	6,463
359,78	5,691
359,98	4,774
360,19	2,711
360,40	6,199
360,61	7,962
360,82	2,111
361,03	10,198
361,24	10,766
361,44	3,811
361,65	5,541
361,86	4,943
362,07	7,409
362,28	3,841
362,49	2,403
362,70	5,569
362,90	7,522
363,11	2,907
363,32	2,157
363,53	8,006
363,74	10,497
363,95	7,306
364,15	7,720
364,36	8,592
364,57	3,901
364,78	5,825
364,99	4,366
365,20	8,326
365,40	8,420
365,61	-0,578
365,82	5,638
366,03	4,539
366,24	6,594
366,45	2,611
366,65	6,059
366,86	4,843
367,07	8,218
367,28	4,834
367,49	5,671
367,69	8,182
367,90	4,522
368,11	5,872
368,32	3,933
368,53	7,012
368,73	5,864
368,94	5,161
369,15	5,640
369,36	7,485
369,57	8,041
369,78	4,215
369,98	9,012
370,19	9,904
370,40	3,433
370,61	2,983
370,82	2,675
371,02	8,546
371,23	11,324
371,44	5,619
371,65	8,211
371,85	9,620
372,06	4,438
372,27	3,418
372,48	5,327
372,69	8,665
372,89	2,770
373,10	6,740
373,31	2,524
373,52	7,458
373,73	8,393
373,93	7,239
374,14	5,418
374,35	10,684
374,56	8,519
374,76	7,536
374,97	4,100
375,18	7,543
375,39	7,674
375,60	11,014
375,80	1,430
376,01	6,346
376,22	9,935
376,43	3,902
376,63	4,501
376,84	2,282
377,05	6,095
377,26	2,654
377,46	1,732
377,67	2,983
377,88	5,143
378,09	6,687
378,29	1,919
378,50	6,643
378,71	8,250
378,92	3,078
379,12	5,705
379,33	6,606
379,54	3,985
379,75	5,960
379,95	2,330
380,16	8,237
380,37	8,535
380,58	7,306
380,78	9,156
380,99	2,729
381,20	3,995
381,41	4,356
381,61	10,346
381,82	4,846
382,03	7,454
382,24	5,639
382,44	7,222
382,65	5,207
382,86	7,856
383,06	3,679
383,27	5,744
383,48	3,919
383,69	7,114
383,89	6,223
384,10	5,351
384,31	5,855
384,51	9,124
384,72	5,419
384,93	5,590
385,14	6,723
385,34	4,460
385,55	4,910
385,76	5,075
385,96	7,011
386,17	6,073
386,38	4,240
386,59	10,583
386,79	2,263
387,00	10,970
387,21	11,683
387,41	3,305
387,62	6,294
387,83	9,765
388,03	4,118
388,24	2,032
388,45	7,508
388,66	6,456
388,86	5,604
389,07	2,200
389,28	9,023
389,48	6,660
389,69	4,968
389,90	3,147
390,10	9,326
390,31	10,975
390,52	1,427
390,72	4,666
390,93	3,315
391,14	5,289
391,34	6,887
391,55	7,499
391,76	11,711
391,96	7,605
392,17	4,860
392,38	7,821
392,58	6,186
392,79	4,636
393,00	1,769
393,20	6,333
393,41	5,461
393,62	7,272
393,82	5,908
394,03	7,644
394,24	5,394
394,44	10,750
394,65	6,871
394,86	5,704
395,06	8,850
395,27	3,367
395,48	6,847
395,68	4,467
395,89	9,694
396,10	5,655
396,30	6,682
396,51	5,178
396,72	6,707
396,92	1,147
397,13	3,831
397,34	3,431
397,54	10,024
397,75	2,961
397,95	3,683
398,16	8,110
398,37	4,482
398,57	3,766
398,78	7,810
398,99	7,847
399,19	9,210
399,40	10,313
399,60	3,134
399,81	5,832
400,02	9,906
400,22	9,287
400,43	5,777
400,64	7,790
400,84	5,810
401,05	6,621
401,25	9,203
401,46	5,188
401,67	8,306
401,87	7,368
402,08	1,689
402,29	4,053
402,49	11,310
402,70	10,766
402,90	4,348
403,11	4,351
403,32	7,449
403,52	5,391
403,73	11,405
403,93	8,669
404,14	10,806
404,35	8,188
404,55	8,412
404,76	4,798
404,96	12,037
405,17	13,041
405,38	12,154
405,58	4,679
405,79	11,662
405,99	12,970
406,20	8,964
406,40	4,041
406,61	10,478
406,82	8,642
407,02	10,296
407,23	6,913
407,43	10,826
407,64	8,901
407,85	7,758
408,05	1,897
408,26	18,311
408,46	14,029
408,67	4,621
408,87	10,371
409,08	5,425
409,29	13,374
409,49	13,712
409,70	11,642
409,90	10,310
410,11	13,545
410,31	13,564
410,52	10,429
410,72	6,713
410,93	12,794
411,14	9,840
411,34	7,386
411,55	8,949
411,75	14,099
411,96	11,956
412,16	13,764
412,37	9,222
412,57	15,160
412,78	15,453
412,99	11,954
413,19	15,819
413,40	14,209
413,60	10,860
413,81	12,317
414,01	12,219
414,22	9,449
414,42	13,237
414,63	7,890
414,83	15,450
415,04	18,205
415,24	14,455
415,45	11,643
415,65	15,885
415,86	15,724
416,07	15,487
416,27	13,344
416,48	18,955
416,68	19,471
416,89	9,055
417,09	16,575
417,30	17,211
417,50	15,109
417,71	18,942
417,91	11,905
418,12	13,235
418,32	18,146
418,53	13,907
418,73	16,503
418,94	18,875
419,14	19,387
419,35	13,416
419,55	13,331
419,76	20,880
419,96	18,242
420,17	16,357
420,37	13,932
420,58	22,869
420,78	18,662
420,99	18,454
421,19	19,851
421,40	18,852
421,60	20,001
421,81	13,327
422,01	19,565
422,22	18,567
422,42	19,561
422,63	18,196
422,83	17,260
423,04	21,966
423,24	22,604
423,45	13,406
423,65	22,008
423,86	23,293
424,06	23,376
424,27	18,644
424,47	17,674
424,67	17,063
424,88	21,748
425,08	15,955
425,29	23,980
425,49	18,030
425,70	14,126
425,90	19,703
426,11	20,851
426,31	19,244
426,52	21,718
426,72	18,589
426,93	17,746
427,13	25,494
427,33	21,509
427,54	25,779
427,74	24,746
427,95	23,400
428,15	19,443
428,36	22,387
428,56	19,272
428,77	24,454
428,97	22,069
429,18	21,149
429,38	20,014
429,58	26,227
429,79	22,928
429,99	18,113
430,20	15,228
430,40	25,575
430,61	17,988
430,81	16,939
431,01	23,205
431,22	27,124
431,42	23,160
431,63	15,736
431,83	22,339
432,04	25,372
432,24	28,934
432,44	19,760
432,65	19,668
432,85	21,663
433,06	24,828
433,26	21,963
433,47	21,631
433,67	21,990
433,87	20,445
434,08	17,546
434,28	20,975
434,49	19,024
434,69	24,399
434,89	17,974
435,10	19,419
435,30	26,899
435,51	16,191
435,71	20,104
435,91	21,880
436,12	19,795
436,32	21,560
436,53	23,727
436,73	21,541
436,93	23,379
437,14	26,955
437,34	23,556
437,55	22,060
437,75	25,414
437,95	24,465
438,16	17,344
438,36	23,660
438,57	17,530
438,77	21,509
438,97	24,910
439,18	27,160
439,38	20,546
439,58	19,875
439,79	22,617
439,99	18,737
440,20	26,035
440,40	27,538
440,60	22,657
440,81	23,485
441,01	20,189
441,21	23,404
441,42	23,042
441,62	28,091
441,83	24,722
442,03	23,479
442,23	21,919
442,44	20,082
442,64	28,305
442,84	20,942
443,05	24,895
443,25	20,604
443,45	18,575
443,66	25,743
443,86	20,682
444,06	25,120
444,27	22,590
444,47	20,949
444,67	19,774
444,88	26,923
445,08	25,001
445,28	23,458
445,49	21,010
445,69	20,664
445,90	25,949
446,10	26,648
446,30	23,298
446,51	25,366
446,71	28,556
446,91	29,379
447,12	28,999
447,32	23,829
447,52	26,508
447,72	24,278
447,93	25,226
448,13	17,730
448,33	27,870
448,54	29,181
448,74	22,292
448,94	29,933
449,15	31,154
449,35	29,038
449,55	21,659
449,76	29,252
449,96	23,218
450,16	28,049
450,37	21,744
450,57	22,014
450,77	19,349
450,98	28,210
451,18	24,663
451,38	22,287
451,58	27,147
451,79	29,320
451,99	25,673
452,19	23,495
452,40	24,289
452,60	15,340
452,80	22,737
453,00	22,653
453,21	25,930
453,41	27,181
453,61	20,187
453,82	25,444
454,02	20,163
454,22	26,317
454,42	26,618
454,63	21,754
454,83	21,553
455,03	26,313
455,24	23,958
455,44	19,993
455,64	23,093
455,84	25,960
456,05	22,446
456,25	16,042
456,45	23,166
456,65	25,874
456,86	24,258
457,06	23,338
457,26	27,933
457,47	28,546
457,67	24,540
457,87	22,925
458,07	24,671
458,28	28,503
458,48	25,037
458,68	17,581
458,88	24,493
459,09	25,795
459,29	28,043
459,49	24,689
459,69	26,220
459,90	21,733
460,10	22,015
460,30	24,810
460,50	19,203
460,71	25,617
460,91	23,090
461,11	22,795
461,31	22,521
461,52	26,489
461,72	23,338
461,92	26,903
462,12	33,452
462,32	19,154
462,53	23,823
462,73	20,406
462,93	26,817
463,13	26,298
463,34	21,262
463,54	22,424
463,74	24,615
463,94	28,175
464,14	22,906
464,35	22,767
464,55	27,524
464,75	27,118
464,95	24,533
465,16	19,184
465,36	23,611
465,56	23,874
465,76	20,498
465,96	21,543
466,17	25,447
466,37	19,779
466,57	23,650
466,77	22,053
466,97	23,718
467,18	27,277
467,38	23,153
467,58	21,867
467,78	25,300
467,98	26,591
468,19	24,496
468,39	24,992
468,59	26,840
468,79	28,676
468,99	25,039
469,19	24,504
469,40	24,158
469,60	20,446
469,80	20,111
470,00	23,271
470,20	27,250
470,41	21,077
470,61	25,478
470,81	22,784
471,01	23,351
471,21	20,961
471,41	22,310
471,62	23,140
471,82	20,342
472,02	18,955
472,22	20,506
472,42	23,012
472,62	24,288
472,83	21,491
473,03	26,311
473,23	19,878
473,43	26,623
473,63	24,567
473,83	24,928
474,03	21,306
474,24	27,689
474,44	22,522
474,64	20,145
474,84	18,546
475,04	23,779
475,24	24,657
475,45	21,899
475,65	21,629
475,85	26,592
476,05	18,904
476,25	22,627
476,45	22,469
476,65	27,012
476,85	21,429
477,06	23,715
477,26	19,956
477,46	21,203
477,66	20,613
477,86	24,126
478,06	18,157
478,26	25,536
478,46	20,129
478,67	20,552
478,87	21,143
479,07	19,907
479,27	21,556
479,47	21,344
479,67	15,860
479,87	22,255
480,07	28,150
480,28	21,427
480,48	18,013
480,68	23,665
480,88	26,801
481,08	24,264
481,28	22,806
481,48	22,174
481,68	22,304
481,88	17,288
482,08	20,373
482,29	24,846
482,49	20,395
482,69	22,279
482,89	22,027
483,09	25,255
483,29	19,778
483,49	19,771
483,69	21,105
483,89	20,357
484,09	19,889
484,29	16,686
484,50	19,814
484,70	23,186
484,90	19,362
485,10	18,342
485,30	19,930
485,50	23,193
485,70	21,284
485,90	19,215
486,10	17,478
486,30	18,275
486,50	19,937
486,70	19,921
486,90	18,544
487,10	22,933
487,30	18,668
487,51	20,697
487,71	17,091
487,91	18,783
488,11	21,186
488,31	17,684
488,51	20,672
488,71	18,781
488,91	23,475
489,11	17,073
489,31	19,743
489,51	19,421
489,71	21,736
489,91	18,029
490,11	18,272
490,31	19,692
490,51	22,041
490,71	19,366
490,91	17,374
491,11	20,780
491,31	17,687
491,51	17,222
491,72	18,440
491,92	20,438
492,12	22,493
492,32	21,908
492,52	22,286
492,72	19,666
492,92	20,166
493,12	19,232
493,32	16,190
493,52	16,529
493,72	18,539
493,92	21,439
494,12	18,837
494,32	20,032
494,52	16,478
494,72	15,598
494,92	18,412
495,12	21,229
495,32	20,862
495,52	17,957
495,72	19,200
495,92	22,936
496,12	21,210
496,32	15,501
496,52	18,103
496,72	20,306
496,92	21,272
497,12	17,068
497,32	18,964
497,52	19,203
497,72	21,363
497,92	20,403
498,12	15,039
498,32	20,139
498,52	20,150
498,72	15,957
498,92	17,481
499,12	21,306
499,32	15,034
499,52	20,425
499,72	19,516
499,92	20,227
500,12	20,963
500,32	20,599
500,52	18,321
500,72	24,496
500,91	20,202
501,11	16,986
501,31	13,085
501,51	22,515
501,71	23,694
501,91	19,656
502,11	16,590
502,31	17,582
502,51	18,867
502,71	17,284
502,91	16,350
503,11	21,099
503,31	19,444
503,51	14,572
503,71	14,738
503,91	20,661
504,11	16,291
504,31	17,929
504,51	16,903
504,71	23,292
504,91	18,266
505,10	20,881
505,30	16,175
505,50	20,118
505,70	16,124
505,90	17,975
506,10	14,247
506,30	17,496
506,50	20,029
506,70	21,874
506,90	15,587
507,10	17,531
507,30	21,705
507,50	18,685
507,70	18,440
507,89	17,703
508,09	16,926
508,29	17,703
508,49	15,003
508,69	16,659
508,89	16,073
509,09	14,490
509,29	15,366
509,49	17,938
509,69	21,830
509,89	17,138
510,09	13,902
510,28	19,682
510,48	16,318
510,68	15,315
510,88	13,657
511,08	15,054
511,28	16,194
511,48	16,816
511,68	14,201
511,88	12,785
512,07	16,071
512,27	18,543
512,47	14,884
512,67	14,118
512,87	16,191
513,07	17,276
513,27	12,222
513,47	14,241
513,67	11,853
513,86	17,924
514,06	15,712
514,26	13,050
514,46	18,265
514,66	14,587
514,86	16,152
515,06	20,814
515,26	19,289
515,45	16,030
515,65	15,243
515,85	19,381
516,05	12,685
516,25	14,522
516,45	14,711
516,65	14,269
516,84	14,846
517,04	17,749
517,24	14,884
517,44	17,046
517,64	15,271
517,84	17,549
518,04	14,394
518,23	17,143
518,43	19,597
518,63	14,293
518,83	13,570
519,03	16,826
519,23	15,887
519,42	15,134
519,62	11,095
519,82	16,600
520,02	15,633
520,22	14,015
520,42	12,402
520,61	16,671
520,81	17,616
521,01	14,020
521,21	11,847
521,41	15,530
521,61	19,821
521,80	14,082
522,00	14,849
522,20	15,173
522,40	16,931
522,60	15,197
522,79	12,634
522,99	16,684
523,19	11,794
523,39	13,546
523,59	13,458
523,78	19,031
523,98	12,981
524,18	15,325
524,38	13,961
524,58	13,463
524,77	16,361
524,97	15,216
525,17	12,458
525,37	14,208
525,57	18,027
525,76	13,195
525,96	14,215
526,16	13,479
526,36	11,087
526,56	15,639
526,75	12,094
526,95	15,130
527,15	15,365
527,35	13,825
527,55	12,529
527,74	14,030
527,94	11,681
528,14	10,887
528,34	14,567
528,53	11,807
528,73	17,999
528,93	14,460
529,13	9,080
529,32	12,466
529,52	16,031
529,72	11,645
529,92	12,445
530,12	11,347
530,31	12,221
530,51	14,417
530,71	15,112
530,91	14,504
531,10	10,548
531,30	13,754
531,50	10,876
531,70	16,783
531,89	12,642
532,09	11,744
532,29	11,761
532,49	14,382
532,68	13,109
532,88	11,740
533,08	10,713
533,28	13,572
533,47	11,999
533,67	15,057
533,87	8,605
534,06	18,464
534,26	12,094
534,46	11,283
534,66	11,493
534,85	15,911
535,05	6,336
535,25	10,780
535,45	10,708
535,64	14,184
535,84	12,838
536,04	8,872
536,23	10,535
536,43	14,879
536,63	7,708
536,83	11,764
537,02	11,119
537,22	11,743
537,42	11,056
537,61	12,198
537,81	14,913
538,01	11,114
538,20	12,793
538,40	10,300
538,60	10,306
538,80	12,146
538,99	11,885
539,19	10,983
539,39	8,708
539,58	12,456
539,78	8,501
539,98	10,263
540,17	8,674
540,37	11,049
540,57	8,998
540,76	10,346
540,96	7,599
541,16	11,580
541,36	9,000
541,55	5,009
541,75	6,260
541,95	8,214
542,14	7,896
542,34	6,489
542,54	6,185
542,73	9,445
542,93	9,095
543,13	8,114
543,32	6,756
543,52	9,727
543,72	6,930
543,91	9,438
544,11	6,727
544,31	7,121
544,50	8,460
544,70	9,032
544,89	7,609
545,09	11,078
545,29	8,710
545,48	8,628
545,68	5,388
545,88	8,969
546,07	8,303
546,27	8,346
546,47	9,157
546,66	10,176
546,86	10,152
547,06	9,125
547,25	7,663
547,45	10,498
547,64	9,702
547,84	13,254
548,04	9,664
548,23	13,004
548,43	11,702
548,63	12,001
548,82	10,275
549,02	9,375
549,21	9,038
549,41	9,458
549,61	10,165
549,80	8,097
550,00	11,822
550,20	7,637
550,39	11,516
550,59	11,627
550,78	13,517
550,98	6,555
551,18	11,682
551,37	12,863
551,57	11,452
551,76	11,738
551,96	8,507
552,16	8,418
552,35	9,881
552,55	8,616
552,74	10,241
552,94	12,034
553,14	9,319
553,33	9,913
553,53	10,002
553,72	9,887
553,92	13,901
554,12	10,006
554,31	9,366
554,51	10,231
554,70	8,250
554,90	8,828
555,09	12,641
555,29	12,003
555,49	11,720
555,68	14,298
555,88	8,020
556,07	10,702
556,27	11,280
556,46	8,955
556,66	6,366
556,86	11,599
557,05	11,862
557,25	11,111
557,44	9,963
557,64	8,600
557,83	9,382
558,03	11,174
558,22	8,107
558,42	12,456
558,62	13,731
558,81	10,029
559,01	11,071
559,20	12,188
559,40	10,706
559,59	9,723
559,79	9,038
559,98	12,882
560,18	11,132
560,37	9,061
560,57	10,476
560,76	9,104
560,96	8,750
561,16	12,392
561,35	10,008
561,55	14,862
561,74	11,640
561,94	10,260
562,13	10,981
562,33	12,375
562,52	9,687
562,72	9,023
562,91	7,699
563,11	10,836
563,30	12,443
563,50	5,585
563,69	8,982
563,89	9,142
564,08	10,625
564,28	10,638
564,47	10,900
564,67	11,077
564,86	10,791
565,06	10,167
565,25	10,169
565,45	9,240
565,64	15,732
565,84	10,142
566,03	7,202
566,23	11,792
566,42	9,910
566,62	9,511
566,81	10,414
567,01	9,047
567,20	12,269
567,40	8,779
567,59	8,264
567,79	13,012
567,98	12,651
568,18	10,927
568,37	10,755
568,57	10,356
568,76	12,228
568,96	10,226
569,15	9,166
569,35	11,109
569,54	13,488
569,73	11,797
569,93	8,007
570,12	10,164
570,32	10,316
570,51	10,722
570,71	11,960
570,90	12,732
571,10	8,965
571,29	8,810
571,49	9,814
571,68	11,690
571,87	11,314
572,07	10,576
572,26	8,455
572,46	11,551
572,65	10,066
572,85	7,327
573,04	11,123
573,24	9,870
573,43	11,971
573,62	11,830
573,82	10,868
574,01	11,087
574,21	9,420
574,40	8,521
574,60	6,519
574,79	12,674
574,98	9,367
575,18	11,229
575,37	9,663
575,57	10,203
575,76	12,045
575,96	11,128
576,15	10,379
576,34	10,070
576,54	11,765
576,73	11,230
576,93	11,436
577,12	12,558
577,31	10,865
577,51	8,428
577,70	10,255
577,90	11,723
578,09	9,538
578,28	10,383
578,48	10,208
578,67	13,094
578,87	12,073
579,06	9,793
579,25	11,389
579,45	12,461
579,64	9,900
579,84	9,741
580,03	8,868
580,22	13,305
580,42	9,771
580,61	10,554
580,81	11,089
581,00	11,862
581,19	12,499
581,39	11,632
581,58	10,491
581,77	11,317
581,97	12,670
582,16	11,699
582,35	10,695
582,55	10,554
582,74	13,900
582,94	11,103
583,13	9,798
583,32	12,661
583,52	11,966
583,71	12,801
583,90	10,720
584,10	12,390
584,29	14,835
584,48	10,679
584,68	13,005
584,87	13,909
585,06	12,173
585,26	11,435
585,45	12,514
585,65	13,570
585,84	11,757
586,03	11,818
586,23	9,807
586,42	14,874
586,61	15,430
586,81	13,326
587,00	11,229
587,19	13,396
587,39	15,278
587,58	12,734
587,77	13,651
587,97	13,610
588,16	13,133
588,35	13,061
588,54	14,079
588,74	12,775
588,93	15,681
589,12	14,282
589,32	13,329
589,51	13,579
589,70	13,357
589,90	14,070
590,09	13,548
590,28	18,068
590,48	12,808
590,67	15,460
590,86	14,695
591,06	15,810
591,25	17,221
591,44	16,782
591,63	14,260
591,83	15,689
592,02	16,052
592,21	13,627
592,41	14,451
592,60	17,115
592,79	15,009
592,98	15,975
593,18	15,393
593,37	16,771
593,56	16,976
593,76	16,956
593,95	15,764
594,14	15,282
594,33	19,641
594,53	16,526
594,72	16,219
594,91	19,333
595,10	17,187
595,30	16,571
595,49	15,084
595,68	18,849
595,88	19,240
596,07	17,174
596,26	17,716
596,45	18,561
596,65	17,462
596,84	17,211
597,03	18,862
597,22	18,350
597,42	21,110
597,61	18,431
597,80	18,383
597,99	18,305
598,19	18,397
598,38	17,851
598,57	17,932
598,76	19,496
598,95	19,987
599,15	19,148
599,34	19,491
599,53	19,553
599,72	18,367
599,92	20,941
600,11	17,865
600,30	19,824
600,49	21,485
600,69	19,005
600,88	20,922
601,07	19,706
601,26	19,526
601,45	18,462
601,65	20,293
601,84	21,159
602,03	21,099
602,22	21,295
602,42	22,035
602,61	20,186
602,80	22,133
602,99	22,006
603,18	20,763
603,38	23,610
603,57	21,154
603,76	21,476
603,95	20,554
604,14	22,627
604,34	21,771
604,53	20,977
604,72	22,660
604,91	22,167
605,10	22,640
605,29	22,372
605,49	20,430
605,68	23,466
605,87	24,385
606,06	21,204
606,25	21,121
606,45	23,150
606,64	23,325
606,83	22,894
607,02	21,637
607,21	24,840
607,40	23,415
607,60	21,010
607,79	22,153
607,98	20,791
608,17	20,566
608,36	22,327
608,55	22,764
608,75	24,416
608,94	22,909
609,13	19,322
609,32	18,839
609,51	21,172
609,70	19,111
609,89	21,754
610,09	19,991
610,28	22,708
610,47	20,594
610,66	19,868
610,85	20,070
611,04	22,440
611,23	20,420
611,43	19,077
611,62	20,563
611,81	20,889
612,00	20,186
612,19	19,553
612,38	20,044
612,57	21,799
612,77	22,007
612,96	22,188
613,15	22,046
613,34	24,266
613,53	23,638
613,72	23,004
613,91	22,639
614,10	22,616
614,29	25,078
614,49	22,078
614,68	22,598
614,87	24,899
615,06	27,241
615,25	21,630
615,44	25,667
615,63	23,853
615,82	24,522
616,01	24,026
616,21	25,037
616,40	26,718
616,59	29,398
616,78	24,787
616,97	26,379
617,16	26,536
617,35	27,598
617,54	25,278
617,73	27,437
617,92	26,283
618,11	26,819
618,31	22,995
618,50	25,350
618,69	28,225
618,88	24,757
619,07	24,130
619,26	24,958
619,45	25,598
619,64	25,267
619,83	24,738
620,02	24,683
620,21	28,475
620,40	29,264
620,59	25,562
620,78	26,637
620,97	27,969
621,17	29,681
621,36	27,064
621,55	26,552
621,74	28,316
621,93	28,868
622,12	27,128
622,31	25,824
622,50	26,343
622,69	30,969
622,88	28,994
623,07	30,937
623,26	28,051
623,45	30,564
623,64	28,235
623,83	27,628
624,02	30,393
624,21	29,547
624,40	28,187
624,59	28,169
624,78	28,018
624,97	31,378
625,16	27,414
625,35	26,404
625,54	27,107
625,73	28,527
625,92	27,816
626,12	29,832
626,31	29,649
626,50	28,894
626,69	29,304
626,88	28,070
627,07	29,456
627,26	28,898
627,45	27,205
627,64	29,126
627,83	30,736
628,02	28,985
628,21	28,976
628,40	29,001
628,59	31,991
628,78	27,838
628,97	27,276
629,16	27,015
629,35	29,719
629,54	32,201
629,73	29,701
629,92	26,947
630,10	30,275
630,29	27,648
630,48	29,290
630,67	28,931
630,86	32,238
631,05	29,027
631,24	31,272
631,43	27,234
631,62	29,338
631,81	29,961
632,00	29,503
632,19	27,230
632,38	30,274
632,57	27,742
632,76	29,620
632,95	29,036
633,14	32,640
633,33	30,863
633,52	29,438
633,71	31,771
633,90	29,372
634,09	30,833
634,28	30,317
634,47	29,337
634,66	29,533
634,85	29,995
635,04	33,696
635,22	29,603
635,41	30,171
635,60	33,179
635,79	31,799
635,98	28,809
636,17	29,380
636,36	31,202
636,55	31,044
636,74	28,983
636,93	28,887
637,12	32,242
637,31	29,459
637,50	29,745
637,69	30,580
637,87	31,388
638,06	30,041
638,25	29,638
638,44	32,880
638,63	28,124
638,82	31,427
639,01	30,838
639,20	31,496
639,39	32,994
639,58	31,067
639,77	32,103
639,95	30,410
640,14	32,406
640,33	30,868
640,52	31,372
640,71	35,580
640,90	32,213
641,09	32,349
641,28	31,587
641,47	33,383
641,66	31,884
641,84	31,369
642,03	30,027
642,22	32,817
642,41	34,316
642,60	32,042
642,79	31,123
642,98	33,377
643,17	31,335
643,35	30,166
643,54	31,190
643,73	33,949
643,92	34,147
644,11	31,090
644,30	30,418
644,49	33,090
644,67	32,567
644,86	30,656
645,05	33,353
645,24	30,002
645,43	31,089
645,62	32,789
645,81	32,200
645,99	33,807
646,18	31,786
646,37	31,632
646,56	31,514
646,75	33,735
646,94	34,600
647,13	31,332
647,31	31,725
647,50	32,362
647,69	34,114
647,88	32,963
648,07	32,882
648,26	36,680
648,44	33,214
648,63	31,314
648,82	32,497
649,01	33,562
649,20	29,530
649,38	31,850
649,57	30,839
649,76	29,729
649,95	33,210
650,14	30,044
650,33	30,257
650,51	33,471
650,70	33,573
650,89	31,990
651,08	31,851
651,27	32,624
651,45	32,103
651,64	32,044
651,83	32,347
652,02	32,196
652,21	34,229
652,39	32,270
652,58	32,582
652,77	32,942
652,96	32,562
653,15	32,046
653,33	32,259
653,52	32,088
653,71	34,488
653,90	31,981
654,09	32,004
654,27	31,410
654,46	33,716
654,65	31,901
654,84	32,162
655,02	33,006
655,21	33,385
655,40	33,692
655,59	32,112
655,77	33,389
655,96	32,576
656,15	32,244
656,34	32,898
656,53	32,116
656,71	33,554
656,90	32,624
657,09	33,416
657,28	32,933
657,46	32,590
657,65	33,020
657,84	30,722
658,03	33,416
658,21	32,808
658,40	32,720
658,59	32,730
658,78	32,639
658,96	31,647
659,15	33,269
659,34	31,915
659,52	31,996
659,71	34,096
659,90	32,960
660,09	32,586
660,27	31,749
660,46	35,341
660,65	32,046
660,84	30,721
661,02	34,082
661,21	34,381
661,40	31,909
661,58	31,865
661,77	33,667
661,96	30,458
662,15	32,565
662,33	31,372
662,52	31,508
662,71	34,104
662,89	30,807
663,08	32,869
663,27	32,716
663,45	33,851
663,64	32,647
663,83	30,459
664,02	32,062
664,20	34,406
664,39	32,054
664,58	31,973
664,76	32,501
664,95	33,938
665,14	31,663
665,32	32,466
665,51	33,186
665,70	33,892
665,88	33,171
666,07	32,036
666,26	35,158
666,44	33,348
666,63	32,016
666,82	32,860
667,00	34,462
667,19	31,094
667,38	33,246
667,56	33,534
667,75	32,097
667,94	33,772
668,12	30,773
668,31	33,692
668,50	34,535
668,68	34,134
668,87	32,913
669,06	33,516
669,24	33,225
669,43	32,099
669,62	30,315
669,80	30,765
669,99	32,212
670,18	33,271
670,36	32,166
670,55	33,439
670,74	32,090
670,92	30,425
671,11	33,523
671,29	31,526
671,48	32,610
671,67	34,447
671,85	34,733
672,04	31,266
672,23	31,037
672,41	33,701
672,60	33,227
672,78	33,307
672,97	32,173
673,16	33,040
673,34	33,487
673,53	33,129
673,71	32,470
673,90	34,205
674,09	32,549
674,27	32,314
674,46	33,254
674,64	31,742
674,83	31,598
675,02	30,799
675,20	33,241
675,39	31,941
675,57	33,527
675,76	30,617
675,95	34,157
676,13	34,410
676,32	33,424
676,50	33,705
676,69	32,133
676,88	31,959
677,06	31,872
677,25	31,246
677,43	36,275
677,62	34,162
677,80	31,351
677,99	33,194
678,18	33,316
678,36	35,008
678,55	31,125
678,73	31,285
678,92	33,580
679,10	33,253
679,29	32,733
679,48	31,275
679,66	32,222
679,85	32,985
680,03	31,764
680,22	31,091
680,40	32,759
680,59	32,667
680,77	32,408
680,96	32,728
681,15	33,689
681,33	33,361
681,52	32,083
681,70	33,666
681,89	34,522
682,07	31,882
682,26	33,199
682,44	33,280
682,63	34,254
682,81	34,204
683,00	35,135
683,18	32,256
683,37	34,876
683,55	33,822
683,74	33,203
683,92	39,114
684,11	34,016
684,29	34,786
684,48	30,862
684,67	31,195
684,85	33,505
685,04	33,430
685,22	34,500
685,41	32,732
685,59	33,258
685,78	32,443
685,96	31,594
686,15	32,687
686,33	31,588
686,52	33,325
686,70	31,284
686,89	32,966
687,07	34,595
687,26	34,534
687,44	33,819
687,62	31,498
687,81	34,363
687,99	34,460
688,18	33,307
688,36	33,884
688,55	33,411
688,73	33,454
688,92	31,640
689,10	33,036
689,29	34,586
689,47	34,339
689,66	32,532
689,84	31,870
690,03	34,076
690,21	31,591
690,40	32,164
690,58	31,620
690,76	31,449
690,95	33,528
691,13	31,132
691,32	34,221
691,50	33,583
691,69	33,553
691,87	31,521
692,06	31,410
692,24	31,416
692,43	33,679
692,61	31,954
692,79	31,725
692,98	30,936
693,16	33,722
693,35	32,269
693,53	33,936
693,72	32,731
693,90	34,414
694,08	31,142
694,27	32,438
694,45	35,089
694,64	35,511
694,82	33,379
695,01	32,241
695,19	33,058
695,37	32,737
695,56	31,927
695,74	33,241
695,93	34,331
696,11	32,245
696,29	34,409
696,48	34,359
696,66	32,322
696,85	33,006
697,03	31,708
697,21	33,912
697,40	34,352
697,58	34,864
697,77	31,391
697,95	33,606
698,13	33,407
698,32	33,573
698,50	34,633
698,69	32,091
698,87	34,203
699,05	32,374
699,24	31,483
699,42	32,418
699,60	29,628
699,79	31,679
699,97	32,107
700,16	30,517
700,34	34,938
700,52	33,450
700,71	32,207
700,89	31,876
701,07	33,496
701,26	33,376
701,44	32,618
701,63	31,882
701,81	33,909
701,99	34,285
702,18	31,607
702,36	31,789
702,54	33,660
702,73	31,961
702,91	33,094
703,09	31,079
703,28	34,076
703,46	33,465
703,64	32,846
703,83	32,848
704,01	33,842
704,19	32,560
704,38	30,514
704,56	32,009
704,74	35,138
704,93	32,884
705,11	33,037
705,29	33,270
705,48	38,711
705,66	33,008
705,84	33,121
706,03	29,953
706,21	33,922
706,39	32,372
706,58	30,417
706,76	31,552
706,94	34,600
707,12	33,302
707,31	30,533
707,49	30,715
707,67	32,776
707,86	35,437
708,04	32,034
708,22	30,182
708,41	32,842
708,59	32,895
708,77	30,354
708,95	33,287
709,14	35,338
709,32	35,493
709,50	30,499
709,69	31,831
709,87	32,316
710,05	31,386
710,23	31,144
710,42	30,601
710,60	33,268
710,78	34,818
710,97	30,770
711,15	33,255
711,33	32,723
711,51	32,526
711,70	30,692
711,88	31,088
712,06	34,602
712,24	33,390
712,43	33,010
712,61	31,645
712,79	33,061
712,97	30,319
713,16	32,588
713,34	31,958
713,52	34,307
713,70	34,950
713,89	31,527
714,07	31,362
714,25	33,394
714,43	33,626
714,62	32,114
714,80	31,589
714,98	30,574
715,16	32,213
715,35	31,876
715,53	32,466
715,71	34,927
715,89	35,001
716,07	31,747
716,26	35,741
716,44	34,098
716,62	34,159
716,80	34,153
716,99	35,224
717,17	33,429
717,35	31,579
717,53	31,597
717,71	32,512
717,90	33,774
718,08	33,502
718,26	30,659
718,44	32,831
718,62	34,147
718,81	32,982
718,99	30,776
719,17	31,898
719,35	33,787
719,53	32,176
719,72	31,119
719,90	31,905
720,08	32,141
720,26	33,985
720,44	31,328
720,62	31,756
720,81	35,495
720,99	37,083
721,17	30,788
721,35	32,333
721,53	34,581
721,72	35,681
721,90	33,318
722,08	32,042
722,26	35,123
722,44	33,488
722,62	31,836
722,81	31,704
722,99	32,057
723,17	33,037
723,35	34,927
723,53	32,339
723,71	36,252
723,89	35,443
724,08	30,225
724,26	33,079
724,44	31,131
724,62	33,366
724,80	32,483
724,98	32,101
725,16	35,657
725,35	33,592
725,53	32,214
725,71	30,187
725,89	32,013
726,07	33,842
726,25	33,830
726,43	32,787
726,61	34,704
726,80	36,282
726,98	32,229
727,16	32,084
727,34	35,988
727,52	34,500
727,70	31,740
727,88	31,770
728,06	30,161
728,25	30,402
728,43	33,476
728,61	30,684
728,79	33,291
728,97	33,377
729,15	31,288
729,33	33,407
729,51	35,811
729,69	32,986
729,87	32,740
730,06	32,834
730,24	34,290
730,42	35,965
730,60	29,782
730,78	32,364
730,96	33,455
731,14	33,196
731,32	32,492
731,50	31,966
731,68	32,332
731,86	34,190
732,04	35,244
732,22	31,817
732,41	36,199
732,59	33,525
732,77	33,562
732,95	33,826
733,13	34,278
733,31	33,468
733,49	31,241
733,67	34,104
733,85	34,165
734,03	33,069
734,21	31,682
734,39	31,282
734,57	35,323
734,75	34,804
734,93	31,299
735,11	32,516
735,29	31,595
735,47	35,262
735,65	32,102
735,84	30,374
736,02	33,211
736,20	35,257
736,38	31,359
736,56	32,747
736,74	33,198
736,92	32,377
737,10	31,063
737,28	33,411
737,46	34,239
737,64	32,136
737,82	32,902
738,00	33,657
738,18	32,758
738,36	32,879
738,54	31,783
738,72	30,915
738,90	33,651
739,08	33,780
739,26	29,849
739,44	29,280
739,62	34,775
739,80	35,028
739,98	31,594
740,16	33,654
740,34	35,343
740,52	36,993
740,70	31,918
740,88	30,689
741,06	34,063
741,24	34,479
741,42	33,723
741,60	31,389
741,78	35,241
741,96	31,123
742,14	30,177
742,32	31,474
742,50	34,167
742,68	35,425
742,86	32,404
743,04	31,931
743,21	37,227
743,39	34,192
743,57	31,484
743,75	32,299
743,93	32,329
744,11	29,936
744,29	32,748
744,47	33,009
744,65	32,909
744,83	32,307
745,01	32,187
745,19	33,379
745,37	36,651
745,55	35,717
745,73	30,986
745,91	31,977
746,09	34,562
746,27	32,740
746,45	30,171
746,62	32,534
746,80	32,062
746,98	34,675
747,16	30,769
747,34	32,135
747,52	32,712
747,70	34,346
747,88	32,405
748,06	31,792
748,24	35,311
748,42	34,105
748,60	33,055
748,78	31,343
748,95	34,882
749,13	37,330
749,31	33,021
749,49	32,911
749,67	35,253
749,85	36,309
750,03	32,364
750,21	32,035
750,39	32,811
750,57	36,460
750,74	34,936
750,92	32,299
751,10	35,102
751,28	31,339
751,46	31,989
751,64	34,610
751,82	33,998
752,00	32,316
752,17	32,874
752,35	31,847
752,53	32,844
752,71	34,178
752,89	32,443
753,07	31,291
753,25	33,706
753,43	32,654
753,60	34,684
753,78	30,864
753,96	35,754
754,14	33,971
754,32	33,153
754,50	33,444
754,68	34,282
754,85	32,760
755,03	32,888
755,21	32,838
755,39	36,767
755,57	34,458
755,75	33,039
755,92	31,629
756,10	34,510
756,28	34,399
756,46	31,379
756,64	31,982
756,82	32,651
756,99	32,540
757,17	32,057
757,35	30,201
757,53	36,899
757,71	34,344
757,89	31,231
758,06	33,266
758,24	33,703
758,42	33,654
758,60	31,727
758,78	32,706
758,95	35,164
759,13	34,153
759,31	32,552
759,49	31,516
759,67	31,169
759,84	32,950
760,02	33,662
760,20	32,755
760,38	31,805
760,56	33,187
760,73	32,496
760,91	33,153
761,09	34,376
761,27	31,701
761,45	32,491
761,62	31,630
761,80	33,636
761,98	33,568
762,16	31,994
762,33	32,994
762,51	34,884
762,69	32,165
762,87	33,516
763,05	34,185
763,22	30,890
763,40	32,677
763,58	32,454
763,76	32,779
763,93	35,851
764,11	34,832
764,29	30,771
764,47	31,573
764,64	34,460
764,82	35,287
765,00	31,328
765,18	30,344
765,35	31,848
765,53	31,447
765,71	33,201
765,89	30,592
766,06	32,617
766,24	31,909
766,42	34,310
766,60	31,030
766,77	32,400
766,95	32,035
767,13	32,167
767,30	34,471
767,48	32,956
767,66	32,668
767,84	31,040
768,01	32,294
768,19	36,239
768,37	33,438
768,54	32,498
768,72	32,342
768,90	33,518
769,08	32,377
769,25	32,140
769,43	30,260
769,61	30,608
769,78	34,984
769,96	30,694
770,14	32,854
770,31	35,884
770,49	36,401
770,67	33,400
770,85	32,212
771,02	33,420
771,20	33,291
771,38	33,929
771,55	32,032
771,73	32,043
771,91	33,353
772,08	33,721
772,26	33,149
772,44	32,791
772,61	31,462
772,79	32,296
772,97	32,917
773,14	30,810
773,32	34,932
773,50	33,704
773,67	33,102
773,85	34,587
774,03	37,032
774,20	30,536
774,38	32,165
774,56	32,368
774,73	33,781
774,91	31,942
775,09	33,920
775,26	34,271
775,44	34,427
775,61	35,425
775,79	31,886
775,97	34,100
776,14	33,098
776,32	31,163
776,50	32,112
776,67	33,401
776,85	33,215
777,03	30,942
777,20	33,857
777,38	35,357
777,55	33,150
777,73	29,478
777,91	30,181
778,08	32,758
778,26	32,047
778,43	34,452
778,61	27,862
778,79	30,054
778,96	32,190
779,14	31,603
779,32	32,267
779,49	33,306
779,67	35,559
779,84	32,785
780,02	32,800
780,20	30,303
780,37	34,671
780,55	32,428
780,72	36,723
780,90	32,265
781,07	34,483
781,25	32,864
781,43	33,248
781,60	31,316
781,78	34,497
781,95	35,428
782,13	34,298
782,30	35,131
782,48	32,816
782,66	30,808
782,83	30,960
783,01	37,750
783,18	34,598
783,36	32,394
783,53	34,142
783,71	31,712
783,89	31,109
784,06	34,152
784,24	34,149
784,41	33,164
784,59	31,166
784,76	32,621
784,94	33,416
785,11	32,333
785,29	34,184
785,46	32,909
785,64	32,906
785,82	33,372
785,99	32,959
786,17	33,095
786,34	31,471
786,52	33,379
786,69	36,137
786,87	34,366
787,04	32,822
787,22	30,971
787,39	35,265
787,57	32,277
787,74	31,125
787,92	34,409
788,09	34,766
788,27	32,662
788,44	34,266
788,62	35,497
788,79	33,422
788,97	36,365
789,14	32,426
789,32	32,213
789,49	33,841
789,67	34,180
789,84	32,079
790,02	35,483
790,19	32,973
790,37	32,787
790,54	33,425
790,72	38,964
790,89	39,265
791,07	35,811
791,24	31,164
791,42	34,548
791,59	35,663
791,77	32,522
791,94	31,370
792,12	31,614
792,29	34,498
792,47	33,048
792,64	37,442
792,81	33,608
792,99	31,702
793,16	32,966
793,34	33,111
793,51	34,668
793,69	36,864
793,86	33,737
794,04	34,659
794,21	35,775
794,39	30,112
794,56	32,323
794,73	32,261
794,91	37,832
795,08	33,623
795,26	33,598
795,43	31,886
795,61	36,276
795,78	37,524
795,95	35,789
796,13	31,744
796,30	35,074
796,48	32,104
796,65	35,938
796,83	32,749
797,00	36,698
797,17	30,015
797,35	32,346
797,52	33,848
797,70	38,203
797,87	34,944
798,04	31,745
798,22	33,182
798,39	34,035
798,57	33,334
798,74	35,727
798,91	31,419
799,09	33,716
799,26	36,620
799,44	35,076
799,61	32,755
799,78	33,412
799,96	41,248
800,13	33,458
800,31	35,713
800,48	37,072
800,65	38,458
800,83	35,147
801,00	32,482
801,17	33,556
801,35	33,426
801,52	31,892
801,70	34,888
801,87	34,523
802,04	37,217
802,22	31,716
802,39	33,968
802,56	40,144
802,74	35,554
802,91	33,495
803,08	32,865
803,26	33,965
803,43	35,043
803,61	32,182
803,78	33,345
803,95	34,353
804,13	33,420
804,30	33,117
804,47	35,393
804,65	36,504
804,82	40,178
804,99	36,774
805,17	34,425
805,34	39,227
805,51	40,156
805,69	31,744
805,86	27,475
806,03	48,119
806,21	36,071
806,38	37,738
806,55	35,442
806,72	41,391
806,90	40,317
807,07	33,215
807,24	32,707
807,42	33,524
807,59	35,217
807,76	33,116
807,94	33,721
808,11	39,272
808,28	41,298
808,45	32,571
808,63	36,539
808,80	35,522
808,97	37,317
809,15	32,752
809,32	36,188
809,49	34,687
809,67	35,150
809,84	33,738
810,01	35,889
810,18	45,000
810,36	37,665
810,53	35,162
810,70	33,904
810,87	35,504
811,05	32,701
811,22	36,668
811,39	30,504
811,57	38,323
811,74	35,837
811,91	32,429
812,08	32,099
812,26	39,000
812,43	35,774
812,60	38,151
812,77	31,106
812,95	39,023
813,12	38,880
813,29	29,047
813,46	36,006
813,64	39,184
813,81	37,938
813,98	33,094
814,15	37,018
814,32	37,077
814,50	36,235
814,67	38,034
814,84	34,799
815,01	35,474
815,19	30,650
815,36	26,776
815,53	38,300
815,70	32,096
815,87	36,179
816,05	34,124
816,22	30,728
816,39	38,380
816,56	42,537
816,74	37,652
816,91	38,532
817,08	42,356
817,25	38,879
817,42	35,757
817,60	36,109
817,77	37,588
817,94	39,588
818,11	29,137
818,28	35,065
818,45	38,649
818,63	34,767
818,80	33,278
818,97	36,282
819,14	42,030
819,31	47,684
819,49	37,567
819,66	35,350
819,83	34,563
820,00	38,260
820,17	38,270
820,34	32,488
820,52	43,117
820,69	39,433
820,86	33,691
821,03	36,442
821,20	35,926
821,37	38,304
821,55	28,061
821,72	28,611
821,89	41,911
822,06	40,963
822,23	31,064
822,40	37,411
822,57	38,932
822,75	39,761
822,92	31,741
823,09	33,640
823,26	39,769
823,43	41,491
823,60	32,539
823,77	34,645
823,94	37,931
824,12	42,517
824,29	35,328
824,46	32,882
824,63	41,677
824,80	40,825
824,97	38,819
825,14	38,516
825,31	40,502
825,49	30,326
825,66	33,113
825,83	34,540
826,00	39,954
826,17	44,644
826,34	38,479
826,51	27,629
826,68	35,351
826,85	40,684
827,02	27,175
827,20	27,847
827,37	34,913
827,54	38,032
827,71	32,326
827,88	38,584
828,05	36,724
828,22	39,910
828,39	44,992
828,56	39,223
828,73	37,158
828,90	35,994
829,07	32,918
829,25	32,957
829,42	36,421
829,59	33,392
829,76	33,789
829,93	32,984
830,10	34,501
830,27	35,930
830,44	37,029
830,61	36,578
830,78	47,940
830,95	37,759
831,12	33,482
831,29	35,576
831,46	34,281
831,63	31,976
831,80	34,927
831,97	34,535
832,14	41,900
832,31	47,483
832,48	30,294
832,65	38,878
832,83	33,619
833,00	42,013
833,17	29,580
833,34	39,026
833,51	42,967
833,68	50,886
833,85	37,399
834,02	29,896
834,19	42,003
834,36	43,250
834,53	27,269
834,70	34,057
834,87	45,622
835,04	39,954
835,21	38,080
835,38	30,684
835,55	38,647
835,72	56,118
835,89	36,483
836,06	40,753
836,23	52,961
836,40	32,940
836,57	26,186
836,74	45,628
836,91	41,519
837,08	51,970
837,25	32,005
837,42	33,692
837,59	36,091
837,76	47,904
837,93	29,175
838,09	35,108
838,26	41,043
838,43	50,750
838,60	39,475
838,77	33,754
838,94	44,117
839,11	34,825
839,28	34,715
839,45	36,013
839,62	38,085
839,79	40,325
839,96	36,640
840,13	42,094
840,30	35,002
840,47	34,003
840,64	30,554
840,81	37,739
840,98	29,419
841,15	51,201
841,32	28,132
841,48	45,103
841,65	42,430
841,82	39,172
841,99	34,499
842,16	30,725
842,33	38,863
842,50	50,004
842,67	35,365
842,84	32,695
843,01	40,315
843,18	39,197
843,35	23,541
843,52	34,665
843,68	39,959
843,85	43,536
844,02	35,510
844,19	26,869
844,36	48,477
844,53	36,067
844,70	33,530
844,87	45,889
845,04	40,272
845,21	26,516
845,37	45,878
845,54	35,003
845,71	36,501
845,88	57,521
846,05	34,889
846,22	27,589
846,39	42,333
846,56	40,892
846,72	26,074
846,89	35,611
847,06	52,885
847,23	51,976
847,40	30,650
847,57	30,376
847,74	41,208
847,90	55,233
848,07	41,557
848,24	37,469
848,41	39,697
848,58	62,197
848,75	40,057
848,92	35,241
849,08	45,451
849,25	40,663
849,42	30,752
849,59	36,080
849,76	30,367
849,93	48,585
850,09	37,738
850,26	33,189
850,43	57,471
850,60	36,937
850,77	38,248
850,94	42,465
851,10	39,629
851,27	41,417
851,44	39,165
851,61	31,863
851,78	60,902
851,95	52,822
852,11	28,382
852,28	34,335
852,45	39,320
852,62	45,352
852,79	36,295
852,95	38,035
853,12	49,748
853,29	39,235
853,46	30,746
853,63	48,611
853,79	35,704
853,96	32,216
854,13	47,582
854,30	31,694
854,46	65,706
854,63	39,877
854,80	41,776
854,97	23,749
855,14	55,854
855,30	53,186
855,47	22,956
855,64	40,903
855,81	38,234
855,97	48,081
856,14	38,823
856,31	29,216
856,48	56,229
856,65	59,198
856,81	37,993
856,98	25,321
857,15	29,914
857,32	49,764
857,48	35,253
857,65	45,955
857,82	53,875
857,99	50,737
858,15	42,313
858,32	42,559
858,49	46,188
858,65	65,127
858,82	46,457
858,99	39,316
859,16	50,810
859,32	55,387
859,49	28,811
859,66	30,604
859,83	47,229
859,99	31,779
860,16	49,951
860,33	34,380
860,49	46,150
860,66	51,422
860,83	37,741
861,00	41,218
861,16	61,508
861,33	57,757
861,50	27,896
861,66	46,928
861,83	67,663
862,00	46,711
862,16	30,503
862,33	39,914
862,50	72,170
862,67	52,333
862,83	43,564
863,00	62,291
863,17	64,607
863,33	38,000
863,50	2,048
863,67	41,322
863,83	58,748
864,00	50,167
864,17	30,419
864,33	35,542
864,50	42,959
864,67	57,351
864,83	25,365
865,00	45,097
865,17	35,435
865,33	66,940
865,50	20,039
865,67	35,137
865,83	55,092
866,00	96,378
866,17	58,931
866,33	50,575
866,50	69,246
866,66	44,551
866,83	57,122
867,00	39,092
867,16	86,244
867,33	78,986
867,50	10,277
867,66	32,150
867,83	81,243
868,00	71,621
868,16	39,031
868,33	38,033
868,49	54,376
868,66	60,625
868,83	30,923
868,99	51,194
869,16	53,873
869,32	71,226
869,49	34,927
869,66	35,572
869,82	82,293
869,99	61,359
870,15	26,930
870,32	46,590
870,49	86,230
870,65	102,634
870,82	58,567
870,98	39,653
871,15	99,257
871,32	66,683
871,48	-3,500
871,65	15,340
871,81	57,956
871,98	28,548
872,15	39,460
872,31	34,748
872,48	111,353
872,64	73,250
872,81	31,477
872,97	30,585
873,14	75,838
873,31	66,774
873,47	57,363
873,64	39,351
873,80	131,026
873,97	114,366
874,13	20,652
874,30	34,150
874,46	88,585
874,63	72,850
874,80	63,555
874,96	44,273
875,13	92,634
875,29	53,715
875,46	58,662
875,62	19,470
875,79	107,255
875,95	65,746
876,12	37,439
876,28	5,364
876,45	112,537
876,61	68,710
876,78	26,402
876,94	24,837
877,11	76,240
877,27	74,813
877,44	22,428
877,60	28,230
877,77	63,431
877,94	99,204
878,10	14,949
878,27	68,340
878,43	152,602
878,60	41,404
878,76	52,689
878,93	53,567
879,09	68,080
879,26	98,189
879,42	35,333
879,58	63,557
879,75	102,705
879,91	140,987
880,08	-62,069
880,24	15,275
880,41	77,199
880,57	112,400
880,74	35,129
880,90	46,044
881,07	71,920
881,23	134,148
881,40	59,041
881,56	64,495
881,73	103,917
881,89	93,969
882,06	-18,314
882,22	125,597
882,38	153,230
882,55	183,194
882,71	49,757
882,88	39,457
883,04	166,854
883,21	220,467
883,37	68,983
883,54	31,644
883,70	228,008
883,86	112,500
884,03	47,221
884,19	16,369
884,36	113,040
884,52	231,805
884,69	106,746
884,85	33,476
885,01	178,708
885,18	153,400
885,34	181,353
885,51	-39,927
885,67	69,956
>>>>> Data<<<<< Espectral Procesado Extremo
