Fichero De Datos De SpectraSuite
++++++++++++++++++++++++++++++++++++
Fecha: Wed Apr 22 13:27:52 CEST 2009
Usuario: evoflor
Presente Oscuro Del Espectro: Sí
La Referencia de Presente Del Espectro De: Sí
Muestreados de los componentes de Número de espectros: 1
Espectrómetros: USB4F02353
Tiempo de integración (usec): 500000 (USB4F02353)
Promedio de Espectros Hechos un: 5 (USB4F02353)
El Alisar Del Furgón: 0 (USB4F02353)
Párrafo de de Corregir del la del del de Eléctrica del obscuridad: Sí (USB4F02353)
Estrobo/Lámpara Permitido: No (USB4F02353)
Correct for Detector Non-linearity: No (USB4F02353)
Párrafo de de Corregir del la del del de Externa del luz: No (USB4F02353)
Procesado del espectro de Número de pixeles en: 3648
>>>>> Comienza Data<<<<< Espectral Procesado Del EL
177,79	312,747
178,00	312,747
178,22	312,747
178,44	1600,220
178,66	-338,515
178,88	257,394
179,09	-69,702
179,31	344,661
179,53	844,830
179,75	54,759
179,96	-45,000
180,18	-271,938
180,40	493,567
180,62	263,077
180,83	-207,521
181,05	-1747,317
181,27	-134280,000
181,49	-4,304
181,70	-33,923
181,92	476,041
182,14	854,458
182,36	75,373
182,58	295,200
182,79	884,732
183,01	-110,138
183,23	52,344
183,45	-277,477
183,66	-319,381
183,88	392,824
184,10	-3783,273
184,32	457,129
184,53	242,168
184,75	-216,064
184,97	24,618
185,18	-122,143
185,40	-1112,885
185,62	180,184
185,84	98,646
186,05	154,817
186,27	-205,524
186,49	3780,000
186,71	77,552
186,92	140,605
187,14	-229,798
187,36	163,001
187,58	115,701
187,79	-0,274
188,01	288,223
188,23	-330,341
188,45	-134,855
188,66	-143,839
188,88	-2768,727
189,10	-1909,800
189,31	-100,137
189,53	-37,445
189,75	477,000
189,97	627,231
190,18	-138,283
190,40	525,176
190,62	-170,479
190,83	-220,973
191,05	47,504
191,27	134,229
191,49	396,980
191,70	-684,519
191,92	-291,356
192,14	-99,272
192,35	551,936
192,57	5276,571
192,79	42,784
193,01	153,745
193,22	106,476
193,44	-204,573
193,66	112,714
193,87	262,484
194,09	-56,997
194,31	214,296
194,53	529,930
194,74	158,516
194,96	75,038
195,18	189,227
195,39	-275,937
195,61	-127,321
195,83	-299,739
196,04	136,138
196,26	-448,643
196,48	-11,446
196,70	410,099
196,91	-8,151
197,13	344,506
197,35	35,211
197,56	627,492
197,78	1579,701
198,00	492,168
198,21	219,320
198,43	-1424,302
198,65	169,903
198,86	240,216
199,08	136,328
199,30	279,109
199,51	-346,515
199,73	165,877
199,95	263,317
200,16	537,231
200,38	292,602
200,60	174,864
200,81	376,188
201,03	161,902
201,25	-2611,800
201,46	201,249
201,68	61,244
201,90	4238,182
202,11	-241,145
202,33	181,293
202,55	396,000
202,76	-111,419
202,98	198,188
203,20	3,462
203,41	-806,211
203,63	53,650
203,85	-192780,000
204,06	38,005
204,28	-134,892
204,50	242,517
204,71	334,240
204,93	-200,160
205,15	24,940
205,36	-286,004
205,58	141,996
205,80	-72,773
206,01	88,778
206,23	200,338
206,45	317,718
206,66	126,919
206,88	-65,345
207,10	223,364
207,31	415,073
207,53	139,371
207,75	10,981
207,96	1431,940
208,18	-359,693
208,39	47,683
208,61	3759,429
208,83	-562,610
209,04	407,024
209,26	-141,843
209,48	318,847
209,69	302,226
209,91	727,297
210,13	66,850
210,34	146,441
210,56	198,785
210,77	-1525,039
210,99	120,834
211,21	9116,471
211,42	-189,460
211,64	-24,508
211,86	213,879
212,07	307,197
212,29	316,985
212,50	145,611
212,72	156,462
212,94	209,790
213,15	156,183
213,37	160,618
213,58	-168,027
213,80	-1388,571
214,02	15945,882
214,23	302,518
214,45	590,754
214,67	700,244
214,88	-393,221
215,10	-342,570
215,31	-194,148
215,53	-69,136
215,75	299,270
215,96	1879,379
216,18	712,394
216,39	240,584
216,61	383,581
216,83	639,643
217,04	1640,225
217,26	-51,968
217,47	185,904
217,69	340,578
217,91	76,082
218,12	-80280,000
218,34	100,321
218,55	489,867
218,77	61,933
218,99	159,800
219,20	-178,316
219,42	378,933
219,63	107,079
219,85	-163,773
220,06	114,923
220,28	220,716
220,50	112,870
220,71	94,003
220,93	3909,057
221,14	-2107,800
221,36	-69,178
221,58	71,673
221,79	122,470
222,01	529,138
222,22	291,316
222,44	-291,236
222,65	137,235
222,87	762,797
223,09	156,754
223,30	68,966
223,52	119,590
223,73	154,111
223,95	-66,930
224,16	267,588
224,38	358,720
224,60	96,019
224,81	173,735
225,03	181,586
225,24	333,646
225,46	-4,186
225,67	-17,356
225,89	21,440
226,10	377,349
226,32	1304,640
226,54	43,565
226,75	77,615
226,97	149,915
227,18	211,942
227,40	-4,693
227,61	57,052
227,83	59,113
228,04	146,539
228,26	63,571
228,47	54,891
228,69	301,669
228,91	148,540
229,12	102,138
229,34	36,964
229,55	74,528
229,77	49,334
229,98	-10,588
230,20	45,546
230,41	-33,832
230,63	82,785
230,84	111,486
231,06	5,304
231,27	30,233
231,49	53,454
231,71	29,204
231,92	43,475
232,14	23,190
232,35	123,365
232,57	69,646
232,78	12,004
233,00	63,997
233,21	45,704
233,43	0,049
233,64	9,279
233,86	38,748
234,07	59,964
234,29	16,840
234,50	27,858
234,72	58,184
234,93	23,455
235,15	19,062
235,36	23,713
235,58	51,714
235,79	58,536
236,01	5,299
236,22	9,139
236,44	63,266
236,65	24,791
236,87	26,671
237,08	5,887
237,30	4,638
237,51	24,360
237,73	-6,668
237,94	16,852
238,16	24,961
238,37	7,991
238,59	15,352
238,80	17,630
239,02	18,695
239,23	30,077
239,45	12,236
239,66	20,167
239,88	31,132
240,09	23,345
240,31	8,987
240,52	12,952
240,74	21,646
240,95	10,273
241,17	17,054
241,38	11,592
241,60	13,493
241,81	32,508
242,03	3,541
242,24	14,993
242,46	22,619
242,67	10,770
242,89	18,011
243,10	23,601
243,32	27,037
243,53	20,860
243,75	8,465
243,96	13,760
244,18	13,917
244,39	15,570
244,60	11,079
244,82	8,689
245,03	24,720
245,25	13,786
245,46	25,615
245,68	10,997
245,89	25,210
246,11	24,528
246,32	17,708
246,54	12,171
246,75	18,218
246,97	13,872
247,18	21,671
247,39	6,772
247,61	16,438
247,82	17,588
248,04	8,477
248,25	8,749
248,47	18,215
248,68	17,435
248,90	4,825
249,11	8,195
249,33	19,391
249,54	12,903
249,75	4,858
249,97	12,013
250,18	18,755
250,40	20,548
250,61	0,183
250,83	7,730
251,04	10,444
251,25	15,443
251,47	7,556
251,68	13,302
251,90	15,035
252,11	16,979
252,33	3,815
252,54	13,159
252,76	10,240
252,97	6,677
253,18	5,695
253,40	10,205
253,61	12,077
253,83	12,817
254,04	11,256
254,25	9,100
254,47	8,893
254,68	13,337
254,90	6,933
255,11	13,343
255,33	10,238
255,54	8,785
255,75	6,184
255,97	9,974
256,18	8,023
256,40	11,469
256,61	14,430
256,82	3,172
257,04	19,313
257,25	6,680
257,47	7,251
257,68	8,672
257,89	14,599
258,11	13,946
258,32	12,342
258,54	8,597
258,75	15,595
258,96	13,836
259,18	9,535
259,39	5,121
259,61	13,454
259,82	9,433
260,03	13,088
260,25	9,074
260,46	12,776
260,68	8,349
260,89	8,528
261,10	7,984
261,32	7,347
261,53	8,790
261,75	11,395
261,96	4,042
262,17	17,018
262,39	18,049
262,60	7,128
262,81	3,455
263,03	14,983
263,24	9,840
263,46	4,764
263,67	3,986
263,88	7,201
264,10	10,967
264,31	7,806
264,52	9,433
264,74	13,678
264,95	6,988
265,17	14,272
265,38	8,478
265,59	13,812
265,81	15,069
266,02	5,424
266,23	5,762
266,45	20,317
266,66	12,329
266,87	9,986
267,09	8,600
267,30	13,953
267,52	14,909
267,73	7,645
267,94	8,632
268,16	14,560
268,37	9,532
268,58	6,241
268,80	6,558
269,01	9,840
269,22	10,213
269,44	12,226
269,65	10,468
269,86	5,407
270,08	8,709
270,29	5,572
270,50	8,024
270,72	12,447
270,93	10,443
271,14	5,048
271,36	5,694
271,57	13,734
271,78	13,588
272,00	9,546
272,21	10,295
272,42	13,588
272,64	10,207
272,85	6,642
273,06	6,700
273,28	11,801
273,49	11,382
273,70	10,820
273,92	9,498
274,13	13,239
274,34	9,624
274,56	8,528
274,77	5,312
274,98	9,932
275,20	10,204
275,41	9,636
275,62	8,141
275,84	7,235
276,05	12,912
276,26	5,790
276,47	2,977
276,69	16,104
276,90	12,445
277,11	7,346
277,33	6,320
277,54	10,275
277,75	10,313
277,97	3,540
278,18	5,966
278,39	15,117
278,61	5,838
278,82	9,724
279,03	7,684
279,24	9,133
279,46	6,656
279,67	11,162
279,88	5,424
280,10	14,378
280,31	4,216
280,52	7,845
280,73	5,214
280,95	10,094
281,16	11,030
281,37	7,286
281,59	11,901
281,80	15,142
282,01	8,714
282,22	6,735
282,44	3,519
282,65	16,025
282,86	10,977
283,08	8,099
283,29	8,286
283,50	7,630
283,71	10,306
283,93	6,358
284,14	9,867
284,35	6,467
284,56	9,587
284,78	6,337
284,99	8,998
285,20	12,015
285,42	8,423
285,63	6,296
285,84	3,729
286,05	6,547
286,27	7,588
286,48	5,152
286,69	5,940
286,90	8,344
287,12	6,715
287,33	8,127
287,54	6,570
287,75	9,540
287,97	9,290
288,18	6,047
288,39	3,595
288,60	7,650
288,82	8,858
289,03	6,917
289,24	8,728
289,45	12,417
289,67	9,515
289,88	6,453
290,09	9,813
290,30	9,404
290,52	6,831
290,73	10,019
290,94	1,599
291,15	6,685
291,37	9,720
291,58	8,687
291,79	4,996
292,00	10,051
292,21	10,247
292,43	8,085
292,64	6,025
292,85	6,808
293,06	8,231
293,28	5,184
293,49	5,442
293,70	11,423
293,91	5,821
294,12	6,565
294,34	8,260
294,55	8,233
294,76	7,823
294,97	10,608
295,19	6,608
295,40	7,086
295,61	9,316
295,82	1,448
296,03	8,653
296,25	9,602
296,46	3,277
296,67	4,918
296,88	2,890
297,09	10,300
297,31	5,847
297,52	9,144
297,73	6,927
297,94	12,321
298,15	10,666
298,37	5,372
298,58	12,149
298,79	9,724
299,00	4,896
299,21	7,773
299,43	3,190
299,64	12,083
299,85	8,504
300,06	4,722
300,27	4,959
300,49	13,667
300,70	9,092
300,91	6,108
301,12	6,667
301,33	11,556
301,54	6,533
301,76	7,694
301,97	5,757
302,18	8,214
302,39	8,453
302,60	17,621
302,82	6,783
303,03	8,846
303,24	8,807
303,45	9,380
303,66	7,738
303,87	7,773
304,09	12,371
304,30	5,133
304,51	6,488
304,72	6,158
304,93	12,302
305,14	5,462
305,36	3,323
305,57	7,406
305,78	9,309
305,99	7,126
306,20	7,005
306,41	6,693
306,62	5,329
306,84	2,909
307,05	4,631
307,26	7,557
307,47	10,317
307,68	5,520
307,89	6,623
308,11	7,836
308,32	8,657
308,53	7,567
308,74	5,544
308,95	8,312
309,16	8,347
309,37	10,561
309,59	6,181
309,80	8,268
310,01	6,517
310,22	8,292
310,43	4,600
310,64	6,546
310,85	8,667
311,06	6,237
311,28	6,620
311,49	7,291
311,70	11,828
311,91	4,429
312,12	6,473
312,33	9,231
312,54	7,068
312,75	8,525
312,97	5,298
313,18	9,761
313,39	4,338
313,60	4,754
313,81	7,373
314,02	9,326
314,23	10,498
314,44	2,415
314,65	6,169
314,87	5,497
315,08	5,113
315,29	8,539
315,50	8,238
315,71	11,063
315,92	11,224
316,13	6,967
316,34	7,224
316,55	10,220
316,77	3,032
316,98	5,249
317,19	6,820
317,40	7,519
317,61	9,764
317,82	6,787
318,03	5,634
318,24	7,771
318,45	10,148
318,66	6,153
318,87	4,818
319,09	9,061
319,30	10,226
319,51	9,197
319,72	9,044
319,93	9,531
320,14	9,596
320,35	9,670
320,56	5,641
320,77	6,467
320,98	12,801
321,19	5,718
321,40	7,664
321,62	9,466
321,83	6,538
322,04	6,312
322,25	6,449
322,46	12,406
322,67	9,524
322,88	6,231
323,09	6,449
323,30	10,265
323,51	11,491
323,72	8,147
323,93	4,035
324,14	6,186
324,35	2,943
324,56	4,808
324,77	6,171
324,99	5,344
325,20	3,345
325,41	9,782
325,62	5,812
325,83	6,695
326,04	4,428
326,25	7,734
326,46	3,811
326,67	7,834
326,88	9,060
327,09	6,927
327,30	4,456
327,51	9,720
327,72	11,050
327,93	10,400
328,14	4,688
328,35	6,682
328,56	8,860
328,77	6,447
328,98	6,366
329,19	7,668
329,40	9,931
329,61	5,299
329,82	2,122
330,04	10,180
330,25	4,736
330,46	8,619
330,67	5,982
330,88	7,363
331,09	6,942
331,30	7,008
331,51	6,755
331,72	9,539
331,93	9,794
332,14	7,282
332,35	7,101
332,56	7,591
332,77	10,129
332,98	4,550
333,19	5,892
333,40	7,330
333,61	6,346
333,82	8,354
334,03	8,039
334,24	10,922
334,45	7,459
334,66	8,002
334,87	8,516
335,08	7,054
335,29	5,280
335,50	5,253
335,71	3,099
335,92	11,275
336,13	8,542
336,34	5,509
336,55	9,550
336,76	11,521
336,97	7,349
337,18	4,619
337,39	5,465
337,60	7,875
337,81	6,814
338,02	5,729
338,23	6,503
338,44	7,831
338,65	6,379
338,86	7,752
339,07	5,888
339,28	7,418
339,49	7,750
339,70	2,916
339,91	6,231
340,11	9,568
340,32	6,166
340,53	5,016
340,74	2,225
340,95	2,929
341,16	9,601
341,37	3,374
341,58	1,777
341,79	5,416
342,00	7,688
342,21	5,933
342,42	6,237
342,63	9,842
342,84	5,016
343,05	9,306
343,26	7,796
343,47	8,956
343,68	5,618
343,89	5,187
344,10	6,415
344,31	9,390
344,52	7,527
344,73	4,884
344,94	8,577
345,14	8,332
345,35	8,295
345,56	6,718
345,77	6,992
345,98	7,934
346,19	4,962
346,40	6,251
346,61	7,863
346,82	7,159
347,03	6,368
347,24	9,260
347,45	6,475
347,66	13,088
347,87	6,688
348,08	10,281
348,28	3,313
348,49	8,092
348,70	10,343
348,91	8,017
349,12	2,430
349,33	19,768
349,54	8,282
349,75	7,106
349,96	6,286
350,17	6,810
350,38	6,437
350,59	6,379
350,80	6,283
351,00	8,733
351,21	9,941
351,42	6,029
351,63	2,372
351,84	8,847
352,05	9,603
352,26	7,487
352,47	5,787
352,68	7,952
352,89	8,560
353,09	8,944
353,30	5,303
353,51	6,777
353,72	12,648
353,93	9,942
354,14	3,673
354,35	6,166
354,56	10,365
354,77	8,675
354,98	4,432
355,18	7,294
355,39	13,353
355,60	6,386
355,81	6,694
356,02	6,264
356,23	6,843
356,44	3,754
356,65	8,619
356,85	12,872
357,06	10,697
357,27	9,367
357,48	2,525
357,69	9,997
357,90	8,866
358,11	2,908
358,32	6,211
358,52	9,457
358,73	8,189
358,94	6,888
359,15	8,249
359,36	8,895
359,57	7,561
359,78	7,858
359,98	7,061
360,19	4,223
360,40	9,495
360,61	10,440
360,82	5,820
361,03	12,185
361,24	10,358
361,44	7,266
361,65	8,756
361,86	7,160
362,07	7,968
362,28	6,615
362,49	3,474
362,70	8,952
362,90	9,231
363,11	6,087
363,32	4,351
363,53	9,860
363,74	15,094
363,95	8,590
364,15	9,670
364,36	10,556
364,57	8,313
364,78	5,771
364,99	5,895
365,20	8,451
365,40	12,547
365,61	5,327
365,82	10,778
366,03	7,761
366,24	7,351
366,45	6,737
366,65	8,359
366,86	7,073
367,07	7,983
367,28	3,969
367,49	7,577
367,69	14,456
367,90	6,972
368,11	7,769
368,32	5,198
368,53	10,923
368,73	8,391
368,94	5,647
369,15	6,683
369,36	13,000
369,57	9,408
369,78	3,909
369,98	8,385
370,19	13,426
370,40	4,358
370,61	6,253
370,82	5,903
371,02	13,866
371,23	12,227
371,44	6,477
371,65	7,156
371,85	10,675
372,06	5,225
372,27	7,180
372,48	5,364
372,69	9,203
372,89	7,990
373,10	6,779
373,31	6,285
373,52	10,000
373,73	8,864
373,93	8,864
374,14	8,181
374,35	10,995
374,56	9,833
374,76	5,680
374,97	7,487
375,18	8,555
375,39	7,092
375,60	11,302
375,80	6,878
376,01	6,692
376,22	5,732
376,43	7,990
376,63	7,062
376,84	7,384
377,05	8,796
377,26	4,356
377,46	5,077
377,67	9,372
377,88	7,676
378,09	5,006
378,29	5,308
378,50	8,458
378,71	12,108
378,92	5,709
379,12	5,742
379,33	6,170
379,54	7,914
379,75	10,107
379,95	5,847
380,16	11,152
380,37	11,279
380,58	8,436
380,78	10,377
380,99	9,147
381,20	9,640
381,41	8,337
381,61	8,314
381,82	7,709
382,03	8,899
382,24	10,036
382,44	7,894
382,65	9,807
382,86	7,763
383,06	4,813
383,27	3,945
383,48	8,653
383,69	9,235
383,89	10,905
384,10	7,532
384,31	8,823
384,51	10,679
384,72	10,781
384,93	8,524
385,14	10,432
385,34	8,188
385,55	8,616
385,76	5,716
385,96	11,726
386,17	6,343
386,38	10,351
386,59	12,999
386,79	7,911
387,00	15,613
387,21	9,353
387,41	7,450
387,62	11,464
387,83	16,719
388,03	11,379
388,24	4,537
388,45	9,197
388,66	12,616
388,86	11,081
389,07	6,708
389,28	14,580
389,48	12,183
389,69	6,216
389,90	7,283
390,10	11,242
390,31	15,447
390,52	6,479
390,72	6,630
390,93	10,382
391,14	7,826
391,34	10,833
391,55	9,148
391,76	14,334
391,96	10,770
392,17	8,958
392,38	10,716
392,58	12,507
392,79	9,183
393,00	8,518
393,20	7,955
393,41	9,152
393,62	9,637
393,82	14,080
394,03	15,261
394,24	9,618
394,44	13,627
394,65	12,630
394,86	10,287
395,06	14,758
395,27	11,859
395,48	7,157
395,68	14,692
395,89	13,336
396,10	16,582
396,30	8,715
396,51	8,749
396,72	11,641
396,92	10,972
397,13	11,046
397,34	8,834
397,54	12,352
397,75	8,375
397,95	7,015
398,16	14,288
398,37	11,100
398,57	10,681
398,78	12,166
398,99	10,570
399,19	13,150
399,40	15,862
399,60	9,077
399,81	13,215
400,02	17,460
400,22	14,313
400,43	11,362
400,64	14,521
400,84	17,079
401,05	13,938
401,25	14,000
401,46	16,962
401,67	16,552
401,87	15,938
402,08	9,646
402,29	11,451
402,49	16,145
402,70	18,329
402,90	11,633
403,11	13,474
403,32	14,503
403,52	14,177
403,73	17,113
403,93	13,027
404,14	19,321
404,35	17,175
404,55	8,592
404,76	16,423
404,96	16,697
405,17	16,095
405,38	21,310
405,58	13,555
405,79	15,190
405,99	19,243
406,20	16,258
406,40	14,152
406,61	17,297
406,82	13,987
407,02	18,001
407,23	16,604
407,43	19,516
407,64	16,289
407,85	14,088
408,05	14,725
408,26	26,525
408,46	23,124
408,67	12,081
408,87	15,938
409,08	17,796
409,29	22,557
409,49	19,980
409,70	21,463
409,90	19,966
410,11	20,342
410,31	21,472
410,52	20,622
410,72	19,420
410,93	22,594
411,14	21,218
411,34	14,565
411,55	21,954
411,75	23,774
411,96	21,850
412,16	20,356
412,37	22,764
412,57	22,093
412,78	18,417
412,99	15,336
413,19	21,063
413,40	19,360
413,60	16,500
413,81	17,803
414,01	23,740
414,22	25,911
414,42	21,625
414,63	18,506
414,83	25,570
415,04	26,090
415,24	22,707
415,45	20,738
415,65	23,082
415,86	21,195
416,07	22,290
416,27	25,353
416,48	28,067
416,68	28,498
416,89	20,206
417,09	22,960
417,30	27,605
417,50	25,421
417,71	22,709
417,91	21,730
418,12	20,938
418,32	23,188
418,53	25,917
418,73	24,214
418,94	22,063
419,14	24,451
419,35	20,421
419,55	24,204
419,76	29,501
419,96	26,316
420,17	21,747
420,37	25,035
420,58	28,416
420,78	25,036
420,99	22,831
421,19	26,440
421,40	27,787
421,60	29,900
421,81	23,808
422,01	26,506
422,22	27,571
422,42	27,242
422,63	27,519
422,83	24,241
423,04	30,836
423,24	29,550
423,45	21,928
423,65	30,639
423,86	34,427
424,06	29,952
424,27	25,251
424,47	25,437
424,67	24,415
424,88	27,047
425,08	26,482
425,29	29,872
425,49	26,138
425,70	17,762
425,90	28,871
426,11	29,260
426,31	28,945
426,52	28,416
426,72	24,768
426,93	24,917
427,13	30,447
427,33	26,649
427,54	30,823
427,74	28,238
427,95	31,611
428,15	23,476
428,36	25,588
428,56	29,292
428,77	28,967
428,97	25,726
429,18	29,110
429,38	27,328
429,58	32,199
429,79	30,202
429,99	21,473
430,20	20,070
430,40	30,450
430,61	28,206
430,81	26,541
431,01	29,640
431,22	31,118
431,42	29,910
431,63	25,587
431,83	27,600
432,04	30,397
432,24	32,803
432,44	26,095
432,65	26,196
432,85	26,302
433,06	31,033
433,26	26,941
433,47	25,814
433,67	25,281
433,87	27,343
434,08	25,081
434,28	24,066
434,49	28,761
434,69	31,563
434,89	25,183
435,10	26,934
435,30	29,988
435,51	24,582
435,71	27,283
435,91	22,252
436,12	28,496
436,32	25,545
436,53	26,745
436,73	28,113
436,93	30,801
437,14	26,594
437,34	28,913
437,55	26,205
437,75	28,980
437,95	34,869
438,16	26,931
438,36	29,256
438,57	26,976
438,77	26,544
438,97	27,714
439,18	33,520
439,38	29,976
439,58	26,631
439,79	32,489
439,99	24,848
440,20	36,186
440,40	32,238
440,60	31,081
440,81	29,851
441,01	28,719
441,21	29,013
441,42	27,744
441,62	31,282
441,83	27,792
442,03	27,584
442,23	30,722
442,44	27,101
442,64	29,854
442,84	24,433
443,05	29,328
443,25	26,268
443,45	24,861
443,66	28,859
443,86	25,651
444,06	27,577
444,27	27,278
444,47	28,706
444,67	25,793
444,88	30,012
445,08	30,644
445,28	30,373
445,49	25,093
445,69	25,453
445,90	31,869
446,10	34,009
446,30	29,767
446,51	27,650
446,71	31,446
446,91	32,189
447,12	31,107
447,32	24,918
447,52	32,725
447,72	29,549
447,93	31,593
448,13	22,377
448,33	33,936
448,54	34,568
448,74	25,090
448,94	26,610
449,15	37,595
449,35	36,143
449,55	30,106
449,76	34,243
449,96	31,380
450,16	30,464
450,37	26,702
450,57	26,873
450,77	24,681
450,98	34,137
451,18	29,257
451,38	25,990
451,58	32,313
451,79	30,373
451,99	31,096
452,19	33,266
452,40	29,355
452,60	25,798
452,80	27,442
453,00	30,159
453,21	32,410
453,41	33,248
453,61	26,995
453,82	29,192
454,02	25,666
454,22	33,694
454,42	30,446
454,63	29,012
454,83	25,479
455,03	30,719
455,24	31,697
455,44	29,216
455,64	31,707
455,84	26,779
456,05	24,749
456,25	27,724
456,45	27,776
456,65	28,593
456,86	29,230
457,06	26,153
457,26	31,646
457,47	35,288
457,67	28,388
457,87	23,851
458,07	30,934
458,28	32,460
458,48	34,484
458,68	24,687
458,88	29,708
459,09	31,098
459,29	36,946
459,49	29,461
459,69	33,814
459,90	33,971
460,10	27,725
460,30	27,952
460,50	26,133
460,71	32,497
460,91	22,438
461,11	29,808
461,31	26,026
461,52	33,368
461,72	27,400
461,92	24,999
462,12	37,138
462,32	24,629
462,53	30,898
462,73	26,148
462,93	34,053
463,13	32,393
463,34	26,557
463,54	24,898
463,74	30,583
463,94	26,348
464,14	25,987
464,35	24,720
464,55	32,775
464,75	37,129
464,95	28,428
465,16	22,564
465,36	28,944
465,56	29,327
465,76	25,367
465,96	28,505
466,17	26,918
466,37	26,784
466,57	30,860
466,77	28,102
466,97	26,291
467,18	33,705
467,38	28,463
467,58	27,658
467,78	36,290
467,98	33,036
468,19	32,009
468,39	32,913
468,59	29,425
468,79	28,988
468,99	23,155
469,19	26,169
469,40	30,104
469,60	26,033
469,80	25,578
470,00	27,768
470,20	29,449
470,41	26,682
470,61	26,196
470,81	26,910
471,01	30,544
471,21	28,355
471,41	26,452
471,62	24,953
471,82	23,474
472,02	28,087
472,22	26,401
472,42	29,432
472,62	31,652
472,83	26,638
473,03	29,265
473,23	24,161
473,43	32,339
473,63	26,413
473,83	30,532
474,03	26,905
474,24	29,376
474,44	26,140
474,64	27,685
474,84	25,758
475,04	27,690
475,24	29,498
475,45	27,046
475,65	24,307
475,85	32,443
476,05	22,928
476,25	29,242
476,45	28,337
476,65	35,701
476,85	29,995
477,06	28,896
477,26	24,750
477,46	25,801
477,66	25,522
477,86	27,227
478,06	24,495
478,26	32,795
478,46	24,900
478,67	27,477
478,87	25,282
479,07	25,058
479,27	29,023
479,47	27,696
479,67	20,998
479,87	23,548
480,07	30,378
480,28	24,032
480,48	24,986
480,68	26,738
480,88	31,186
481,08	26,243
481,28	26,804
481,48	28,416
481,68	25,220
481,88	24,583
482,08	25,944
482,29	29,136
482,49	21,679
482,69	28,005
482,89	24,684
483,09	29,279
483,29	25,426
483,49	23,270
483,69	26,608
483,89	25,451
484,09	23,375
484,29	21,623
484,50	25,221
484,70	26,528
484,90	24,436
485,10	23,985
485,30	26,909
485,50	28,564
485,70	23,498
485,90	23,460
486,10	20,255
486,30	23,002
486,50	24,650
486,70	22,985
486,90	23,004
487,10	28,101
487,30	21,567
487,51	26,223
487,71	21,694
487,91	20,696
488,11	25,171
488,31	19,570
488,51	27,300
488,71	21,718
488,91	27,516
489,11	21,426
489,31	25,011
489,51	24,994
489,71	24,862
489,91	22,593
490,11	22,670
490,31	24,344
490,51	26,804
490,71	21,806
490,91	23,079
491,11	26,162
491,31	21,484
491,51	21,984
491,72	22,484
491,92	25,623
492,12	28,938
492,32	23,548
492,52	26,458
492,72	25,809
492,92	25,114
493,12	25,693
493,32	21,982
493,52	21,063
493,72	23,800
493,92	25,097
494,12	22,455
494,32	26,602
494,52	22,873
494,72	22,199
494,92	20,547
495,12	25,619
495,32	24,499
495,52	21,616
495,72	23,162
495,92	26,670
496,12	27,445
496,32	19,271
496,52	20,901
496,72	24,825
496,92	26,869
497,12	22,960
497,32	24,410
497,52	24,402
497,72	24,269
497,92	24,342
498,12	20,578
498,32	23,922
498,52	23,116
498,72	24,250
498,92	20,526
499,12	25,898
499,32	21,375
499,52	22,924
499,72	21,676
499,92	22,429
500,12	23,338
500,32	25,753
500,52	21,579
500,72	28,855
500,91	26,169
501,11	22,805
501,31	17,879
501,51	24,627
501,71	27,459
501,91	25,055
502,11	21,474
502,31	22,232
502,51	24,747
502,71	23,103
502,91	24,812
503,11	23,689
503,31	23,227
503,51	21,154
503,71	22,511
503,91	23,854
504,11	23,573
504,31	21,280
504,51	22,626
504,71	27,348
504,91	20,574
505,10	22,045
505,30	23,420
505,50	22,564
505,70	20,691
505,90	21,607
506,10	20,177
506,30	22,477
506,50	22,464
506,70	23,263
506,90	20,961
507,10	20,617
507,30	23,200
507,50	21,847
507,70	21,371
507,89	23,255
508,09	21,266
508,29	21,813
508,49	20,274
508,69	19,389
508,89	21,380
509,09	18,992
509,29	18,629
509,49	24,234
509,69	26,954
509,89	21,556
510,09	20,167
510,28	26,683
510,48	20,962
510,68	18,427
510,88	20,113
511,08	21,698
511,28	21,306
511,48	21,464
511,68	18,647
511,88	17,894
512,07	20,257
512,27	21,626
512,47	18,926
512,67	16,648
512,87	19,291
513,07	20,644
513,27	19,584
513,47	19,311
513,67	15,981
513,86	21,868
514,06	19,633
514,26	20,450
514,46	24,382
514,66	23,386
514,86	20,349
515,06	24,140
515,26	24,975
515,45	21,916
515,65	17,018
515,85	21,490
516,05	17,950
516,25	19,184
516,45	20,171
516,65	17,859
516,84	23,129
517,04	22,730
517,24	20,312
517,44	21,306
517,64	22,072
517,84	23,362
518,04	21,071
518,23	22,439
518,43	24,919
518,63	18,927
518,83	18,639
519,03	18,861
519,23	20,271
519,42	20,218
519,62	18,996
519,82	17,636
520,02	20,076
520,22	18,953
520,42	17,224
520,61	21,813
520,81	20,565
521,01	21,737
521,21	15,455
521,41	18,898
521,61	23,558
521,80	18,279
522,00	19,471
522,20	19,420
522,40	20,025
522,60	20,091
522,79	15,474
522,99	21,068
523,19	17,272
523,39	17,206
523,59	17,095
523,78	21,852
523,98	16,861
524,18	19,540
524,38	18,612
524,58	19,454
524,77	22,807
524,97	18,264
525,17	16,786
525,37	17,840
525,57	22,341
525,76	18,154
525,96	18,619
526,16	17,904
526,36	17,339
526,56	18,777
526,75	16,204
526,95	21,267
527,15	20,499
527,35	19,042
527,55	17,485
527,74	20,926
527,94	16,567
528,14	16,496
528,34	19,036
528,53	15,992
528,73	18,128
528,93	18,863
529,13	16,737
529,32	18,244
529,52	19,616
529,72	15,843
529,92	17,282
530,12	17,544
530,31	13,586
530,51	17,350
530,71	18,965
530,91	17,628
531,10	14,535
531,30	17,108
531,50	13,490
531,70	19,597
531,89	16,590
532,09	15,265
532,29	16,789
532,49	17,618
532,68	16,373
532,88	14,879
533,08	16,226
533,28	17,367
533,47	16,700
533,67	19,000
533,87	16,383
534,06	21,382
534,26	18,157
534,46	16,566
534,66	16,480
534,85	17,804
535,05	11,663
535,25	17,331
535,45	15,865
535,64	20,587
535,84	15,683
536,04	14,641
536,23	17,127
536,43	18,654
536,63	12,451
536,83	15,457
537,02	14,141
537,22	14,359
537,42	14,941
537,61	13,729
537,81	16,997
538,01	21,083
538,20	15,808
538,40	12,661
538,60	14,395
538,80	17,204
538,99	16,990
539,19	15,466
539,39	13,309
539,58	16,451
539,78	12,682
539,98	13,219
540,17	13,341
540,37	14,718
540,57	12,137
540,76	14,050
540,96	9,396
541,16	16,452
541,36	11,095
541,55	9,255
541,75	10,048
541,95	11,742
542,14	10,784
542,34	10,220
542,54	10,700
542,73	11,794
542,93	12,411
543,13	10,216
543,32	11,264
543,52	12,841
543,72	10,814
543,91	11,367
544,11	9,690
544,31	10,308
544,50	10,887
544,70	11,135
544,89	10,622
545,09	12,873
545,29	11,500
545,48	10,565
545,68	10,358
545,88	12,410
546,07	9,730
546,27	11,658
546,47	9,463
546,66	13,908
546,86	12,994
547,06	12,371
547,25	11,941
547,45	13,053
547,64	12,144
547,84	16,851
548,04	12,018
548,23	16,363
548,43	12,589
548,63	16,910
548,82	14,517
549,02	13,199
549,21	12,296
549,41	15,703
549,61	13,551
549,80	12,884
550,00	16,310
550,20	11,087
550,39	16,509
550,59	12,716
550,78	13,681
550,98	10,787
551,18	14,606
551,37	13,859
551,57	13,894
551,76	13,974
551,96	12,735
552,16	15,043
552,35	15,183
552,55	13,549
552,74	16,393
552,94	14,538
553,14	15,089
553,33	13,123
553,53	13,688
553,72	13,643
553,92	15,879
554,12	13,178
554,31	12,990
554,51	16,806
554,70	13,327
554,90	14,031
555,09	16,181
555,29	15,839
555,49	15,700
555,68	17,002
555,88	13,745
556,07	12,995
556,27	16,433
556,46	12,984
556,66	11,224
556,86	16,444
557,05	14,326
557,25	13,258
557,44	12,459
557,64	14,087
557,83	14,121
558,03	16,172
558,22	11,441
558,42	15,937
558,62	16,579
558,81	15,912
559,01	15,217
559,20	16,046
559,40	14,314
559,59	12,981
559,79	12,828
559,98	16,066
560,18	16,495
560,37	14,642
560,57	16,453
560,76	13,719
560,96	13,850
561,16	16,259
561,35	14,356
561,55	18,952
561,74	15,191
561,94	15,813
562,13	14,391
562,33	17,019
562,52	13,297
562,72	15,501
562,91	14,132
563,11	15,129
563,30	16,609
563,50	12,772
563,69	13,407
563,89	14,015
564,08	14,151
564,28	14,302
564,47	13,917
564,67	14,172
564,86	15,103
565,06	12,678
565,25	14,611
565,45	15,755
565,64	19,045
565,84	14,137
566,03	11,909
566,23	13,452
566,42	16,182
566,62	12,934
566,81	14,323
567,01	12,887
567,20	15,138
567,40	12,761
567,59	13,284
567,79	15,681
567,98	17,672
568,18	15,114
568,37	14,106
568,57	14,919
568,76	17,074
568,96	13,193
569,15	13,728
569,35	15,613
569,54	18,098
569,73	16,841
569,93	13,424
570,12	12,874
570,32	16,231
570,51	14,448
570,71	15,327
570,90	16,725
571,10	16,301
571,29	12,905
571,49	12,451
571,68	15,565
571,87	15,708
572,07	14,506
572,26	12,739
572,46	14,449
572,65	15,573
572,85	13,041
573,04	15,381
573,24	14,024
573,43	15,131
573,62	16,050
573,82	15,912
574,01	15,316
574,21	15,138
574,40	12,613
574,60	13,055
574,79	16,629
574,98	12,563
575,18	15,997
575,37	13,556
575,57	16,814
575,76	15,811
575,96	14,813
576,15	14,974
576,34	15,932
576,54	15,515
576,73	15,288
576,93	16,130
577,12	16,363
577,31	15,511
577,51	14,477
577,70	14,145
577,90	15,550
578,09	13,716
578,28	14,830
578,48	14,412
578,67	16,616
578,87	16,218
579,06	14,449
579,25	15,521
579,45	16,199
579,64	13,232
579,84	15,033
580,03	14,335
580,22	17,880
580,42	14,771
580,61	15,444
580,81	15,451
581,00	16,508
581,19	17,142
581,39	14,384
581,58	14,682
581,77	16,312
581,97	18,579
582,16	15,474
582,35	14,095
582,55	15,111
582,74	17,753
582,94	16,179
583,13	14,649
583,32	16,612
583,52	16,862
583,71	16,742
583,90	17,219
584,10	16,242
584,29	17,277
584,48	15,265
584,68	15,992
584,87	17,424
585,06	16,828
585,26	16,245
585,45	16,413
585,65	17,826
585,84	16,667
586,03	17,473
586,23	15,153
586,42	17,765
586,61	18,636
586,81	16,542
587,00	17,321
587,19	16,678
587,39	19,784
587,58	17,432
587,77	18,074
587,97	15,931
588,16	17,693
588,35	16,911
588,54	17,689
588,74	17,322
588,93	19,367
589,12	18,379
589,32	19,107
589,51	16,956
589,70	14,820
589,90	17,466
590,09	18,058
590,28	21,665
590,48	16,600
590,67	17,982
590,86	17,790
591,06	18,749
591,25	21,085
591,44	19,218
591,63	19,163
591,83	19,812
592,02	18,159
592,21	18,666
592,41	17,374
592,60	20,958
592,79	19,085
592,98	18,937
593,18	19,435
593,37	18,915
593,56	21,139
593,76	21,015
593,95	16,545
594,14	18,927
594,33	23,268
594,53	21,205
594,72	18,939
594,91	23,281
595,10	20,604
595,30	20,962
595,49	20,254
595,68	23,086
595,88	22,418
596,07	20,992
596,26	21,380
596,45	20,543
596,65	17,645
596,84	20,875
597,03	20,176
597,22	22,302
597,42	24,487
597,61	21,666
597,80	21,475
597,99	21,856
598,19	21,422
598,38	21,602
598,57	20,801
598,76	23,549
598,95	23,682
599,15	22,394
599,34	22,998
599,53	22,600
599,72	23,420
599,92	23,659
600,11	23,026
600,30	22,991
600,49	24,841
600,69	21,490
600,88	24,163
601,07	22,843
601,26	24,083
601,45	24,190
601,65	23,453
601,84	23,538
602,03	24,917
602,22	24,675
602,42	25,259
602,61	22,176
602,80	24,563
602,99	25,383
603,18	23,593
603,38	25,753
603,57	24,958
603,76	24,524
603,95	23,094
604,14	24,714
604,34	24,548
604,53	23,469
604,72	25,414
604,91	26,018
605,10	25,658
605,29	26,404
605,49	22,409
605,68	25,966
605,87	27,360
606,06	24,706
606,25	24,175
606,45	25,946
606,64	25,477
606,83	26,246
607,02	24,939
607,21	27,012
607,40	25,959
607,60	23,203
607,79	22,649
607,98	22,275
608,17	24,263
608,36	24,064
608,55	25,957
608,75	25,719
608,94	24,780
609,13	22,102
609,32	22,268
609,51	23,180
609,70	22,112
609,89	22,794
610,09	21,949
610,28	25,190
610,47	22,762
610,66	22,240
610,85	21,485
611,04	23,733
611,23	22,680
611,43	21,272
611,62	22,067
611,81	22,797
612,00	23,708
612,19	22,642
612,38	24,131
612,57	25,073
612,77	23,776
612,96	24,538
613,15	23,743
613,34	26,351
613,53	25,754
613,72	26,416
613,91	26,681
614,10	26,519
614,29	28,532
614,49	24,481
614,68	26,485
614,87	26,891
615,06	29,525
615,25	25,544
615,44	29,472
615,63	27,549
615,82	27,159
616,01	26,703
616,21	27,664
616,40	28,845
616,59	30,606
616,78	28,969
616,97	28,972
617,16	27,949
617,35	30,081
617,54	28,943
617,73	31,812
617,92	28,346
618,11	29,932
618,31	26,518
618,50	28,204
618,69	28,799
618,88	28,350
619,07	27,884
619,26	28,040
619,45	29,858
619,64	28,556
619,83	27,177
620,02	27,579
620,21	31,226
620,40	30,717
620,59	27,669
620,78	26,741
620,97	29,713
621,17	30,898
621,36	28,650
621,55	29,357
621,74	31,876
621,93	29,970
622,12	29,707
622,31	28,797
622,50	28,618
622,69	33,200
622,88	30,885
623,07	31,179
623,26	30,466
623,45	32,770
623,64	28,224
623,83	30,407
624,02	31,243
624,21	31,523
624,40	29,264
624,59	28,682
624,78	31,092
624,97	32,631
625,16	28,770
625,35	28,656
625,54	29,747
625,73	31,727
625,92	29,405
626,12	31,878
626,31	33,799
626,50	31,153
626,69	31,336
626,88	30,151
627,07	32,102
627,26	31,100
627,45	29,625
627,64	31,209
627,83	33,393
628,02	30,318
628,21	29,007
628,40	30,768
628,59	32,298
628,78	29,251
628,97	29,533
629,16	29,816
629,35	30,853
629,54	33,681
629,73	30,515
629,92	30,286
630,10	32,431
630,29	31,295
630,48	31,997
630,67	30,840
630,86	32,513
631,05	30,623
631,24	33,562
631,43	31,560
631,62	32,645
631,81	32,430
632,00	31,211
632,19	29,982
632,38	33,068
632,57	28,798
632,76	31,502
632,95	32,314
633,14	34,128
633,33	33,886
633,52	32,147
633,71	32,139
633,90	31,820
634,09	32,082
634,28	33,483
634,47	30,973
634,66	33,132
634,85	32,936
635,04	33,871
635,22	33,491
635,41	32,299
635,60	33,870
635,79	34,167
635,98	32,075
636,17	33,875
636,36	32,490
636,55	33,890
636,74	31,190
636,93	33,179
637,12	34,768
637,31	33,399
637,50	32,032
637,69	34,588
637,87	34,530
638,06	33,661
638,25	32,175
638,44	34,027
638,63	31,016
638,82	33,459
639,01	33,024
639,20	34,161
639,39	36,704
639,58	31,878
639,77	33,923
639,95	33,068
640,14	33,699
640,33	32,261
640,52	34,037
640,71	34,805
640,90	34,568
641,09	35,453
641,28	32,732
641,47	36,076
641,66	33,595
641,84	34,157
642,03	33,240
642,22	33,639
642,41	36,326
642,60	34,308
642,79	33,668
642,98	34,155
643,17	33,542
643,35	31,726
643,54	34,328
643,73	35,207
643,92	36,921
644,11	33,588
644,30	33,690
644,49	36,111
644,67	33,464
644,86	31,383
645,05	37,028
645,24	33,266
645,43	35,525
645,62	34,093
645,81	34,596
645,99	35,984
646,18	35,984
646,37	34,390
646,56	34,061
646,75	36,658
646,94	36,336
647,13	33,706
647,31	35,066
647,50	37,462
647,69	35,950
647,88	34,843
648,07	34,213
648,26	39,202
648,44	34,791
648,63	35,207
648,82	36,600
649,01	37,956
649,20	33,433
649,38	33,808
649,57	34,485
649,76	33,025
649,95	36,647
650,14	32,462
650,33	33,030
650,51	33,460
650,70	36,486
650,89	33,496
651,08	34,335
651,27	34,195
651,45	33,987
651,64	33,926
651,83	35,104
652,02	33,408
652,21	35,634
652,39	35,585
652,58	35,779
652,77	34,301
652,96	35,510
653,15	36,194
653,33	34,435
653,52	36,321
653,71	37,106
653,90	35,565
654,09	35,114
654,27	35,180
654,46	37,329
654,65	35,255
654,84	35,059
655,02	36,820
655,21	36,806
655,40	37,335
655,59	35,747
655,77	35,857
655,96	36,879
656,15	36,139
656,34	36,981
656,53	34,822
656,71	35,943
656,90	35,068
657,09	36,657
657,28	37,259
657,46	35,515
657,65	34,879
657,84	34,075
658,03	37,929
658,21	35,712
658,40	35,791
658,59	34,916
658,78	36,431
658,96	34,717
659,15	35,398
659,34	36,105
659,52	35,266
659,71	35,920
659,90	34,821
660,09	35,255
660,27	37,032
660,46	37,416
660,65	36,268
660,84	34,231
661,02	36,870
661,21	34,757
661,40	35,287
661,58	35,580
661,77	35,916
661,96	32,545
662,15	34,554
662,33	33,754
662,52	35,808
662,71	36,959
662,89	34,739
663,08	34,419
663,27	35,298
663,45	34,768
663,64	35,660
663,83	33,622
664,02	35,250
664,20	36,132
664,39	35,650
664,58	35,261
664,76	34,989
664,95	33,732
665,14	34,434
665,32	32,565
665,51	35,385
665,70	37,076
665,88	36,805
666,07	35,891
666,26	37,538
666,44	37,672
666,63	34,518
666,82	34,814
667,00	36,269
667,19	33,746
667,38	35,098
667,56	36,642
667,75	36,669
667,94	35,774
668,12	33,901
668,31	36,415
668,50	35,147
668,68	36,620
668,87	34,891
669,06	36,306
669,24	37,896
669,43	34,576
669,62	35,261
669,80	32,547
669,99	36,610
670,18	36,890
670,36	33,703
670,55	34,144
670,74	34,332
670,92	33,080
671,11	37,115
671,29	34,612
671,48	34,574
671,67	36,893
671,85	36,162
672,04	33,929
672,23	34,848
672,41	35,219
672,60	35,013
672,78	33,721
672,97	34,666
673,16	35,034
673,34	35,841
673,53	33,487
673,71	36,919
673,90	36,307
674,09	34,987
674,27	34,046
674,46	36,195
674,64	35,333
674,83	35,305
675,02	34,109
675,20	35,111
675,39	35,078
675,57	35,252
675,76	34,415
675,95	37,675
676,13	35,844
676,32	36,220
676,50	35,451
676,69	33,601
676,88	35,344
677,06	32,765
677,25	36,044
677,43	39,501
677,62	36,730
677,80	36,931
677,99	36,139
678,18	35,814
678,36	37,954
678,55	33,476
678,73	34,394
678,92	36,841
679,10	35,613
679,29	34,276
679,48	32,388
679,66	35,390
679,85	35,135
680,03	35,848
680,22	34,117
680,40	34,950
680,59	35,124
680,77	34,013
680,96	36,072
681,15	34,123
681,33	36,938
681,52	34,734
681,70	34,288
681,89	38,062
682,07	35,375
682,26	33,390
682,44	37,270
682,63	35,971
682,81	36,521
683,00	35,653
683,18	33,073
683,37	36,491
683,55	35,129
683,74	35,078
683,92	40,559
684,11	37,032
684,29	37,352
684,48	33,358
684,67	34,672
684,85	35,408
685,04	36,060
685,22	35,795
685,41	34,620
685,59	36,697
685,78	34,520
685,96	34,566
686,15	33,666
686,33	34,469
686,52	35,421
686,70	34,276
686,89	36,995
687,07	37,155
687,26	37,166
687,44	35,978
687,62	33,203
687,81	34,445
687,99	35,044
688,18	36,475
688,36	34,992
688,55	36,660
688,73	35,271
688,92	33,759
689,10	35,560
689,29	37,675
689,47	36,214
689,66	33,770
689,84	34,973
690,03	34,427
690,21	34,949
690,40	34,560
690,58	34,226
690,76	34,056
690,95	35,061
691,13	33,811
691,32	36,053
691,50	37,931
691,69	37,179
691,87	34,164
692,06	34,285
692,24	33,947
692,43	36,120
692,61	34,260
692,79	32,589
692,98	31,513
693,16	37,246
693,35	34,366
693,53	36,932
693,72	36,822
693,90	37,872
694,08	35,274
694,27	32,933
694,45	37,868
694,64	37,278
694,82	33,586
695,01	34,248
695,19	34,758
695,37	35,633
695,56	34,802
695,74	36,227
695,93	36,084
696,11	35,126
696,29	36,798
696,48	36,770
696,66	36,107
696,85	36,766
697,03	33,675
697,21	37,782
697,40	35,717
697,58	35,424
697,77	36,239
697,95	37,204
698,13	36,853
698,32	35,482
698,50	34,079
698,69	34,652
698,87	37,480
699,05	36,212
699,24	33,883
699,42	35,278
699,60	33,641
699,79	35,755
699,97	36,703
700,16	34,368
700,34	36,726
700,52	35,608
700,71	34,602
700,89	34,307
701,07	36,284
701,26	35,577
701,44	32,949
701,63	34,021
701,81	35,665
701,99	36,136
702,18	34,802
702,36	34,914
702,54	35,607
702,73	34,240
702,91	34,575
703,09	33,777
703,28	35,314
703,46	35,452
703,64	35,789
703,83	34,809
704,01	37,265
704,19	36,600
704,38	33,528
704,56	35,053
704,74	36,242
704,93	36,117
705,11	35,003
705,29	35,280
705,48	42,799
705,66	36,041
705,84	34,494
706,03	33,296
706,21	35,086
706,39	35,069
706,58	34,374
706,76	33,834
706,94	36,744
707,12	36,126
707,31	33,739
707,49	33,711
707,67	34,192
707,86	36,977
708,04	33,012
708,22	33,784
708,41	36,202
708,59	34,611
708,77	32,470
708,95	35,845
709,14	39,292
709,32	35,922
709,50	33,688
709,69	35,265
709,87	34,192
710,05	35,530
710,23	33,084
710,42	32,601
710,60	36,873
710,78	35,460
710,97	33,878
711,15	35,340
711,33	36,261
711,51	34,562
711,70	32,658
711,88	33,654
712,06	36,353
712,24	36,678
712,43	35,243
712,61	34,437
712,79	35,831
712,97	34,027
713,16	36,090
713,34	35,191
713,52	34,581
713,70	37,637
713,89	34,240
714,07	35,062
714,25	36,414
714,43	37,588
714,62	33,050
714,80	34,216
714,98	32,250
715,16	35,710
715,35	33,543
715,53	34,526
715,71	37,386
715,89	39,071
716,07	35,021
716,26	39,534
716,44	36,730
716,62	34,987
716,80	34,740
716,99	35,422
717,17	37,892
717,35	35,041
717,53	32,491
717,71	34,169
717,90	35,248
718,08	34,409
718,26	32,944
718,44	36,005
718,62	37,338
718,81	34,011
718,99	33,628
719,17	33,172
719,35	35,618
719,53	34,965
719,72	34,352
719,90	34,566
720,08	35,582
720,26	38,883
720,44	34,077
720,62	36,127
720,81	38,206
720,99	40,219
721,17	33,530
721,35	35,860
721,53	35,285
721,72	36,238
721,90	34,484
722,08	34,184
722,26	35,142
722,44	34,986
722,62	34,159
722,81	36,297
722,99	35,455
723,17	34,074
723,35	36,461
723,53	35,539
723,71	36,961
723,89	37,934
724,08	31,605
724,26	33,863
724,44	35,015
724,62	34,709
724,80	34,595
724,98	34,969
725,16	38,274
725,35	35,611
725,53	32,996
725,71	32,454
725,89	37,241
726,07	36,963
726,25	37,694
726,43	34,928
726,61	34,755
726,80	38,425
726,98	34,781
727,16	34,295
727,34	36,903
727,52	36,094
727,70	33,953
727,88	34,917
728,06	32,694
728,25	33,962
728,43	35,313
728,61	34,014
728,79	34,441
728,97	36,547
729,15	35,517
729,33	34,634
729,51	37,463
729,69	35,873
729,87	34,806
730,06	36,904
730,24	34,698
730,42	37,313
730,60	34,345
730,78	36,071
730,96	34,108
731,14	36,489
731,32	34,989
731,50	34,459
731,68	34,846
731,86	37,169
732,04	36,533
732,22	33,863
732,41	40,205
732,59	34,348
732,77	37,384
732,95	36,346
733,13	35,340
733,31	37,370
733,49	33,432
733,67	36,615
733,85	35,759
734,03	36,251
734,21	34,468
734,39	33,462
734,57	38,394
734,75	36,129
734,93	33,276
735,11	35,072
735,29	34,501
735,47	36,978
735,65	33,803
735,84	33,879
736,02	35,830
736,20	38,330
736,38	34,805
736,56	37,121
736,74	34,379
736,92	32,826
737,10	35,892
737,28	35,355
737,46	37,298
737,64	33,371
737,82	34,358
738,00	36,434
738,18	36,859
738,36	35,813
738,54	34,204
738,72	32,762
738,90	34,621
739,08	36,085
739,26	32,149
739,44	34,920
739,62	36,940
739,80	37,427
739,98	34,241
740,16	35,350
740,34	36,882
740,52	39,864
740,70	34,553
740,88	34,074
741,06	35,865
741,24	36,046
741,42	36,338
741,60	33,119
741,78	36,468
741,96	34,948
742,14	35,087
742,32	34,122
742,50	35,932
742,68	35,855
742,86	34,424
743,04	33,360
743,21	37,559
743,39	37,265
743,57	33,041
743,75	34,152
743,93	34,058
744,11	30,939
744,29	34,629
744,47	36,159
744,65	36,455
744,83	34,149
745,01	33,553
745,19	34,880
745,37	38,815
745,55	36,833
745,73	36,105
745,91	33,990
746,09	35,931
746,27	32,893
746,45	33,061
746,62	35,086
746,80	35,273
746,98	36,008
747,16	33,503
747,34	35,819
747,52	34,712
747,70	35,891
747,88	35,047
748,06	34,084
748,24	34,614
748,42	37,894
748,60	35,670
748,78	34,741
748,95	37,687
749,13	40,821
749,31	36,379
749,49	34,442
749,67	37,639
749,85	37,904
750,03	35,949
750,21	33,287
750,39	38,414
750,57	36,301
750,74	35,983
750,92	35,619
751,10	37,294
751,28	34,285
751,46	34,100
751,64	37,013
751,82	37,089
752,00	36,354
752,17	35,935
752,35	34,712
752,53	36,267
752,71	35,382
752,89	34,169
753,07	34,101
753,25	36,447
753,43	33,282
753,60	36,157
753,78	33,795
753,96	37,584
754,14	36,607
754,32	37,012
754,50	36,486
754,68	36,042
754,85	36,018
755,03	35,362
755,21	34,920
755,39	38,275
755,57	33,674
755,75	34,454
755,92	34,427
756,10	38,325
756,28	37,360
756,46	35,535
756,64	34,141
756,82	38,018
756,99	35,910
757,17	34,843
757,35	33,512
757,53	38,496
757,71	40,641
757,89	33,441
758,06	35,788
758,24	36,346
758,42	35,878
758,60	34,189
758,78	34,752
758,95	35,407
759,13	35,710
759,31	35,176
759,49	33,649
759,67	34,839
759,84	37,446
760,02	36,157
760,20	34,495
760,38	36,815
760,56	35,659
760,73	35,413
760,91	36,173
761,09	37,423
761,27	34,774
761,45	35,138
761,62	34,359
761,80	35,468
761,98	35,763
762,16	34,526
762,33	34,958
762,51	37,866
762,69	34,638
762,87	34,130
763,05	36,251
763,22	35,496
763,40	34,071
763,58	32,881
763,76	35,912
763,93	37,763
764,11	36,776
764,29	33,820
764,47	37,214
764,64	36,720
764,82	36,913
765,00	34,663
765,18	32,111
765,35	34,653
765,53	37,094
765,71	34,261
765,89	34,883
766,06	33,992
766,24	34,952
766,42	36,319
766,60	33,936
766,77	36,436
766,95	35,188
767,13	34,694
767,30	33,980
767,48	33,916
767,66	34,259
767,84	34,629
768,01	34,487
768,19	37,609
768,37	38,080
768,54	35,081
768,72	35,608
768,90	36,231
769,08	35,019
769,25	36,498
769,43	34,425
769,61	34,481
769,78	35,952
769,96	34,819
770,14	36,615
770,31	38,726
770,49	38,572
770,67	36,061
770,85	33,453
771,02	35,976
771,20	34,131
771,38	37,790
771,55	36,072
771,73	34,467
771,91	36,849
772,08	37,840
772,26	37,099
772,44	35,830
772,61	36,016
772,79	34,734
772,97	35,175
773,14	32,300
773,32	36,811
773,50	35,034
773,67	34,289
773,85	37,070
774,03	39,419
774,20	35,108
774,38	34,356
774,56	34,984
774,73	34,705
774,91	33,232
775,09	36,013
775,26	37,644
775,44	36,486
775,61	36,919
775,79	34,528
775,97	36,403
776,14	34,481
776,32	33,345
776,50	35,865
776,67	36,027
776,85	35,130
777,03	31,698
777,20	36,426
777,38	39,035
777,55	39,095
777,73	34,484
777,91	34,521
778,08	36,197
778,26	33,607
778,43	37,893
778,61	31,532
778,79	32,097
778,96	35,065
779,14	34,929
779,32	34,733
779,49	37,595
779,67	37,914
779,84	36,938
780,02	37,284
780,20	33,733
780,37	36,200
780,55	33,594
780,72	37,676
780,90	36,497
781,07	35,756
781,25	37,692
781,43	35,879
781,60	34,841
781,78	37,674
781,95	34,589
782,13	34,303
782,30	41,217
782,48	36,078
782,66	33,431
782,83	35,892
783,01	41,292
783,18	37,923
783,36	35,796
783,53	37,392
783,71	33,839
783,89	36,086
784,06	37,627
784,24	35,859
784,41	36,234
784,59	35,336
784,76	37,334
784,94	34,941
785,11	36,897
785,29	38,255
785,46	35,213
785,64	34,240
785,82	36,194
785,99	39,181
786,17	37,699
786,34	31,593
786,52	37,940
786,69	39,584
786,87	34,326
787,04	35,579
787,22	33,316
787,39	37,278
787,57	37,737
787,74	36,058
787,92	38,776
788,09	33,110
788,27	34,683
788,44	35,141
788,62	37,285
788,79	35,718
788,97	38,009
789,14	36,448
789,32	35,924
789,49	35,463
789,67	35,614
789,84	34,883
790,02	35,773
790,19	35,097
790,37	34,862
790,54	33,677
790,72	39,749
790,89	39,245
791,07	38,462
791,24	32,583
791,42	39,035
791,59	40,884
791,77	36,679
791,94	34,334
792,12	35,035
792,29	38,241
792,47	36,512
792,64	41,861
792,81	38,617
792,99	35,884
793,16	37,635
793,34	34,430
793,51	36,496
793,69	38,293
793,86	33,588
794,04	35,200
794,21	37,840
794,39	32,758
794,56	37,983
794,73	37,110
794,91	40,536
795,08	37,877
795,26	37,381
795,43	34,010
795,61	40,720
795,78	36,392
795,95	36,900
796,13	38,110
796,30	39,001
796,48	35,090
796,65	40,297
796,83	36,512
797,00	41,337
797,17	35,000
797,35	36,045
797,52	38,747
797,70	41,031
797,87	35,208
798,04	34,939
798,22	37,582
798,39	40,894
798,57	35,994
798,74	40,045
798,91	31,336
799,09	36,937
799,26	36,167
799,44	38,834
799,61	36,630
799,78	36,207
799,96	42,177
800,13	36,864
800,31	36,116
800,48	40,387
800,65	40,697
800,83	37,099
801,00	36,612
801,17	36,689
801,35	40,488
801,52	35,956
801,70	38,925
801,87	38,335
802,04	42,552
802,22	36,667
802,39	36,884
802,56	42,506
802,74	40,783
802,91	36,540
803,08	34,311
803,26	39,327
803,43	43,478
803,61	38,213
803,78	36,508
803,95	38,704
804,13	37,699
804,30	33,808
804,47	39,209
804,65	39,628
804,82	39,869
804,99	36,941
805,17	36,162
805,34	43,492
805,51	39,390
805,69	36,294
805,86	34,220
806,03	40,754
806,21	37,876
806,38	36,110
806,55	37,608
806,72	42,270
806,90	42,322
807,07	32,469
807,24	35,916
807,42	39,767
807,59	36,652
807,76	34,007
807,94	38,124
808,11	41,981
808,28	42,832
808,45	36,786
808,63	33,638
808,80	39,903
808,97	42,277
809,15	35,749
809,32	40,858
809,49	36,670
809,67	39,099
809,84	39,902
810,01	44,663
810,18	45,891
810,36	38,557
810,53	40,618
810,70	38,892
810,87	39,648
811,05	41,076
811,22	38,104
811,39	38,225
811,57	43,838
811,74	42,954
811,91	37,614
812,08	39,704
812,26	39,665
812,43	38,036
812,60	37,390
812,77	33,444
812,95	43,230
813,12	39,651
813,29	34,270
813,46	41,152
813,64	41,544
813,81	44,219
813,98	40,794
814,15	42,275
814,32	41,361
814,50	42,508
814,67	37,439
814,84	38,815
815,01	42,133
815,19	32,221
815,36	32,494
815,53	36,819
815,70	37,006
815,87	40,795
816,05	33,873
816,22	40,432
816,39	44,289
816,56	42,045
816,74	36,915
816,91	38,413
817,08	47,808
817,25	43,256
817,42	38,500
817,60	42,163
817,77	38,676
817,94	43,446
818,11	40,216
818,28	39,730
818,45	40,560
818,63	38,472
818,80	39,322
818,97	38,610
819,14	45,981
819,31	50,980
819,49	42,924
819,66	40,924
819,83	42,072
820,00	45,288
820,17	36,980
820,34	38,003
820,52	44,798
820,69	43,771
820,86	37,305
821,03	41,707
821,20	43,802
821,37	46,020
821,55	32,755
821,72	35,086
821,89	37,757
822,06	46,817
822,23	33,617
822,40	40,894
822,57	45,381
822,75	46,459
822,92	33,813
823,09	37,307
823,26	44,058
823,43	48,717
823,60	34,749
823,77	36,346
823,94	40,315
824,12	51,500
824,29	36,107
824,46	35,835
824,63	51,065
824,80	48,226
824,97	40,320
825,14	40,323
825,31	46,290
825,49	39,505
825,66	35,498
825,83	35,478
826,00	41,075
826,17	46,526
826,34	42,000
826,51	37,049
826,68	37,692
826,85	43,018
827,02	40,648
827,20	34,257
827,37	43,257
827,54	43,351
827,71	40,554
827,88	39,801
828,05	42,376
828,22	38,847
828,39	45,211
828,56	43,441
828,73	43,448
828,90	45,119
829,07	36,144
829,25	43,953
829,42	46,577
829,59	39,890
829,76	37,772
829,93	35,268
830,10	41,507
830,27	40,895
830,44	37,653
830,61	36,480
830,78	53,760
830,95	44,994
831,12	39,120
831,29	32,898
831,46	40,274
831,63	35,425
831,80	39,269
831,97	35,591
832,14	51,216
832,31	54,425
832,48	37,788
832,65	38,527
832,83	39,954
833,00	45,686
833,17	36,453
833,34	46,984
833,51	50,297
833,68	50,411
833,85	44,008
834,02	32,572
834,19	49,839
834,36	49,644
834,53	33,201
834,70	39,043
834,87	52,657
835,04	42,593
835,21	38,944
835,38	38,652
835,55	49,916
835,72	59,048
835,89	39,193
836,06	38,923
836,23	50,219
836,40	37,038
836,57	36,484
836,74	38,390
836,91	42,874
837,08	54,240
837,25	40,278
837,42	34,307
837,59	37,987
837,76	45,372
837,93	44,478
838,09	35,762
838,26	50,086
838,43	57,006
838,60	41,355
838,77	38,193
838,94	55,338
839,11	43,004
839,28	40,971
839,45	38,857
839,62	41,894
839,79	48,585
839,96	44,438
840,13	47,122
840,30	41,991
840,47	37,949
840,64	33,947
840,81	39,858
840,98	43,875
841,15	60,638
841,32	33,964
841,48	48,100
841,65	49,839
841,82	47,837
841,99	44,750
842,16	34,543
842,33	47,244
842,50	45,820
842,67	38,925
842,84	46,414
843,01	41,741
843,18	39,897
843,35	45,535
843,52	36,409
843,68	51,265
843,85	48,974
844,02	35,211
844,19	38,741
844,36	49,458
844,53	51,704
844,70	39,755
844,87	52,912
845,04	48,505
845,21	35,804
845,37	43,786
845,54	40,942
845,71	42,143
845,88	66,575
846,05	34,170
846,22	28,668
846,39	52,872
846,56	46,215
846,72	36,576
846,89	46,294
847,06	67,142
847,23	57,311
847,40	34,919
847,57	38,210
847,74	46,597
847,90	54,322
848,07	43,366
848,24	48,784
848,41	44,319
848,58	61,073
848,75	43,644
848,92	41,553
849,08	49,021
849,25	49,565
849,42	33,557
849,59	51,221
849,76	40,541
849,93	58,106
850,09	48,695
850,26	25,969
850,43	61,715
850,60	45,318
850,77	38,928
850,94	50,625
851,10	48,938
851,27	52,696
851,44	41,345
851,61	36,306
851,78	57,937
851,95	57,350
852,11	35,472
852,28	47,730
852,45	56,459
852,62	60,819
852,79	44,292
852,95	33,903
853,12	67,727
853,29	46,228
853,46	48,322
853,63	50,125
853,79	45,969
853,96	42,543
854,13	58,654
854,30	41,813
854,46	61,659
854,63	53,050
854,80	49,405
854,97	44,398
855,14	60,357
855,30	53,757
855,47	33,937
855,64	39,058
855,81	50,892
855,97	70,328
856,14	52,405
856,31	33,120
856,48	63,040
856,65	63,153
856,81	49,498
856,98	35,750
857,15	52,023
857,32	52,337
857,48	34,365
857,65	63,273
857,82	56,888
857,99	60,738
858,15	39,168
858,32	43,210
858,49	54,924
858,65	65,737
858,82	58,471
858,99	47,621
859,16	58,859
859,32	54,749
859,49	43,619
859,66	40,177
859,83	52,937
859,99	43,776
860,16	46,105
860,33	48,676
860,49	50,348
860,66	63,239
860,83	59,112
861,00	44,030
861,16	62,309
861,33	55,134
861,50	44,634
861,66	49,744
861,83	78,583
862,00	56,839
862,16	47,874
862,33	45,846
862,50	90,543
862,67	52,063
862,83	26,791
863,00	69,046
863,17	72,760
863,33	53,839
863,50	24,271
863,67	48,553
863,83	54,735
864,00	72,599
864,17	50,996
864,33	48,202
864,50	60,864
864,67	61,711
864,83	33,316
865,00	41,943
865,17	43,443
865,33	78,885
865,50	35,756
865,67	28,214
865,83	64,307
866,00	75,564
866,17	48,334
866,33	64,664
866,50	86,018
866,66	66,245
866,83	35,462
867,00	65,013
867,16	90,434
867,33	91,528
867,50	42,065
867,66	47,532
867,83	62,715
868,00	65,406
868,16	45,517
868,33	50,504
868,49	59,344
868,66	82,465
868,83	59,211
868,99	57,972
869,16	90,405
869,32	80,503
869,49	43,214
869,66	35,626
869,82	89,048
869,99	88,134
870,15	47,657
870,32	56,791
870,49	95,865
870,65	123,066
870,82	65,411
870,98	58,891
871,15	107,023
871,32	69,324
871,48	28,056
871,65	45,641
871,81	62,700
871,98	43,385
872,15	30,558
872,31	41,890
872,48	142,005
872,64	88,267
872,81	44,580
872,97	64,228
873,14	106,336
873,31	81,079
873,47	59,680
873,64	54,127
873,80	110,222
873,97	129,655
874,13	52,552
874,30	72,707
874,46	93,705
874,63	83,857
874,80	46,755
874,96	46,707
875,13	102,460
875,29	67,747
875,46	88,055
875,62	47,400
875,79	107,311
875,95	79,021
876,12	54,755
876,28	30,358
876,45	82,825
876,61	70,918
876,78	62,249
876,94	51,468
877,11	94,165
877,27	88,039
877,44	39,220
877,60	59,898
877,77	129,110
877,94	109,731
878,10	51,823
878,27	94,574
878,43	150,754
878,60	65,339
878,76	89,117
878,93	42,641
879,09	134,201
879,26	117,900
879,42	77,494
879,58	69,520
879,75	135,875
879,91	159,219
880,08	-71,593
880,24	50,975
880,41	93,821
880,57	102,516
880,74	9,241
880,90	70,109
881,07	75,214
881,23	150,202
881,40	63,997
881,56	77,761
881,73	124,334
881,89	65,293
882,06	-5,102
882,22	196,254
882,38	186,219
882,55	140,073
882,71	70,097
882,88	62,568
883,04	211,551
883,21	201,757
883,37	69,063
883,54	104,333
883,70	260,436
883,86	111,298
884,03	88,119
884,19	25,827
884,36	228,384
884,52	224,956
884,69	94,870
884,85	82,420
885,01	307,033
885,18	107,184
885,34	99,068
885,51	-23,392
885,67	113,524
>>>>> Data<<<<< Espectral Procesado Extremo
