Fichero De Datos De SpectraSuite
++++++++++++++++++++++++++++++++++++
Fecha: Wed Apr 22 13:30:10 CEST 2009
Usuario: evoflor
Presente Oscuro Del Espectro: Sí
La Referencia de Presente Del Espectro De: Sí
Muestreados de los componentes de Número de espectros: 1
Espectrómetros: USB4F02353
Tiempo de integración (usec): 500000 (USB4F02353)
Promedio de Espectros Hechos un: 5 (USB4F02353)
El Alisar Del Furgón: 0 (USB4F02353)
Párrafo de de Corregir del la del del de Eléctrica del obscuridad: Sí (USB4F02353)
Estrobo/Lámpara Permitido: No (USB4F02353)
Correct for Detector Non-linearity: No (USB4F02353)
Párrafo de de Corregir del la del del de Externa del luz: No (USB4F02353)
Procesado del espectro de Número de pixeles en: 3648
>>>>> Comienza Data<<<<< Espectral Procesado Del EL
177,79	360,156
178,00	360,156
178,22	360,156
178,44	1668,736
178,66	-187,944
178,88	131,124
179,09	-280,617
179,31	279,035
179,53	811,594
179,75	71,220
179,96	1049,526
180,18	-111,523
180,40	430,717
180,62	313,382
180,83	-47,335
181,05	-870,061
181,27	-160445,000
181,49	24,902
181,70	-47,519
181,92	773,325
182,14	835,678
182,36	197,428
182,58	-281,450
182,79	1266,719
183,01	-46,682
183,23	180,631
183,45	-114,292
183,66	-5,066
183,88	234,382
184,10	-3620,818
184,32	214,468
184,53	181,134
184,75	-201,691
184,97	40,546
185,18	-211,927
185,40	-1186,755
185,62	187,597
185,84	2,500
186,05	219,308
186,27	-146,788
186,49	4959,423
186,71	70,501
186,92	126,536
187,14	-261,016
187,36	93,155
187,58	97,481
187,79	-35,935
188,01	310,580
188,23	-276,832
188,45	161,664
188,66	157,790
188,88	-2360,818
189,10	-2171,450
189,31	-29,599
189,53	28,367
189,75	413,739
189,97	291,712
190,18	-238,433
190,40	387,912
190,62	-163,841
190,83	-373,434
191,05	322,329
191,27	170,414
191,49	372,636
191,70	-585,312
191,92	-596,992
192,14	-115,315
192,35	490,040
192,57	4352,714
192,79	129,647
193,01	182,750
193,22	31,245
193,44	-130,964
193,66	127,246
193,87	75,685
194,09	-91,344
194,31	228,219
194,53	845,070
194,74	48,298
194,96	125,761
195,18	172,379
195,39	-230,989
195,61	-145,546
195,83	-297,924
196,04	137,979
196,26	-453,492
196,48	21,016
196,70	361,918
196,91	143,104
197,13	310,494
197,35	-5,658
197,56	680,635
197,78	2043,619
198,00	807,308
198,21	669,636
198,43	-1356,657
198,65	149,076
198,86	289,011
199,08	59,820
199,30	248,269
199,51	-458,127
199,73	293,074
199,95	535,260
200,16	672,481
200,38	126,233
200,60	126,170
200,81	468,833
201,03	186,535
201,25	-2162,450
201,46	162,678
201,68	43,492
201,90	3728,295
202,11	-677,653
202,33	-1,176
202,55	936,812
202,76	-100,166
202,98	257,997
203,20	306,034
203,41	79,237
203,63	212,144
203,85	-174845,000
204,06	-187,367
204,28	-122,036
204,50	174,971
204,71	345,486
204,93	30,760
205,15	288,087
205,36	-406,587
205,58	333,868
205,80	-137,290
206,01	63,621
206,23	154,755
206,45	181,443
206,66	146,989
206,88	57,067
207,10	393,284
207,31	373,437
207,53	108,700
207,75	-29,850
207,96	928,694
208,18	-276,869
208,39	132,391
208,61	1781,286
208,83	-414,429
209,04	347,420
209,26	-332,926
209,48	227,724
209,69	218,137
209,91	730,557
210,13	42,213
210,34	207,615
210,56	226,557
210,77	-1695,630
210,99	199,548
211,21	4355,588
211,42	-126,489
211,64	-15,033
211,86	211,039
212,07	287,782
212,29	163,185
212,50	156,470
212,72	277,865
212,94	157,045
213,15	111,996
213,37	163,058
213,58	3,448
213,80	-683,750
214,02	10443,824
214,23	299,352
214,45	189,656
214,67	842,134
214,88	89,782
215,10	-383,882
215,31	-7,325
215,53	-105,807
215,75	358,861
215,96	1365,497
216,18	-681,056
216,39	259,451
216,61	499,662
216,83	583,683
217,04	1883,652
217,26	171,685
217,47	116,836
217,69	306,613
217,91	80,554
218,12	-161345,000
218,34	135,487
218,55	623,727
218,77	39,548
218,99	111,167
219,20	-227,734
219,42	580,709
219,63	-83,038
219,85	-40,284
220,06	7,865
220,28	190,240
220,50	24,204
220,71	109,927
220,93	2636,698
221,14	-1766,450
221,36	-96,836
221,58	-18,445
221,79	231,586
222,01	1740,043
222,22	522,664
222,44	154,438
222,65	141,193
222,87	549,266
223,09	157,421
223,30	35,400
223,52	195,166
223,73	116,343
223,95	-5,993
224,16	225,041
224,38	518,827
224,60	51,279
224,81	148,828
225,03	118,221
225,24	91,281
225,46	52,733
225,67	21,886
225,89	59,221
226,10	656,762
226,32	1189,960
226,54	-15,989
226,75	-15,201
226,97	93,870
227,18	223,644
227,40	78,179
227,61	91,367
227,83	34,283
228,04	137,631
228,26	35,431
228,47	55,556
228,69	198,362
228,91	123,580
229,12	42,141
229,34	35,766
229,55	100,924
229,77	-1,423
229,98	31,703
230,20	81,243
230,41	38,878
230,63	92,829
230,84	50,283
231,06	3,324
231,27	27,685
231,49	55,010
231,71	24,667
231,92	32,896
232,14	17,734
232,35	67,566
232,57	84,210
232,78	29,345
233,00	41,992
233,21	51,079
233,43	26,610
233,64	33,494
233,86	36,925
234,07	53,477
234,29	20,971
234,50	19,227
234,72	52,528
234,93	32,712
235,15	34,658
235,36	28,362
235,58	49,379
235,79	55,412
236,01	31,984
236,22	26,726
236,44	45,309
236,65	43,331
236,87	10,757
237,08	24,186
237,30	-2,607
237,51	28,188
237,73	-4,745
237,94	10,986
238,16	23,674
238,37	21,449
238,59	17,916
238,80	21,339
239,02	3,971
239,23	10,740
239,45	4,796
239,66	17,399
239,88	35,741
240,09	19,763
240,31	9,208
240,52	10,564
240,74	19,383
240,95	16,453
241,17	4,397
241,38	8,706
241,60	23,178
241,81	27,522
242,03	3,918
242,24	9,604
242,46	19,353
242,67	7,086
242,89	11,278
243,10	9,527
243,32	15,362
243,53	24,697
243,75	4,502
243,96	12,354
244,18	9,846
244,39	7,064
244,60	10,804
244,82	7,328
245,03	24,099
245,25	16,171
245,46	27,399
245,68	11,479
245,89	22,180
246,11	14,391
246,32	13,936
246,54	13,131
246,75	10,915
246,97	13,993
247,18	19,619
247,39	9,178
247,61	12,759
247,82	16,555
248,04	6,957
248,25	10,332
248,47	12,516
248,68	14,175
248,90	6,493
249,11	7,882
249,33	17,741
249,54	10,674
249,75	12,031
249,97	7,344
250,18	18,653
250,40	16,325
250,61	-4,439
250,83	5,362
251,04	1,226
251,25	13,265
251,47	3,032
251,68	6,449
251,90	10,160
252,11	14,518
252,33	3,915
252,54	9,513
252,76	4,391
252,97	3,680
253,18	-1,445
253,40	7,136
253,61	6,854
253,83	14,631
254,04	8,775
254,25	9,873
254,47	7,667
254,68	7,470
254,90	6,004
255,11	8,303
255,33	12,753
255,54	8,554
255,75	9,901
255,97	10,509
256,18	5,252
256,40	7,974
256,61	13,360
256,82	2,350
257,04	15,232
257,25	5,227
257,47	6,225
257,68	7,707
257,89	11,041
258,11	11,592
258,32	8,958
258,54	7,804
258,75	15,977
258,96	13,098
259,18	6,108
259,39	5,510
259,61	10,534
259,82	9,269
260,03	8,453
260,25	6,203
260,46	9,052
260,68	5,433
260,89	6,051
261,10	8,068
261,32	10,536
261,53	9,574
261,75	6,004
261,96	2,922
262,17	16,089
262,39	10,267
262,60	4,161
262,81	1,174
263,03	9,808
263,24	6,935
263,46	3,250
263,67	5,519
263,88	7,367
264,10	15,293
264,31	8,183
264,52	4,742
264,74	10,244
264,95	6,422
265,17	6,530
265,38	7,327
265,59	11,322
265,81	8,485
266,02	5,029
266,23	2,120
266,45	12,766
266,66	13,796
266,87	11,762
267,09	5,739
267,30	10,973
267,52	11,924
267,73	6,135
267,94	3,914
268,16	7,697
268,37	6,677
268,58	7,320
268,80	9,023
269,01	7,738
269,22	10,471
269,44	7,028
269,65	8,172
269,86	3,813
270,08	5,548
270,29	5,347
270,50	5,995
270,72	9,210
270,93	7,421
271,14	2,932
271,36	3,789
271,57	8,796
271,78	5,895
272,00	8,379
272,21	10,297
272,42	10,504
272,64	9,341
272,85	6,425
273,06	5,304
273,28	8,751
273,49	10,954
273,70	8,352
273,92	5,177
274,13	8,645
274,34	8,420
274,56	6,464
274,77	6,489
274,98	12,954
275,20	11,704
275,41	9,535
275,62	6,336
275,84	8,326
276,05	12,019
276,26	5,087
276,47	2,980
276,69	7,752
276,90	10,808
277,11	5,679
277,33	3,686
277,54	12,506
277,75	9,113
277,97	3,955
278,18	-0,773
278,39	11,570
278,61	6,958
278,82	7,647
279,03	8,603
279,24	8,973
279,46	8,387
279,67	9,917
279,88	9,027
280,10	12,894
280,31	5,190
280,52	8,353
280,73	2,184
280,95	8,052
281,16	10,587
281,37	6,874
281,59	8,962
281,80	14,677
282,01	8,181
282,22	5,710
282,44	2,825
282,65	11,437
282,86	8,514
283,08	5,332
283,29	8,133
283,50	6,421
283,71	11,011
283,93	6,419
284,14	8,477
284,35	4,831
284,56	11,735
284,78	6,920
284,99	7,341
285,20	12,494
285,42	5,721
285,63	5,938
285,84	5,239
286,05	4,785
286,27	5,502
286,48	8,158
286,69	3,984
286,90	6,574
287,12	8,437
287,33	3,403
287,54	4,693
287,75	10,103
287,97	8,404
288,18	5,854
288,39	4,060
288,60	6,020
288,82	6,549
289,03	3,477
289,24	8,701
289,45	9,645
289,67	7,900
289,88	2,109
290,09	10,326
290,30	7,429
290,52	5,831
290,73	2,915
290,94	3,607
291,15	5,798
291,37	8,511
291,58	9,684
291,79	4,571
292,00	7,015
292,21	10,039
292,43	4,898
292,64	4,378
292,85	4,292
293,06	10,798
293,28	5,922
293,49	3,333
293,70	11,090
293,91	5,409
294,12	7,729
294,34	4,291
294,55	9,455
294,76	7,694
294,97	7,404
295,19	4,328
295,40	5,825
295,61	9,318
295,82	2,249
296,03	3,910
296,25	8,991
296,46	3,432
296,67	3,685
296,88	3,424
297,09	8,459
297,31	5,112
297,52	4,375
297,73	3,149
297,94	8,864
298,15	6,543
298,37	6,268
298,58	8,194
298,79	10,712
299,00	5,149
299,21	3,437
299,43	2,924
299,64	11,477
299,85	9,387
300,06	4,865
300,27	4,093
300,49	9,887
300,70	7,411
300,91	6,600
301,12	5,699
301,33	10,801
301,54	5,666
301,76	6,597
301,97	2,440
302,18	4,883
302,39	9,251
302,60	14,942
302,82	4,206
303,03	12,389
303,24	8,340
303,45	7,939
303,66	6,916
303,87	5,256
304,09	10,267
304,30	6,082
304,51	7,066
304,72	2,786
304,93	8,748
305,14	5,107
305,36	4,496
305,57	4,132
305,78	7,089
305,99	5,106
306,20	5,568
306,41	3,058
306,62	4,335
306,84	4,878
307,05	1,475
307,26	5,759
307,47	8,747
307,68	6,858
307,89	5,819
308,11	6,669
308,32	7,081
308,53	5,024
308,74	3,109
308,95	5,829
309,16	8,726
309,37	9,119
309,59	5,414
309,80	7,404
310,01	5,892
310,22	8,782
310,43	3,612
310,64	7,312
310,85	8,304
311,06	6,807
311,28	5,566
311,49	5,066
311,70	11,129
311,91	4,719
312,12	4,271
312,33	7,488
312,54	7,332
312,75	5,679
312,97	5,671
313,18	7,124
313,39	6,190
313,60	5,044
313,81	4,854
314,02	5,980
314,23	7,789
314,44	2,392
314,65	6,654
314,87	2,038
315,08	3,303
315,29	9,358
315,50	6,014
315,71	9,242
315,92	9,888
316,13	5,038
316,34	6,187
316,55	7,412
316,77	3,715
316,98	5,623
317,19	1,988
317,40	10,359
317,61	11,297
317,82	4,536
318,03	3,247
318,24	6,545
318,45	10,489
318,66	5,110
318,87	3,085
319,09	8,411
319,30	7,871
319,51	8,043
319,72	6,297
319,93	8,311
320,14	6,710
320,35	9,338
320,56	3,483
320,77	3,198
320,98	10,971
321,19	5,669
321,40	3,500
321,62	7,265
321,83	4,715
322,04	5,250
322,25	7,954
322,46	10,394
322,67	7,922
322,88	5,556
323,09	6,396
323,30	10,503
323,51	9,517
323,72	8,376
323,93	5,771
324,14	6,317
324,35	2,510
324,56	3,091
324,77	5,781
324,99	7,795
325,20	1,753
325,41	5,322
325,62	6,128
325,83	3,749
326,04	4,787
326,25	7,090
326,46	2,990
326,67	8,633
326,88	7,330
327,09	4,294
327,30	4,266
327,51	9,721
327,72	9,398
327,93	9,866
328,14	1,113
328,35	7,087
328,56	7,511
328,77	5,805
328,98	8,294
329,19	5,845
329,40	9,728
329,61	6,259
329,82	2,717
330,04	6,544
330,25	6,367
330,46	8,317
330,67	2,750
330,88	6,608
331,09	4,455
331,30	5,206
331,51	7,736
331,72	4,923
331,93	8,794
332,14	3,504
332,35	9,799
332,56	6,742
332,77	7,423
332,98	3,580
333,19	4,239
333,40	7,226
333,61	5,743
333,82	9,103
334,03	6,146
334,24	7,678
334,45	7,970
334,66	11,032
334,87	5,734
335,08	3,584
335,29	4,964
335,50	4,666
335,71	1,947
335,92	9,055
336,13	7,889
336,34	3,739
336,55	6,768
336,76	12,504
336,97	7,143
337,18	4,199
337,39	6,251
337,60	8,193
337,81	5,686
338,02	4,361
338,23	4,149
338,44	9,514
338,65	5,591
338,86	7,271
339,07	2,882
339,28	8,572
339,49	7,612
339,70	2,022
339,91	5,600
340,11	10,026
340,32	4,621
340,53	4,509
340,74	1,505
340,95	3,915
341,16	9,576
341,37	3,756
341,58	6,429
341,79	4,869
342,00	7,717
342,21	5,016
342,42	5,858
342,63	10,117
342,84	5,895
343,05	5,566
343,26	8,092
343,47	6,388
343,68	5,902
343,89	3,270
344,10	4,727
344,31	8,544
344,52	6,247
344,73	5,939
344,94	7,719
345,14	7,810
345,35	10,091
345,56	6,389
345,77	7,752
345,98	8,320
346,19	10,404
346,40	6,510
346,61	5,079
346,82	6,485
347,03	6,652
347,24	9,178
347,45	6,169
347,66	8,348
347,87	5,092
348,08	6,631
348,28	2,774
348,49	6,680
348,70	8,355
348,91	6,589
349,12	3,858
349,33	20,759
349,54	7,239
349,75	7,566
349,96	6,480
350,17	5,611
350,38	4,013
350,59	9,597
350,80	5,315
351,00	7,842
351,21	10,900
351,42	4,212
351,63	0,599
351,84	5,428
352,05	9,148
352,26	5,780
352,47	4,563
352,68	11,287
352,89	5,944
353,09	7,170
353,30	2,265
353,51	5,850
353,72	7,898
353,93	10,879
354,14	2,967
354,35	4,516
354,56	9,608
354,77	5,941
354,98	4,494
355,18	6,297
355,39	11,484
355,60	5,897
355,81	7,664
356,02	10,538
356,23	7,424
356,44	7,265
356,65	6,498
356,85	10,856
357,06	10,908
357,27	8,855
357,48	2,227
357,69	7,612
357,90	7,320
358,11	2,213
358,32	4,603
358,52	11,133
358,73	9,639
358,94	5,215
359,15	5,243
359,36	8,025
359,57	8,504
359,78	7,799
359,98	5,712
360,19	5,219
360,40	7,676
360,61	11,046
360,82	3,711
361,03	9,970
361,24	10,893
361,44	5,907
361,65	8,243
361,86	4,061
362,07	7,940
362,28	3,462
362,49	4,055
362,70	8,036
362,90	9,886
363,11	3,716
363,32	3,121
363,53	9,011
363,74	11,617
363,95	8,562
364,15	5,577
364,36	9,973
364,57	6,716
364,78	5,833
364,99	5,810
365,20	9,223
365,40	11,452
365,61	3,854
365,82	12,679
366,03	6,350
366,24	9,002
366,45	5,114
366,65	5,038
366,86	7,654
367,07	7,594
367,28	8,187
367,49	4,818
367,69	12,045
367,90	6,302
368,11	6,339
368,32	6,900
368,53	10,215
368,73	9,097
368,94	4,359
369,15	7,112
369,36	10,458
369,57	8,524
369,78	5,753
369,98	9,472
370,19	13,574
370,40	5,372
370,61	7,560
370,82	9,158
371,02	10,668
371,23	12,432
371,44	8,121
371,65	9,032
371,85	11,546
372,06	7,321
372,27	8,044
372,48	6,827
372,69	9,205
372,89	7,275
373,10	6,297
373,31	7,226
373,52	8,161
373,73	12,985
373,93	8,255
374,14	7,337
374,35	12,066
374,56	9,683
374,76	8,594
374,97	10,212
375,18	10,380
375,39	9,353
375,60	9,615
375,80	7,254
376,01	6,170
376,22	10,841
376,43	10,166
376,63	8,403
376,84	10,325
377,05	10,410
377,26	8,004
377,46	5,867
377,67	8,765
377,88	11,204
378,09	8,659
378,29	4,594
378,50	11,752
378,71	10,382
378,92	6,919
379,12	10,157
379,33	8,574
379,54	9,660
379,75	8,384
379,95	7,061
380,16	8,459
380,37	12,988
380,58	8,407
380,78	11,656
380,99	8,197
381,20	6,903
381,41	8,212
381,61	11,189
381,82	9,861
382,03	10,045
382,24	8,852
382,44	7,833
382,65	8,217
382,86	10,185
383,06	10,185
383,27	10,610
383,48	7,522
383,69	15,480
383,89	11,614
384,10	10,946
384,31	8,101
384,51	11,933
384,72	8,393
384,93	8,033
385,14	10,922
385,34	10,949
385,55	9,240
385,76	6,153
385,96	13,824
386,17	9,910
386,38	12,666
386,59	10,104
386,79	7,946
387,00	16,170
387,21	14,195
387,41	11,291
387,62	9,982
387,83	14,372
388,03	10,598
388,24	3,740
388,45	14,121
388,66	15,006
388,86	9,137
389,07	10,230
389,28	17,783
389,48	15,516
389,69	10,532
389,90	11,612
390,10	13,090
390,31	14,946
390,52	3,328
390,72	10,254
390,93	10,052
391,14	12,599
391,34	11,796
391,55	16,030
391,76	16,697
391,96	9,822
392,17	10,143
392,38	13,954
392,58	13,766
392,79	12,469
393,00	8,487
393,20	9,314
393,41	13,003
393,62	11,867
393,82	10,929
394,03	15,130
394,24	13,314
394,44	13,871
394,65	12,929
394,86	8,904
395,06	12,212
395,27	9,403
395,48	8,610
395,68	13,120
395,89	16,144
396,10	16,812
396,30	10,395
396,51	9,828
396,72	14,472
396,92	9,355
397,13	14,490
397,34	11,469
397,54	15,112
397,75	11,113
397,95	9,136
398,16	11,932
398,37	11,134
398,57	13,631
398,78	14,041
398,99	16,643
399,19	15,381
399,40	17,611
399,60	10,280
399,81	15,139
400,02	18,440
400,22	15,203
400,43	12,260
400,64	15,822
400,84	9,876
401,05	15,665
401,25	17,287
401,46	17,507
401,67	14,794
401,87	15,575
402,08	8,787
402,29	13,157
402,49	16,114
402,70	16,760
402,90	11,861
403,11	12,855
403,32	16,743
403,52	16,794
403,73	14,446
403,93	18,024
404,14	18,321
404,35	15,922
404,55	10,982
404,76	12,176
404,96	16,497
405,17	18,457
405,38	20,744
405,58	17,259
405,79	17,119
405,99	22,497
406,20	13,900
406,40	11,877
406,61	15,466
406,82	15,588
407,02	18,233
407,23	14,782
407,43	15,370
407,64	13,180
407,85	16,859
408,05	12,128
408,26	20,665
408,46	21,900
408,67	11,510
408,87	14,087
409,08	13,536
409,29	16,876
409,49	19,563
409,70	17,370
409,90	16,241
410,11	18,709
410,31	20,898
410,52	15,671
410,72	15,649
410,93	20,355
411,14	16,337
411,34	13,492
411,55	21,378
411,75	19,479
411,96	16,142
412,16	15,585
412,37	18,313
412,57	20,505
412,78	19,370
412,99	17,337
413,19	19,840
413,40	16,773
413,60	14,175
413,81	15,467
414,01	16,383
414,22	14,531
414,42	11,987
414,63	13,827
414,83	23,185
415,04	22,686
415,24	19,235
415,45	14,427
415,65	15,344
415,86	15,423
416,07	17,142
416,27	18,248
416,48	22,877
416,68	20,125
416,89	16,873
417,09	15,917
417,30	20,785
417,50	17,539
417,71	19,390
417,91	15,981
418,12	19,565
418,32	17,033
418,53	16,467
418,73	19,434
418,94	19,479
419,14	19,261
419,35	15,058
419,55	18,702
419,76	19,968
419,96	16,726
420,17	15,158
420,37	16,813
420,58	23,516
420,78	20,491
420,99	17,791
421,19	19,962
421,40	19,558
421,60	22,457
421,81	15,820
422,01	16,272
422,22	16,498
422,42	23,642
422,63	16,677
422,83	20,199
423,04	20,907
423,24	25,673
423,45	19,214
423,65	21,259
423,86	25,342
424,06	19,332
424,27	18,542
424,47	15,596
424,67	17,148
424,88	22,193
425,08	18,330
425,29	23,733
425,49	14,867
425,70	16,723
425,90	15,387
426,11	17,603
426,31	19,578
426,52	19,188
426,72	18,969
426,93	18,192
427,13	24,016
427,33	17,887
427,54	20,017
427,74	22,749
427,95	23,029
428,15	14,566
428,36	16,648
428,56	17,409
428,77	21,315
428,97	21,233
429,18	21,979
429,38	16,632
429,58	20,202
429,79	20,344
429,99	17,189
430,20	12,061
430,40	22,019
430,61	16,907
430,81	16,186
431,01	21,839
431,22	22,733
431,42	24,114
431,63	14,485
431,83	17,060
432,04	19,904
432,24	24,343
432,44	17,366
432,65	19,330
432,85	15,950
433,06	18,473
433,26	19,568
433,47	19,297
433,67	18,425
433,87	20,160
434,08	16,507
434,28	17,437
434,49	17,529
434,69	23,074
434,89	14,477
435,10	17,443
435,30	22,041
435,51	16,938
435,71	17,957
435,91	12,725
436,12	19,066
436,32	18,425
436,53	20,791
436,73	18,570
436,93	24,006
437,14	19,482
437,34	19,903
437,55	14,784
437,75	20,320
437,95	23,784
438,16	16,962
438,36	17,969
438,57	18,342
438,77	17,154
438,97	22,051
439,18	23,173
439,38	19,281
439,58	19,000
439,79	17,475
439,99	14,453
440,20	21,322
440,40	21,619
440,60	19,329
440,81	22,025
441,01	19,404
441,21	20,453
441,42	18,898
441,62	22,624
441,83	18,929
442,03	19,276
442,23	19,838
442,44	16,677
442,64	22,294
442,84	17,258
443,05	20,336
443,25	17,802
443,45	14,117
443,66	20,548
443,86	13,629
444,06	18,987
444,27	16,606
444,47	20,817
444,67	16,268
444,88	17,166
445,08	21,326
445,28	21,574
445,49	17,581
445,69	17,776
445,90	21,680
446,10	24,692
446,30	22,295
446,51	19,541
446,71	24,206
446,91	24,256
447,12	25,545
447,32	19,621
447,52	20,018
447,72	23,695
447,93	17,617
448,13	19,551
448,33	26,846
448,54	23,231
448,74	17,154
448,94	20,813
449,15	25,707
449,35	27,630
449,55	20,922
449,76	26,561
449,96	18,658
450,16	22,747
450,37	15,813
450,57	20,829
450,77	19,201
450,98	23,532
451,18	22,831
451,38	21,459
451,58	22,376
451,79	22,010
451,99	20,079
452,19	18,356
452,40	24,219
452,60	19,452
452,80	19,102
453,00	24,440
453,21	22,755
453,41	23,303
453,61	16,482
453,82	21,831
454,02	19,204
454,22	28,028
454,42	24,525
454,63	16,142
454,83	19,028
455,03	22,349
455,24	20,524
455,44	19,808
455,64	22,208
455,84	17,233
456,05	19,996
456,25	17,114
456,45	23,861
456,65	17,466
456,86	26,563
457,06	23,349
457,26	24,320
457,47	28,145
457,67	22,938
457,87	18,878
458,07	22,661
458,28	24,303
458,48	26,797
458,68	16,544
458,88	23,609
459,09	22,477
459,29	25,541
459,49	20,314
459,69	24,855
459,90	24,952
460,10	19,113
460,30	19,812
460,50	20,035
460,71	24,487
460,91	18,638
461,11	23,580
461,31	18,548
461,52	27,113
461,72	20,988
461,92	19,981
462,12	29,355
462,32	20,933
462,53	20,072
462,73	16,243
462,93	24,297
463,13	23,500
463,34	19,611
463,54	22,029
463,74	23,337
463,94	26,033
464,14	20,684
464,35	19,319
464,55	26,810
464,75	28,342
464,95	26,875
465,16	18,969
465,36	26,089
465,56	21,395
465,76	19,717
465,96	21,100
466,17	23,173
466,37	22,074
466,57	25,080
466,77	22,100
466,97	22,188
467,18	26,271
467,38	22,192
467,58	24,377
467,78	29,043
467,98	21,735
468,19	26,297
468,39	24,245
468,59	26,092
468,79	22,555
468,99	22,288
469,19	21,566
469,40	25,121
469,60	22,485
469,80	24,599
470,00	25,488
470,20	27,449
470,41	22,989
470,61	24,927
470,81	24,204
471,01	18,303
471,21	26,446
471,41	20,458
471,62	22,192
471,82	19,844
472,02	24,010
472,22	25,703
472,42	22,884
472,62	24,509
472,83	22,639
473,03	27,383
473,23	25,566
473,43	28,389
473,63	24,746
473,83	23,700
474,03	23,246
474,24	31,764
474,44	23,910
474,64	23,921
474,84	24,093
475,04	28,041
475,24	26,234
475,45	24,510
475,65	23,988
475,85	29,945
476,05	21,560
476,25	25,552
476,45	23,797
476,65	29,712
476,85	23,316
477,06	25,336
477,26	26,777
477,46	25,864
477,66	24,432
477,86	26,997
478,06	23,783
478,26	27,803
478,46	24,108
478,67	27,274
478,87	21,775
479,07	26,989
479,27	28,368
479,47	25,763
479,67	19,097
479,87	20,174
480,07	31,195
480,28	24,891
480,48	23,794
480,68	27,665
480,88	28,232
481,08	24,245
481,28	29,049
481,48	24,981
481,68	27,458
481,88	24,272
482,08	23,175
482,29	28,329
482,49	21,144
482,69	25,965
482,89	23,967
483,09	29,983
483,29	26,424
483,49	22,482
483,69	24,716
483,89	27,303
484,09	24,908
484,29	22,477
484,50	26,550
484,70	25,724
484,90	24,281
485,10	26,093
485,30	29,603
485,50	27,276
485,70	27,296
485,90	24,019
486,10	22,166
486,30	26,800
486,50	26,026
486,70	24,000
486,90	24,362
487,10	28,885
487,30	25,584
487,51	25,691
487,71	23,221
487,91	25,671
488,11	27,255
488,31	22,768
488,51	27,746
488,71	25,118
488,91	26,915
489,11	24,068
489,31	28,621
489,51	26,958
489,71	26,628
489,91	26,394
490,11	24,281
490,31	23,402
490,51	27,426
490,71	26,334
490,91	24,106
491,11	26,633
491,31	25,733
491,51	23,247
491,72	27,124
491,92	28,286
492,12	29,680
492,32	27,743
492,52	30,174
492,72	31,614
492,92	27,117
493,12	28,445
493,32	24,055
493,52	25,294
493,72	26,800
493,92	26,868
494,12	26,973
494,32	28,445
494,52	26,482
494,72	28,088
494,92	23,583
495,12	27,397
495,32	29,437
495,52	25,565
495,72	26,194
495,92	30,846
496,12	30,172
496,32	25,501
496,52	26,421
496,72	27,545
496,92	28,488
497,12	28,827
497,32	30,367
497,52	29,900
497,72	30,417
497,92	29,178
498,12	28,241
498,32	30,514
498,52	30,508
498,72	28,281
498,92	26,999
499,12	32,237
499,32	26,895
499,52	28,265
499,72	30,540
499,92	30,335
500,12	31,218
500,32	31,462
500,52	28,364
500,72	36,258
500,91	34,167
501,11	29,761
501,31	25,511
501,51	31,203
501,71	30,747
501,91	30,721
502,11	28,237
502,31	31,725
502,51	33,608
502,71	30,184
502,91	29,757
503,11	31,041
503,31	31,989
503,51	30,457
503,71	29,164
503,91	32,614
504,11	30,685
504,31	31,411
504,51	29,993
504,71	35,408
504,91	29,227
505,10	31,548
505,30	31,339
505,50	30,319
505,70	28,465
505,90	29,454
506,10	25,538
506,30	30,671
506,50	31,860
506,70	33,140
506,90	29,075
507,10	30,650
507,30	30,259
507,50	30,390
507,70	30,248
507,89	31,276
508,09	28,410
508,29	30,319
508,49	31,279
508,69	30,648
508,89	29,266
509,09	26,631
509,29	28,381
509,49	33,099
509,69	35,707
509,89	31,317
510,09	30,214
510,28	33,134
510,48	31,121
510,68	30,020
510,88	29,657
511,08	31,476
511,28	30,409
511,48	30,049
511,68	26,604
511,88	28,030
512,07	29,394
512,27	30,479
512,47	30,406
512,67	28,855
512,87	26,776
513,07	30,113
513,27	29,097
513,47	29,222
513,67	27,050
513,86	31,160
514,06	30,619
514,26	30,505
514,46	33,109
514,66	29,865
514,86	30,792
515,06	33,824
515,26	32,536
515,45	29,685
515,65	27,535
515,85	29,527
516,05	28,919
516,25	29,627
516,45	30,430
516,65	27,544
516,84	32,009
517,04	34,296
517,24	28,923
517,44	29,311
517,64	32,957
517,84	32,089
518,04	30,457
518,23	30,927
518,43	32,799
518,63	28,830
518,83	27,613
519,03	31,409
519,23	29,104
519,42	29,113
519,62	28,693
519,82	30,088
520,02	29,408
520,22	30,617
520,42	27,379
520,61	31,991
520,81	33,654
521,01	31,545
521,21	28,851
521,41	28,667
521,61	32,719
521,80	28,244
522,00	30,205
522,20	30,808
522,40	31,174
522,60	28,611
522,79	26,643
522,99	31,865
523,19	29,735
523,39	29,978
523,59	30,853
523,78	32,851
523,98	30,750
524,18	30,558
524,38	28,558
524,58	29,814
524,77	33,561
524,97	27,469
525,17	29,978
525,37	27,703
525,57	34,047
525,76	28,886
525,96	30,450
526,16	25,050
526,36	26,180
526,56	29,002
526,75	27,200
526,95	31,488
527,15	31,335
527,35	32,224
527,55	29,258
527,74	29,659
527,94	26,161
528,14	28,737
528,34	28,637
528,53	30,056
528,73	29,358
528,93	27,614
529,13	28,119
529,32	30,538
529,52	30,859
529,72	30,015
529,92	28,924
530,12	27,462
530,31	28,725
530,51	30,554
530,71	29,829
530,91	29,705
531,10	23,401
531,30	28,481
531,50	23,343
531,70	32,636
531,89	28,593
532,09	28,277
532,29	28,646
532,49	30,547
532,68	31,183
532,88	25,919
533,08	27,832
533,28	27,222
533,47	28,558
533,67	29,565
533,87	28,484
534,06	35,478
534,26	29,742
534,46	26,350
534,66	28,632
534,85	29,065
535,05	24,595
535,25	27,210
535,45	25,814
535,64	29,492
535,84	26,652
536,04	25,807
536,23	30,164
536,43	29,226
536,63	27,824
536,83	27,965
537,02	25,994
537,22	26,016
537,42	27,896
537,61	26,867
537,81	29,642
538,01	28,041
538,20	28,538
538,40	26,233
538,60	25,855
538,80	25,975
538,99	25,319
539,19	24,505
539,39	24,889
539,58	28,407
539,78	22,589
539,98	23,720
540,17	22,035
540,37	23,829
540,57	22,610
540,76	22,804
540,96	19,626
541,16	24,760
541,36	21,409
541,55	17,675
541,75	19,647
541,95	21,392
542,14	19,159
542,34	19,041
542,54	17,346
542,73	19,601
542,93	20,724
543,13	19,159
543,32	17,392
543,52	19,502
543,72	19,132
543,91	20,618
544,11	18,468
544,31	18,683
544,50	20,086
544,70	20,338
544,89	20,001
545,09	22,459
545,29	19,435
545,48	21,098
545,68	19,777
545,88	21,649
546,07	21,624
546,27	20,279
546,47	22,038
546,66	23,953
546,86	23,870
547,06	20,777
547,25	21,552
547,45	25,903
547,64	23,285
547,84	24,918
548,04	24,014
548,23	25,901
548,43	25,269
548,63	27,691
548,82	25,064
549,02	26,240
549,21	23,531
549,41	26,514
549,61	24,740
549,80	25,805
550,00	24,376
550,20	23,816
550,39	24,928
550,59	25,253
550,78	27,099
550,98	24,505
551,18	29,171
551,37	28,926
551,57	25,074
551,76	24,501
551,96	25,880
552,16	26,288
552,35	25,581
552,55	26,394
552,74	26,810
552,94	29,295
553,14	25,205
553,33	27,113
553,53	24,428
553,72	25,339
553,92	29,021
554,12	25,404
554,31	26,366
554,51	27,705
554,70	24,003
554,90	26,775
555,09	29,903
555,29	27,674
555,49	26,963
555,68	30,749
555,88	25,038
556,07	27,894
556,27	29,423
556,46	25,438
556,66	24,341
556,86	31,456
557,05	28,462
557,25	24,602
557,44	26,084
557,64	25,325
557,83	26,812
558,03	26,015
558,22	26,043
558,42	28,250
558,62	29,166
558,81	26,003
559,01	26,572
559,20	29,102
559,40	25,588
559,59	25,117
559,79	24,515
559,98	27,931
560,18	27,317
560,37	28,009
560,57	26,772
560,76	27,514
560,96	25,919
561,16	28,418
561,35	26,347
561,55	30,114
561,74	27,010
561,94	28,250
562,13	27,291
562,33	26,939
562,52	29,067
562,72	26,624
562,91	24,593
563,11	26,577
563,30	30,068
563,50	23,337
563,69	27,621
563,89	27,192
564,08	28,027
564,28	24,800
564,47	27,266
564,67	25,395
564,86	27,101
565,06	26,090
565,25	25,558
565,45	25,600
565,64	31,604
565,84	26,782
566,03	23,874
566,23	27,700
566,42	26,784
566,62	28,826
566,81	26,920
567,01	29,181
567,20	29,350
567,40	23,446
567,59	25,726
567,79	30,563
567,98	29,910
568,18	25,808
568,37	26,216
568,57	26,979
568,76	28,067
568,96	26,778
569,15	25,299
569,35	28,667
569,54	29,168
569,73	29,244
569,93	26,387
570,12	26,326
570,32	29,021
570,51	26,317
570,71	27,824
570,90	29,863
571,10	26,288
571,29	26,231
571,49	27,396
571,68	27,287
571,87	27,776
572,07	27,536
572,26	24,124
572,46	28,179
572,65	26,195
572,85	25,709
573,04	26,274
573,24	28,794
573,43	29,482
573,62	28,628
573,82	28,045
574,01	27,293
574,21	26,556
574,40	25,781
574,60	25,242
574,79	29,089
574,98	26,495
575,18	28,057
575,37	26,427
575,57	27,995
575,76	28,778
575,96	29,464
576,15	25,300
576,34	26,512
576,54	29,333
576,73	28,120
576,93	26,234
577,12	28,246
577,31	27,970
577,51	26,977
577,70	27,327
577,90	26,670
578,09	25,047
578,28	26,607
578,48	27,487
578,67	28,392
578,87	26,598
579,06	26,176
579,25	27,478
579,45	27,307
579,64	26,163
579,84	26,555
580,03	27,341
580,22	28,702
580,42	26,583
580,61	27,708
580,81	26,788
581,00	28,236
581,19	28,802
581,39	25,853
581,58	25,519
581,77	26,665
581,97	28,385
582,16	26,039
582,35	25,695
582,55	28,037
582,74	27,993
582,94	27,179
583,13	25,116
583,32	27,542
583,52	27,674
583,71	28,060
583,90	26,638
584,10	26,183
584,29	27,720
584,48	26,560
584,68	26,405
584,87	27,782
585,06	28,963
585,26	25,939
585,45	26,429
585,65	29,045
585,84	27,352
586,03	26,510
586,23	26,222
586,42	27,891
586,61	28,559
586,81	26,961
587,00	27,574
587,19	27,111
587,39	29,583
587,58	28,629
587,77	27,614
587,97	26,139
588,16	27,262
588,35	28,022
588,54	27,541
588,74	27,013
588,93	30,752
589,12	27,949
589,32	27,131
589,51	25,915
589,70	25,720
589,90	26,135
590,09	26,331
590,28	31,993
590,48	26,990
590,67	26,274
590,86	27,150
591,06	28,137
591,25	29,491
591,44	30,167
591,63	28,277
591,83	28,367
592,02	27,627
592,21	26,654
592,41	26,311
592,60	28,761
592,79	28,790
592,98	27,615
593,18	27,445
593,37	28,256
593,56	29,034
593,76	28,016
593,95	27,645
594,14	28,762
594,33	30,828
594,53	29,584
594,72	27,397
594,91	30,403
595,10	28,849
595,30	27,906
595,49	27,848
595,68	30,467
595,88	30,238
596,07	27,551
596,26	29,127
596,45	28,323
596,65	27,730
596,84	27,678
597,03	29,074
597,22	29,049
597,42	30,939
597,61	28,380
597,80	28,889
597,99	28,926
598,19	28,887
598,38	30,489
598,57	28,394
598,76	31,874
598,95	28,916
599,15	30,274
599,34	29,052
599,53	28,728
599,72	29,221
599,92	30,521
600,11	28,065
600,30	29,123
600,49	31,012
600,69	29,435
600,88	30,682
601,07	30,367
601,26	29,456
601,45	30,805
601,65	27,863
601,84	29,823
602,03	29,967
602,22	32,165
602,42	31,105
602,61	28,318
602,80	30,655
602,99	29,080
603,18	29,028
603,38	30,988
603,57	29,897
603,76	29,024
603,95	28,345
604,14	30,691
604,34	29,050
604,53	29,180
604,72	30,435
604,91	30,134
605,10	31,609
605,29	30,394
605,49	28,394
605,68	29,700
605,87	32,835
606,06	28,572
606,25	28,811
606,45	30,439
606,64	31,326
606,83	32,234
607,02	30,503
607,21	31,570
607,40	30,625
607,60	28,653
607,79	27,208
607,98	27,377
608,17	28,530
608,36	28,258
608,55	28,989
608,75	28,069
608,94	28,962
609,13	25,374
609,32	23,235
609,51	25,405
609,70	24,656
609,89	27,492
610,09	24,224
610,28	27,771
610,47	25,341
610,66	24,105
610,85	23,822
611,04	27,189
611,23	23,516
611,43	23,564
611,62	23,636
611,81	24,602
612,00	25,911
612,19	24,229
612,38	24,198
612,57	26,895
612,77	26,972
612,96	25,502
613,15	26,251
613,34	28,645
613,53	28,233
613,72	28,603
613,91	27,963
614,10	27,608
614,29	31,049
614,49	25,707
614,68	26,029
614,87	30,706
615,06	32,509
615,25	26,257
615,44	30,120
615,63	29,885
615,82	28,390
616,01	28,327
616,21	28,380
616,40	30,145
616,59	32,182
616,78	30,125
616,97	30,944
617,16	30,476
617,35	32,081
617,54	30,429
617,73	31,770
617,92	30,338
618,11	30,604
618,31	27,154
618,50	31,592
618,69	29,214
618,88	30,153
619,07	28,712
619,26	27,901
619,45	27,567
619,64	29,055
619,83	27,404
620,02	29,414
620,21	33,328
620,40	30,334
620,59	28,596
620,78	29,232
620,97	30,408
621,17	31,960
621,36	29,535
621,55	28,854
621,74	30,924
621,93	29,553
622,12	29,935
622,31	28,952
622,50	29,233
622,69	31,506
622,88	31,871
623,07	31,646
623,26	31,036
623,45	32,422
623,64	28,310
623,83	28,340
624,02	32,218
624,21	31,398
624,40	31,943
624,59	27,791
624,78	32,741
624,97	32,760
625,16	28,419
625,35	28,895
625,54	30,738
625,73	29,199
625,92	30,906
626,12	32,326
626,31	34,403
626,50	31,796
626,69	30,560
626,88	28,404
627,07	31,930
627,26	32,172
627,45	30,247
627,64	30,234
627,83	32,598
628,02	30,693
628,21	30,598
628,40	31,263
628,59	31,787
628,78	30,704
628,97	28,977
629,16	28,796
629,35	31,240
629,54	35,059
629,73	29,133
629,92	28,344
630,10	31,602
630,29	31,268
630,48	30,345
630,67	29,280
630,86	32,285
631,05	30,610
631,24	33,347
631,43	29,163
631,62	31,674
631,81	31,212
632,00	30,825
632,19	29,241
632,38	32,638
632,57	26,898
632,76	30,231
632,95	31,463
633,14	33,255
633,33	34,089
633,52	31,643
633,71	31,395
633,90	30,384
634,09	29,577
634,28	31,501
634,47	30,129
634,66	31,466
634,85	31,316
635,04	33,443
635,22	30,912
635,41	31,455
635,60	33,333
635,79	32,014
635,98	30,532
636,17	31,666
636,36	31,308
636,55	31,106
636,74	29,448
636,93	31,760
637,12	32,674
637,31	32,633
637,50	30,463
637,69	33,521
637,87	33,739
638,06	31,495
638,25	30,851
638,44	32,277
638,63	28,345
638,82	32,813
639,01	31,810
639,20	32,412
639,39	34,808
639,58	30,248
639,77	32,314
639,95	30,296
640,14	33,120
640,33	31,219
640,52	30,963
640,71	35,011
640,90	32,780
641,09	34,416
641,28	30,874
641,47	32,929
641,66	33,099
641,84	31,401
642,03	31,367
642,22	33,669
642,41	34,074
642,60	32,880
642,79	31,200
642,98	33,524
643,17	31,812
643,35	29,010
643,54	30,973
643,73	32,958
643,92	32,563
644,11	31,471
644,30	32,732
644,49	32,522
644,67	31,092
644,86	32,064
645,05	33,357
645,24	31,319
645,43	33,138
645,62	32,547
645,81	31,310
645,99	35,333
646,18	32,643
646,37	31,391
646,56	32,032
646,75	33,031
646,94	33,434
647,13	32,429
647,31	30,644
647,50	33,416
647,69	34,386
647,88	32,147
648,07	31,653
648,26	34,942
648,44	32,969
648,63	30,816
648,82	32,640
649,01	34,223
649,20	30,461
649,38	32,533
649,57	31,824
649,76	30,295
649,95	33,022
650,14	30,033
650,33	30,096
650,51	32,858
650,70	33,802
650,89	31,671
651,08	32,561
651,27	32,572
651,45	30,871
651,64	30,195
651,83	32,364
652,02	30,862
652,21	33,605
652,39	33,360
652,58	32,494
652,77	33,372
652,96	32,617
653,15	33,009
653,33	33,496
653,52	34,159
653,71	35,290
653,90	34,124
654,09	33,047
654,27	33,142
654,46	34,459
654,65	33,432
654,84	31,865
655,02	35,446
655,21	33,102
655,40	33,761
655,59	34,741
655,77	35,197
655,96	34,342
656,15	33,843
656,34	35,417
656,53	33,664
656,71	34,409
656,90	33,946
657,09	33,971
657,28	34,770
657,46	32,753
657,65	33,814
657,84	33,069
658,03	34,845
658,21	32,096
658,40	32,029
658,59	31,895
658,78	34,060
658,96	32,833
659,15	33,328
659,34	32,473
659,52	32,408
659,71	33,761
659,90	30,681
660,09	34,198
660,27	31,923
660,46	33,634
660,65	30,345
660,84	31,899
661,02	33,601
661,21	33,402
661,40	32,107
661,58	32,230
661,77	32,395
661,96	29,433
662,15	31,589
662,33	31,710
662,52	32,596
662,71	34,010
662,89	29,877
663,08	31,480
663,27	30,795
663,45	32,123
663,64	32,650
663,83	30,573
664,02	30,550
664,20	32,510
664,39	32,113
664,58	32,953
664,76	33,013
664,95	32,394
665,14	31,836
665,32	31,354
665,51	34,329
665,70	32,306
665,88	33,596
666,07	31,729
666,26	34,360
666,44	34,788
666,63	30,637
666,82	30,954
667,00	33,179
667,19	29,703
667,38	33,555
667,56	33,306
667,75	31,974
667,94	33,296
668,12	29,576
668,31	32,948
668,50	33,793
668,68	33,917
668,87	32,739
669,06	31,894
669,24	34,948
669,43	31,488
669,62	30,345
669,80	30,005
669,99	32,587
670,18	32,014
670,36	30,444
670,55	33,608
670,74	33,319
670,92	30,814
671,11	33,140
671,29	31,583
671,48	32,026
671,67	33,894
671,85	33,826
672,04	30,015
672,23	30,529
672,41	32,461
672,60	31,621
672,78	29,983
672,97	32,391
673,16	32,719
673,34	31,031
673,53	31,493
673,71	32,299
673,90	33,301
674,09	32,028
674,27	32,065
674,46	32,729
674,64	32,653
674,83	32,080
675,02	30,494
675,20	32,715
675,39	32,105
675,57	32,162
675,76	31,850
675,95	33,794
676,13	33,338
676,32	32,262
676,50	32,294
676,69	29,100
676,88	31,272
677,06	30,823
677,25	31,843
677,43	34,430
677,62	32,889
677,80	31,806
677,99	32,871
678,18	34,048
678,36	34,013
678,55	31,010
678,73	30,942
678,92	33,919
679,10	33,055
679,29	32,697
679,48	29,748
679,66	31,500
679,85	31,539
680,03	32,259
680,22	31,994
680,40	32,219
680,59	31,790
680,77	31,757
680,96	30,858
681,15	31,198
681,33	33,093
681,52	30,836
681,70	32,444
681,89	33,794
682,07	33,511
682,26	31,563
682,44	32,662
682,63	31,806
682,81	32,428
683,00	31,598
683,18	30,760
683,37	33,558
683,55	31,136
683,74	34,265
683,92	37,943
684,11	32,168
684,29	33,700
684,48	29,871
684,67	31,997
684,85	33,508
685,04	32,636
685,22	32,768
685,41	30,863
685,59	32,689
685,78	30,745
685,96	31,362
686,15	29,707
686,33	32,110
686,52	31,973
686,70	32,481
686,89	33,541
687,07	33,504
687,26	32,677
687,44	34,140
687,62	31,821
687,81	34,459
687,99	32,585
688,18	33,083
688,36	32,050
688,55	33,863
688,73	33,444
688,92	30,311
689,10	32,528
689,29	33,166
689,47	34,621
689,66	31,951
689,84	31,634
690,03	34,079
690,21	31,312
690,40	34,036
690,58	31,455
690,76	31,649
690,95	33,180
691,13	32,019
691,32	33,731
691,50	32,825
691,69	35,288
691,87	31,393
692,06	31,711
692,24	31,854
692,43	33,293
692,61	31,797
692,79	32,180
692,98	31,031
693,16	34,020
693,35	32,604
693,53	31,108
693,72	33,949
693,90	33,644
694,08	32,000
694,27	31,456
694,45	35,961
694,64	36,186
694,82	32,037
695,01	32,576
695,19	31,350
695,37	33,320
695,56	32,120
695,74	33,390
695,93	34,256
696,11	32,035
696,29	33,342
696,48	32,687
696,66	32,013
696,85	31,825
697,03	31,458
697,21	34,342
697,40	34,158
697,58	33,442
697,77	33,014
697,95	33,730
698,13	33,411
698,32	32,454
698,50	32,098
698,69	32,530
698,87	32,808
699,05	33,629
699,24	31,583
699,42	33,150
699,60	29,113
699,79	31,527
699,97	32,360
700,16	30,117
700,34	34,739
700,52	32,355
700,71	32,406
700,89	32,404
701,07	33,652
701,26	34,993
701,44	31,267
701,63	31,564
701,81	34,261
701,99	33,558
702,18	30,714
702,36	31,373
702,54	32,209
702,73	30,806
702,91	33,223
703,09	31,958
703,28	32,417
703,46	32,572
703,64	32,960
703,83	33,629
704,01	34,189
704,19	31,537
704,38	31,188
704,56	31,391
704,74	33,877
704,93	32,424
705,11	32,525
705,29	32,632
705,48	37,633
705,66	33,161
705,84	32,026
706,03	30,243
706,21	34,158
706,39	31,124
706,58	32,572
706,76	30,064
706,94	33,742
707,12	33,145
707,31	32,206
707,49	30,692
707,67	32,080
707,86	36,466
708,04	32,917
708,22	32,143
708,41	32,764
708,59	33,844
708,77	30,663
708,95	33,827
709,14	36,019
709,32	34,062
709,50	31,345
709,69	31,148
709,87	32,931
710,05	31,990
710,23	32,004
710,42	32,194
710,60	32,950
710,78	33,959
710,97	32,697
711,15	30,756
711,33	33,953
711,51	31,193
711,70	31,080
711,88	32,226
712,06	34,690
712,24	30,080
712,43	32,685
712,61	30,468
712,79	32,965
712,97	32,088
713,16	33,357
713,34	32,361
713,52	34,067
713,70	34,131
713,89	30,608
714,07	32,333
714,25	33,496
714,43	34,828
714,62	31,666
714,80	32,101
714,98	30,964
715,16	31,937
715,35	30,143
715,53	30,586
715,71	34,365
715,89	34,991
716,07	31,751
716,26	35,523
716,44	33,470
716,62	35,077
716,80	32,764
716,99	30,560
717,17	34,830
717,35	31,523
717,53	31,200
717,71	31,313
717,90	34,304
718,08	32,159
718,26	29,137
718,44	31,569
718,62	33,870
718,81	34,533
718,99	32,557
719,17	31,345
719,35	32,794
719,53	32,134
719,72	29,523
719,90	32,647
720,08	31,192
720,26	34,775
720,44	31,093
720,62	31,256
720,81	35,221
720,99	35,529
721,17	32,404
721,35	33,365
721,53	33,869
721,72	35,163
721,90	32,882
722,08	33,960
722,26	34,265
722,44	33,921
722,62	30,526
722,81	31,471
722,99	31,479
723,17	33,312
723,35	32,739
723,53	32,327
723,71	34,429
723,89	34,426
724,08	28,263
724,26	29,585
724,44	34,545
724,62	32,402
724,80	30,181
724,98	33,218
725,16	35,551
725,35	31,806
725,53	30,206
725,71	31,540
725,89	32,648
726,07	35,472
726,25	34,865
726,43	31,329
726,61	34,424
726,80	33,344
726,98	31,060
727,16	32,446
727,34	35,472
727,52	32,881
727,70	30,560
727,88	31,193
728,06	31,187
728,25	30,859
728,43	32,285
728,61	29,600
728,79	32,436
728,97	33,912
729,15	31,099
729,33	31,153
729,51	32,998
729,69	32,242
729,87	31,985
730,06	32,663
730,24	32,771
730,42	34,997
730,60	29,285
730,78	33,132
730,96	31,781
731,14	32,628
731,32	33,037
731,50	32,769
731,68	31,505
731,86	35,118
732,04	32,470
732,22	32,577
732,41	36,969
732,59	34,087
732,77	34,839
732,95	35,794
733,13	34,951
733,31	32,076
733,49	30,110
733,67	33,928
733,85	33,841
734,03	32,636
734,21	33,300
734,39	32,667
734,57	35,494
734,75	34,462
734,93	31,788
735,11	31,931
735,29	30,676
735,47	34,130
735,65	31,292
735,84	29,541
736,02	33,517
736,20	35,295
736,38	32,117
736,56	32,175
736,74	32,744
736,92	32,843
737,10	32,537
737,28	31,890
737,46	33,548
737,64	32,798
737,82	31,886
738,00	33,168
738,18	33,609
738,36	32,075
738,54	31,021
738,72	31,339
738,90	34,130
739,08	33,236
739,26	29,786
739,44	30,839
739,62	34,172
739,80	32,224
739,98	31,615
740,16	32,176
740,34	32,443
740,52	34,761
740,70	33,505
740,88	31,547
741,06	32,779
741,24	32,851
741,42	33,934
741,60	31,031
741,78	33,040
741,96	33,047
742,14	31,623
742,32	29,756
742,50	31,981
742,68	34,288
742,86	31,166
743,04	30,492
743,21	34,007
743,39	34,333
743,57	35,023
743,75	32,745
743,93	31,395
744,11	29,958
744,29	31,128
744,47	32,330
744,65	32,409
744,83	32,113
745,01	32,038
745,19	33,939
745,37	37,677
745,55	34,730
745,73	34,229
745,91	29,973
746,09	32,083
746,27	32,561
746,45	29,877
746,62	31,231
746,80	31,982
746,98	33,609
747,16	31,270
747,34	34,088
747,52	31,986
747,70	31,266
747,88	32,360
748,06	31,388
748,24	33,735
748,42	33,657
748,60	32,517
748,78	31,027
748,95	34,463
749,13	34,396
749,31	30,642
749,49	30,250
749,67	33,463
749,85	34,995
750,03	31,297
750,21	31,474
750,39	33,479
750,57	33,930
750,74	34,410
750,92	32,140
751,10	33,045
751,28	31,574
751,46	32,636
751,64	33,415
751,82	35,653
752,00	32,802
752,17	33,132
752,35	30,860
752,53	33,615
752,71	31,683
752,89	32,060
753,07	32,344
753,25	34,424
753,43	30,930
753,60	35,407
753,78	31,298
753,96	34,572
754,14	31,782
754,32	33,173
754,50	34,661
754,68	33,104
754,85	33,696
755,03	32,955
755,21	32,443
755,39	36,044
755,57	33,162
755,75	33,772
755,92	31,838
756,10	34,640
756,28	32,885
756,46	31,130
756,64	32,513
756,82	34,407
756,99	31,671
757,17	31,687
757,35	31,684
757,53	35,198
757,71	36,326
757,89	32,002
758,06	32,566
758,24	34,308
758,42	33,910
758,60	29,991
758,78	32,902
758,95	33,030
759,13	33,555
759,31	31,747
759,49	31,875
759,67	33,480
759,84	32,779
760,02	32,601
760,20	32,437
760,38	32,539
760,56	32,766
760,73	32,201
760,91	32,860
761,09	34,686
761,27	31,493
761,45	31,576
761,62	33,102
761,80	31,876
761,98	34,668
762,16	31,755
762,33	31,264
762,51	34,217
762,69	32,515
762,87	31,125
763,05	31,062
763,22	31,256
763,40	32,351
763,58	31,333
763,76	32,127
763,93	34,583
764,11	34,173
764,29	31,953
764,47	33,102
764,64	33,293
764,82	36,572
765,00	31,401
765,18	29,804
765,35	33,527
765,53	32,094
765,71	31,631
765,89	32,391
766,06	31,826
766,24	32,635
766,42	35,082
766,60	31,210
766,77	31,225
766,95	32,769
767,13	34,571
767,30	33,062
767,48	32,837
767,66	31,031
767,84	31,009
768,01	32,171
768,19	33,812
768,37	31,555
768,54	32,040
768,72	32,652
768,90	33,818
769,08	32,938
769,25	32,089
769,43	31,763
769,61	31,416
769,78	33,559
769,96	31,434
770,14	33,588
770,31	34,345
770,49	34,384
770,67	33,261
770,85	32,672
771,02	32,194
771,20	33,166
771,38	34,371
771,55	32,333
771,73	32,668
771,91	31,678
772,08	34,108
772,26	33,376
772,44	32,519
772,61	33,384
772,79	31,283
772,97	31,256
773,14	32,183
773,32	33,874
773,50	34,002
773,67	33,295
773,85	34,272
774,03	34,967
774,20	31,242
774,38	29,332
774,56	31,721
774,73	31,266
774,91	31,433
775,09	31,621
775,26	34,037
775,44	34,296
775,61	32,000
775,79	32,586
775,97	35,592
776,14	32,216
776,32	31,663
776,50	34,257
776,67	34,193
776,85	32,862
777,03	29,301
777,20	32,702
777,38	35,962
777,55	35,381
777,73	30,533
777,91	31,722
778,08	32,093
778,26	32,860
778,43	34,396
778,61	29,253
778,79	32,713
778,96	32,112
779,14	31,819
779,32	31,555
779,49	31,180
779,67	36,698
779,84	32,241
780,02	33,211
780,20	28,702
780,37	33,778
780,55	30,255
780,72	34,767
780,90	35,579
781,07	35,207
781,25	34,723
781,43	31,897
781,60	32,503
781,78	32,092
781,95	33,558
782,13	33,139
782,30	36,219
782,48	35,377
782,66	31,708
782,83	29,912
783,01	37,977
783,18	36,853
783,36	32,528
783,53	33,347
783,71	32,597
783,89	31,183
784,06	34,070
784,24	32,697
784,41	36,924
784,59	33,778
784,76	35,601
784,94	33,243
785,11	31,769
785,29	33,294
785,46	32,415
785,64	31,744
785,82	36,650
785,99	34,857
786,17	34,470
786,34	31,949
786,52	37,761
786,69	37,923
786,87	32,078
787,04	33,264
787,22	33,433
787,39	34,430
787,57	34,999
787,74	31,586
787,92	37,061
788,09	34,345
788,27	32,251
788,44	31,899
788,62	34,970
788,79	35,123
788,97	35,575
789,14	33,207
789,32	32,494
789,49	32,206
789,67	34,647
789,84	31,640
790,02	36,963
790,19	34,015
790,37	33,249
790,54	32,566
790,72	38,392
790,89	36,626
791,07	36,254
791,24	31,829
791,42	35,718
791,59	35,403
791,77	30,813
791,94	31,672
792,12	33,142
792,29	35,218
792,47	35,410
792,64	37,424
792,81	34,586
792,99	31,932
793,16	34,887
793,34	33,985
793,51	34,067
793,69	35,822
793,86	33,872
794,04	31,940
794,21	36,494
794,39	32,259
794,56	32,874
794,73	33,865
794,91	36,362
795,08	35,413
795,26	34,002
795,43	34,227
795,61	39,586
795,78	36,446
795,95	34,987
796,13	37,015
796,30	37,759
796,48	31,099
796,65	34,230
796,83	35,170
797,00	40,600
797,17	34,584
797,35	34,172
797,52	34,982
797,70	37,396
797,87	35,842
798,04	31,357
798,22	35,758
798,39	34,072
798,57	33,370
798,74	37,318
798,91	32,429
799,09	32,494
799,26	35,682
799,44	35,445
799,61	33,033
799,78	33,856
799,96	38,571
800,13	32,323
800,31	31,269
800,48	40,573
800,65	38,901
800,83	34,783
801,00	35,771
801,17	36,141
801,35	29,936
801,52	32,527
801,70	36,821
801,87	35,221
802,04	37,494
802,22	32,900
802,39	33,441
802,56	40,524
802,74	38,800
802,91	30,343
803,08	30,996
803,26	34,540
803,43	39,775
803,61	34,823
803,78	34,211
803,95	37,289
804,13	38,403
804,30	34,432
804,47	35,248
804,65	36,971
804,82	38,423
804,99	33,652
805,17	32,483
805,34	44,107
805,51	42,063
805,69	35,774
805,86	26,963
806,03	46,135
806,21	37,420
806,38	38,401
806,55	37,178
806,72	41,981
806,90	38,618
807,07	31,826
807,24	33,410
807,42	32,805
807,59	36,914
807,76	31,586
807,94	31,832
808,11	34,038
808,28	38,966
808,45	36,822
808,63	34,359
808,80	36,554
808,97	36,155
809,15	32,560
809,32	39,364
809,49	34,662
809,67	37,883
809,84	35,669
810,01	36,077
810,18	44,232
810,36	39,374
810,53	39,730
810,70	36,262
810,87	40,853
811,05	37,534
811,22	37,924
811,39	34,512
811,57	37,232
811,74	37,371
811,91	37,213
812,08	34,471
812,26	40,874
812,43	37,299
812,60	39,148
812,77	36,542
812,95	39,804
813,12	37,898
813,29	31,607
813,46	36,132
813,64	39,079
813,81	37,539
813,98	35,960
814,15	39,200
814,32	43,273
814,50	41,737
814,67	36,358
814,84	39,897
815,01	37,780
815,19	31,222
815,36	28,638
815,53	36,037
815,70	34,321
815,87	35,549
816,05	33,579
816,22	35,587
816,39	44,694
816,56	42,382
816,74	38,780
816,91	31,025
817,08	44,849
817,25	44,221
817,42	35,033
817,60	36,328
817,77	38,447
817,94	37,776
818,11	37,420
818,28	36,478
818,45	42,635
818,63	35,939
818,80	36,180
818,97	39,445
819,14	45,118
819,31	43,521
819,49	39,927
819,66	33,057
819,83	36,373
820,00	44,425
820,17	33,433
820,34	37,582
820,52	41,369
820,69	43,053
820,86	38,777
821,03	36,807
821,20	45,323
821,37	42,793
821,55	27,234
821,72	37,392
821,89	40,847
822,06	39,706
822,23	35,436
822,40	35,964
822,57	40,977
822,75	43,582
822,92	30,582
823,09	40,391
823,26	40,712
823,43	44,881
823,60	28,010
823,77	36,532
823,94	41,784
824,12	45,889
824,29	32,396
824,46	35,612
824,63	48,963
824,80	44,950
824,97	36,427
825,14	32,312
825,31	44,188
825,49	40,082
825,66	37,022
825,83	32,892
826,00	39,967
826,17	45,827
826,34	37,355
826,51	28,694
826,68	37,249
826,85	42,280
827,02	35,982
827,20	31,085
827,37	35,321
827,54	40,139
827,71	39,206
827,88	39,000
828,05	42,593
828,22	39,924
828,39	40,518
828,56	37,835
828,73	43,037
828,90	45,434
829,07	33,532
829,25	37,463
829,42	42,978
829,59	36,340
829,76	38,211
829,93	35,106
830,10	37,060
830,27	38,449
830,44	39,049
830,61	36,974
830,78	51,864
830,95	37,482
831,12	36,807
831,29	33,407
831,46	39,107
831,63	43,641
831,80	33,554
831,97	34,899
832,14	40,535
832,31	51,909
832,48	39,679
832,65	41,132
832,83	45,065
833,00	46,329
833,17	34,318
833,34	44,339
833,51	41,483
833,68	50,781
833,85	45,897
834,02	29,448
834,19	38,842
834,36	48,657
834,53	37,425
834,70	37,818
834,87	53,656
835,04	40,154
835,21	41,504
835,38	36,699
835,55	38,665
835,72	48,251
835,89	32,208
836,06	33,266
836,23	55,264
836,40	35,857
836,57	37,301
836,74	48,395
836,91	46,702
837,08	53,084
837,25	37,943
837,42	28,764
837,59	37,857
837,76	43,532
837,93	38,592
838,09	32,179
838,26	44,276
838,43	49,276
838,60	39,364
838,77	36,414
838,94	51,442
839,11	32,680
839,28	35,085
839,45	39,191
839,62	37,704
839,79	46,773
839,96	41,433
840,13	42,819
840,30	34,340
840,47	48,222
840,64	33,263
840,81	38,847
840,98	35,201
841,15	42,496
841,32	29,993
841,48	46,401
841,65	48,049
841,82	46,616
841,99	33,230
842,16	34,700
842,33	45,044
842,50	43,766
842,67	35,771
842,84	43,135
843,01	46,201
843,18	43,175
843,35	36,404
843,52	32,880
843,68	40,126
843,85	47,430
844,02	44,723
844,19	40,209
844,36	56,217
844,53	53,777
844,70	44,066
844,87	50,204
845,04	46,904
845,21	34,353
845,37	54,734
845,54	42,794
845,71	36,434
845,88	65,799
846,05	32,133
846,22	28,674
846,39	48,701
846,56	53,745
846,72	31,386
846,89	48,182
847,06	55,867
847,23	53,284
847,40	29,434
847,57	28,890
847,74	50,956
847,90	53,654
848,07	36,289
848,24	44,382
848,41	42,312
848,58	58,032
848,75	42,758
848,92	37,010
849,08	40,830
849,25	42,154
849,42	39,662
849,59	45,390
849,76	37,195
849,93	45,869
850,09	40,819
850,26	33,214
850,43	53,083
850,60	42,798
850,77	40,351
850,94	42,213
851,10	46,771
851,27	47,264
851,44	41,126
851,61	32,192
851,78	59,536
851,95	50,713
852,11	35,064
852,28	42,347
852,45	55,948
852,62	45,775
852,79	49,484
852,95	34,972
853,12	54,420
853,29	41,032
853,46	41,027
853,63	54,515
853,79	43,339
853,96	31,053
854,13	52,912
854,30	31,961
854,46	68,529
854,63	53,588
854,80	37,834
854,97	34,260
855,14	64,518
855,30	59,686
855,47	44,789
855,64	46,300
855,81	46,579
855,97	58,013
856,14	49,980
856,31	38,099
856,48	58,296
856,65	73,104
856,81	44,535
856,98	41,193
857,15	41,889
857,32	53,560
857,48	28,499
857,65	51,189
857,82	55,541
857,99	48,458
858,15	40,081
858,32	42,092
858,49	54,216
858,65	70,545
858,82	55,079
858,99	44,182
859,16	61,409
859,32	56,618
859,49	46,466
859,66	52,427
859,83	57,113
859,99	39,658
860,16	51,197
860,33	45,968
860,49	57,768
860,66	68,201
860,83	39,542
861,00	41,614
861,16	52,497
861,33	64,549
861,50	36,158
861,66	57,821
861,83	79,994
862,00	52,781
862,16	58,321
862,33	41,043
862,50	72,725
862,67	44,276
862,83	37,898
863,00	52,972
863,17	87,801
863,33	44,274
863,50	8,922
863,67	46,060
863,83	61,382
864,00	69,771
864,17	40,496
864,33	44,100
864,50	64,647
864,67	47,036
864,83	39,445
865,00	31,993
865,17	43,761
865,33	63,220
865,50	38,382
865,67	32,575
865,83	63,663
866,00	91,371
866,17	69,072
866,33	53,689
866,50	81,031
866,66	58,334
866,83	61,328
867,00	60,799
867,16	82,144
867,33	82,612
867,50	33,176
867,66	32,838
867,83	69,694
868,00	73,277
868,16	52,845
868,33	23,272
868,49	57,346
868,66	77,889
868,83	45,291
868,99	51,426
869,16	87,523
869,32	88,653
869,49	61,165
869,66	22,272
869,82	79,918
869,99	90,456
870,15	48,396
870,32	62,106
870,49	100,591
870,65	128,060
870,82	53,582
870,98	44,839
871,15	101,641
871,32	55,484
871,48	45,575
871,65	32,418
871,81	68,982
871,98	31,731
872,15	39,522
872,31	32,113
872,48	112,660
872,64	58,356
872,81	39,934
872,97	45,946
873,14	93,852
873,31	85,321
873,47	28,900
873,64	49,829
873,80	125,586
873,97	129,378
874,13	26,443
874,30	62,068
874,46	95,750
874,63	59,210
874,80	49,262
874,96	2,458
875,13	113,727
875,29	79,551
875,46	75,727
875,62	34,332
875,79	137,618
875,95	57,967
876,12	41,614
876,28	3,559
876,45	108,152
876,61	58,127
876,78	73,124
876,94	51,838
877,11	91,961
877,27	86,938
877,44	78,942
877,60	39,668
877,77	93,615
877,94	120,498
878,10	17,353
878,27	77,785
878,43	133,255
878,60	49,344
878,76	53,030
878,93	72,466
879,09	153,837
879,26	119,780
879,42	104,916
879,58	87,204
879,75	108,514
879,91	131,049
880,08	4,961
880,24	57,885
880,41	86,759
880,57	105,334
880,74	35,233
880,90	41,913
881,07	92,922
881,23	134,847
881,40	85,127
881,56	68,626
881,73	121,604
881,89	105,016
882,06	16,530
882,22	198,317
882,38	176,337
882,55	139,637
882,71	67,403
882,88	26,902
883,04	179,264
883,21	253,300
883,37	46,905
883,54	73,188
883,70	257,315
883,86	123,352
884,03	57,334
884,19	37,368
884,36	107,476
884,52	247,849
884,69	79,574
884,85	62,824
885,01	173,618
885,18	108,782
885,34	169,541
885,51	6,234
885,67	105,213
>>>>> Data<<<<< Espectral Procesado Extremo
