Fichero De Datos De SpectraSuite
++++++++++++++++++++++++++++++++++++
Fecha: Wed Apr 22 11:38:25 CEST 2009
Usuario: evoflor
Presente Oscuro Del Espectro: Sí
La Referencia de Presente Del Espectro De: Sí
Muestreados de los componentes de Número de espectros: 1
Espectrómetros: USB4F02353
Tiempo de integración (usec): 500000 (USB4F02353)
Promedio de Espectros Hechos un: 5 (USB4F02353)
El Alisar Del Furgón: 0 (USB4F02353)
Párrafo de de Corregir del la del del de Eléctrica del obscuridad: Sí (USB4F02353)
Estrobo/Lámpara Permitido: No (USB4F02353)
Correct for Detector Non-linearity: No (USB4F02353)
Párrafo de de Corregir del la del del de Externa del luz: No (USB4F02353)
Procesado del espectro de Número de pixeles en: 3648
>>>>> Comienza Data<<<<< Espectral Procesado Del EL
177,79	314,384
178,00	314,384
178,22	314,384
178,44	1326,703
178,66	-210,424
178,88	144,072
179,09	-436,043
179,31	196,991
179,53	668,328
179,75	270,693
179,96	472,155
180,18	-102,062
180,40	352,134
180,62	496,207
180,83	-34,008
181,05	-1798,415
181,27	-86270,000
181,49	-48,630
181,70	75,654
181,92	579,543
182,14	769,488
182,36	155,124
182,58	226,300
182,79	1200,759
183,01	-49,458
183,23	158,709
183,45	-168,523
183,66	-110,929
183,88	131,588
184,10	-3712,182
184,32	113,292
184,53	282,038
184,75	-110,859
184,97	48,872
185,18	-182,462
185,40	-509,952
185,62	86,194
185,84	127,445
186,05	108,537
186,27	-201,813
186,49	4218,077
186,71	21,256
186,92	72,757
187,14	-252,695
187,36	129,365
187,58	99,968
187,79	9,772
188,01	240,448
188,23	-288,551
188,45	91,367
188,66	328,884
188,88	-1764,909
189,10	-2158,700
189,31	-193,294
189,53	-39,653
189,75	322,886
189,97	193,346
190,18	-220,730
190,40	486,294
190,62	-278,514
190,83	-262,393
191,05	310,286
191,27	346,771
191,49	503,144
191,70	-856,106
191,92	-708,220
192,14	20,897
192,35	627,507
192,57	3802,000
192,79	124,989
193,01	181,174
193,22	72,510
193,44	-154,898
193,66	72,985
193,87	26,702
194,09	-40,011
194,31	156,414
194,53	659,930
194,74	76,726
194,96	0,985
195,18	159,112
195,39	-315,488
195,61	-114,651
195,83	-144,500
196,04	152,111
196,26	-239,045
196,48	-45,848
196,70	198,350
196,91	4,849
197,13	-11,722
197,35	-129,224
197,56	673,901
197,78	1651,269
198,00	534,056
198,21	156,650
198,43	-695,174
198,65	214,865
198,86	213,201
199,08	120,557
199,30	238,401
199,51	-278,078
199,73	265,578
199,95	189,035
200,16	795,654
200,38	102,662
200,60	160,300
200,81	427,559
201,03	-27,255
201,25	-1465,700
201,46	194,800
201,68	94,034
201,90	3085,682
202,11	-332,710
202,33	264,758
202,55	-1,625
202,76	-22,506
202,98	197,108
203,20	39,567
203,41	-155,632
203,63	15,410
203,85	-155570,000
204,06	5,963
204,28	-95,108
204,50	163,190
204,71	284,399
204,93	-224,240
205,15	143,283
205,36	-163,231
205,58	315,873
205,80	-91,538
206,01	25,866
206,23	156,824
206,45	296,711
206,66	73,287
206,88	51,647
207,10	204,250
207,31	316,914
207,53	187,343
207,75	63,361
207,96	1013,209
208,18	-345,341
208,39	112,351
208,61	5087,714
208,83	-463,736
209,04	352,398
209,26	-148,710
209,48	150,040
209,69	152,210
209,91	622,872
210,13	103,981
210,34	6,223
210,56	153,097
210,77	-1721,024
210,99	186,663
211,21	6874,706
211,42	-207,401
211,64	-19,544
211,86	285,548
212,07	142,876
212,29	186,829
212,50	158,455
212,72	86,038
212,94	68,450
213,15	133,689
213,37	115,066
213,58	-49,601
213,80	-1313,214
214,02	9257,059
214,23	297,026
214,45	530,721
214,67	-898,415
214,88	-144,530
215,10	-272,306
215,31	21,332
215,53	-123,023
215,75	179,774
215,96	1899,814
216,18	-77,887
216,39	265,188
216,61	286,616
216,83	573,973
217,04	1272,697
217,26	50,597
217,47	149,656
217,69	280,167
217,91	-36,778
218,12	-15170,000
218,34	174,278
218,55	393,554
218,77	69,096
218,99	127,926
219,20	-104,505
219,42	241,265
219,63	-91,834
219,85	-100,929
220,06	-256,654
220,28	159,350
220,50	88,584
220,71	66,158
220,93	3240,943
221,14	-2176,700
221,36	46,711
221,58	-22,673
221,79	237,215
222,01	953,190
222,22	834,013
222,44	463,708
222,65	68,866
222,87	68,322
223,09	150,946
223,30	98,410
223,52	166,702
223,73	204,980
223,95	9,958
224,16	148,186
224,38	317,464
224,60	25,793
224,81	51,903
225,03	51,399
225,24	260,717
225,46	79,020
225,67	1,299
225,89	25,746
226,10	476,717
226,32	862,960
226,54	63,917
226,75	-69,300
226,97	116,551
227,18	173,321
227,40	62,017
227,61	60,178
227,83	19,004
228,04	138,066
228,26	23,156
228,47	54,781
228,69	171,790
228,91	109,801
229,12	105,143
229,34	47,228
229,55	64,313
229,77	18,273
229,98	-0,556
230,20	68,351
230,41	15,996
230,63	115,781
230,84	36,117
231,06	61,415
231,27	-16,236
231,49	22,049
231,71	49,442
231,92	21,416
232,14	16,387
232,35	67,380
232,57	51,181
232,78	23,547
233,00	69,290
233,21	59,133
233,43	26,016
233,64	18,922
233,86	42,080
234,07	48,756
234,29	17,113
234,50	11,885
234,72	42,213
234,93	2,230
235,15	28,422
235,36	34,420
235,58	29,332
235,79	51,829
236,01	19,803
236,22	5,249
236,44	35,236
236,65	31,293
236,87	14,862
237,08	5,980
237,30	5,993
237,51	31,779
237,73	2,303
237,94	2,251
238,16	24,479
238,37	12,385
238,59	13,827
238,80	23,965
239,02	9,530
239,23	13,731
239,45	-6,856
239,66	20,645
239,88	29,342
240,09	24,163
240,31	2,226
240,52	10,715
240,74	11,661
240,95	2,286
241,17	5,116
241,38	8,280
241,60	17,351
241,81	24,158
242,03	6,660
242,24	10,215
242,46	25,716
242,67	6,740
242,89	14,921
243,10	19,004
243,32	18,996
243,53	22,443
243,75	7,191
243,96	11,506
244,18	10,107
244,39	15,178
244,60	9,444
244,82	7,504
245,03	21,634
245,25	12,824
245,46	17,514
245,68	0,127
245,89	21,657
246,11	11,005
246,32	12,781
246,54	4,065
246,75	6,369
246,97	15,139
247,18	19,775
247,39	4,476
247,61	11,405
247,82	6,652
248,04	5,974
248,25	8,617
248,47	11,456
248,68	11,774
248,90	0,526
249,11	11,450
249,33	14,670
249,54	10,763
249,75	12,526
249,97	4,400
250,18	14,460
250,40	14,663
250,61	-2,978
250,83	4,231
251,04	2,182
251,25	14,333
251,47	-3,026
251,68	14,919
251,90	12,725
252,11	9,896
252,33	-0,248
252,54	6,919
252,76	8,012
252,97	-4,340
253,18	-1,465
253,40	7,115
253,61	4,601
253,83	15,354
254,04	8,395
254,25	7,004
254,47	1,679
254,68	10,188
254,90	10,291
255,11	4,182
255,33	9,218
255,54	8,534
255,75	8,406
255,97	8,586
256,18	4,221
256,40	6,390
256,61	9,007
256,82	2,056
257,04	10,054
257,25	2,671
257,47	6,332
257,68	2,980
257,89	10,806
258,11	8,731
258,32	6,265
258,54	8,289
258,75	10,020
258,96	12,958
259,18	4,905
259,39	4,633
259,61	9,180
259,82	6,375
260,03	4,751
260,25	4,891
260,46	3,682
260,68	10,920
260,89	1,234
261,10	5,541
261,32	8,059
261,53	4,366
261,75	8,145
261,96	1,117
262,17	10,558
262,39	12,598
262,60	5,161
262,81	1,240
263,03	10,110
263,24	6,728
263,46	5,119
263,67	2,864
263,88	8,004
264,10	9,855
264,31	5,594
264,52	8,663
264,74	9,044
264,95	6,140
265,17	7,067
265,38	6,356
265,59	7,357
265,81	13,208
266,02	-0,245
266,23	5,979
266,45	13,829
266,66	12,924
266,87	8,679
267,09	4,370
267,30	11,143
267,52	12,226
267,73	7,821
267,94	9,103
268,16	8,988
268,37	3,878
268,58	6,563
268,80	6,505
269,01	5,197
269,22	10,932
269,44	3,304
269,65	7,274
269,86	0,907
270,08	9,200
270,29	0,979
270,50	8,736
270,72	11,950
270,93	4,758
271,14	5,291
271,36	4,984
271,57	7,272
271,78	3,503
272,00	8,683
272,21	9,955
272,42	10,453
272,64	8,422
272,85	3,331
273,06	4,418
273,28	8,597
273,49	6,310
273,70	8,481
273,92	7,447
274,13	11,277
274,34	4,456
274,56	7,319
274,77	4,623
274,98	9,014
275,20	5,913
275,41	7,973
275,62	7,955
275,84	5,574
276,05	8,942
276,26	2,463
276,47	1,091
276,69	7,737
276,90	9,190
277,11	5,386
277,33	4,990
277,54	11,273
277,75	7,519
277,97	4,283
278,18	5,238
278,39	7,023
278,61	5,861
278,82	7,087
279,03	7,944
279,24	9,220
279,46	6,777
279,67	6,688
279,88	4,033
280,10	11,756
280,31	4,626
280,52	7,518
280,73	2,434
280,95	7,737
281,16	7,874
281,37	4,561
281,59	9,239
281,80	12,360
282,01	6,291
282,22	3,859
282,44	2,496
282,65	12,120
282,86	10,566
283,08	4,955
283,29	4,213
283,50	4,576
283,71	7,147
283,93	5,373
284,14	7,914
284,35	6,961
284,56	5,843
284,78	4,002
284,99	6,363
285,20	10,902
285,42	5,496
285,63	4,129
285,84	1,411
286,05	2,642
286,27	4,631
286,48	2,821
286,69	5,345
286,90	7,259
287,12	3,035
287,33	4,524
287,54	3,032
287,75	6,962
287,97	5,082
288,18	5,314
288,39	2,890
288,60	6,724
288,82	5,578
289,03	5,381
289,24	4,688
289,45	10,650
289,67	5,011
289,88	1,416
290,09	3,369
290,30	6,551
290,52	5,982
290,73	4,922
290,94	0,216
291,15	5,733
291,37	6,482
291,58	5,526
291,79	6,642
292,00	9,056
292,21	5,601
292,43	3,644
292,64	3,075
292,85	4,335
293,06	8,830
293,28	5,464
293,49	2,504
293,70	8,502
293,91	3,124
294,12	4,981
294,34	5,979
294,55	6,074
294,76	3,971
294,97	7,828
295,19	4,666
295,40	4,651
295,61	6,916
295,82	2,445
296,03	7,292
296,25	5,458
296,46	3,447
296,67	2,516
296,88	1,591
297,09	6,975
297,31	4,365
297,52	5,879
297,73	4,096
297,94	8,191
298,15	6,408
298,37	4,816
298,58	6,231
298,79	6,854
299,00	3,173
299,21	4,234
299,43	3,644
299,64	11,078
299,85	5,507
300,06	3,464
300,27	2,882
300,49	8,511
300,70	5,303
300,91	4,997
301,12	3,104
301,33	9,740
301,54	2,478
301,76	5,806
301,97	3,979
302,18	3,877
302,39	6,807
302,60	14,023
302,82	6,824
303,03	7,224
303,24	9,144
303,45	7,232
303,66	4,886
303,87	4,046
304,09	8,296
304,30	4,590
304,51	4,006
304,72	2,776
304,93	7,256
305,14	4,954
305,36	3,314
305,57	2,642
305,78	7,591
305,99	3,475
306,20	4,704
306,41	4,439
306,62	1,962
306,84	3,229
307,05	3,814
307,26	5,536
307,47	9,695
307,68	5,536
307,89	5,442
308,11	5,654
308,32	5,173
308,53	3,421
308,74	3,985
308,95	3,919
309,16	8,690
309,37	6,506
309,59	3,146
309,80	3,460
310,01	7,450
310,22	4,745
310,43	3,484
310,64	6,227
310,85	8,367
311,06	4,670
311,28	6,635
311,49	5,056
311,70	8,096
311,91	1,680
312,12	4,024
312,33	6,378
312,54	6,654
312,75	6,272
312,97	7,442
313,18	6,000
313,39	4,086
313,60	5,634
313,81	6,662
314,02	6,331
314,23	7,207
314,44	1,587
314,65	3,308
314,87	3,758
315,08	6,866
315,29	6,030
315,50	7,067
315,71	8,248
315,92	8,077
316,13	5,171
316,34	3,063
316,55	8,208
316,77	3,326
316,98	3,724
317,19	4,806
317,40	8,905
317,61	9,304
317,82	5,221
318,03	3,700
318,24	4,581
318,45	7,743
318,66	6,704
318,87	3,319
319,09	8,352
319,30	7,588
319,51	6,091
319,72	8,516
319,93	5,408
320,14	7,550
320,35	6,431
320,56	3,075
320,77	3,943
320,98	8,646
321,19	5,117
321,40	4,886
321,62	7,306
321,83	5,339
322,04	4,972
322,25	6,869
322,46	10,834
322,67	7,747
322,88	4,763
323,09	5,101
323,30	8,157
323,51	6,925
323,72	7,735
323,93	3,694
324,14	6,436
324,35	1,401
324,56	3,788
324,77	6,407
324,99	4,821
325,20	0,983
325,41	5,834
325,62	6,312
325,83	2,804
326,04	4,777
326,25	8,061
326,46	2,111
326,67	6,396
326,88	7,227
327,09	4,308
327,30	2,844
327,51	6,099
327,72	7,951
327,93	6,667
328,14	3,469
328,35	4,280
328,56	7,300
328,77	3,861
328,98	7,650
329,19	5,678
329,40	3,664
329,61	3,702
329,82	3,533
330,04	4,952
330,25	4,674
330,46	6,134
330,67	3,567
330,88	4,640
331,09	5,662
331,30	6,044
331,51	3,384
331,72	7,791
331,93	8,492
332,14	2,902
332,35	7,118
332,56	3,456
332,77	5,886
332,98	3,359
333,19	4,385
333,40	8,114
333,61	5,574
333,82	9,118
334,03	4,560
334,24	9,656
334,45	6,484
334,66	7,320
334,87	5,590
335,08	2,275
335,29	4,343
335,50	4,575
335,71	2,776
335,92	7,351
336,13	6,019
336,34	0,748
336,55	9,010
336,76	7,425
336,97	6,611
337,18	2,501
337,39	5,639
337,60	5,938
337,81	5,840
338,02	2,022
338,23	4,842
338,44	5,301
338,65	7,160
338,86	5,625
339,07	2,445
339,28	7,592
339,49	7,433
339,70	2,990
339,91	5,272
340,11	7,249
340,32	3,361
340,53	4,042
340,74	1,788
340,95	3,767
341,16	5,198
341,37	6,625
341,58	2,293
341,79	4,281
342,00	4,855
342,21	6,973
342,42	3,969
342,63	7,598
342,84	2,345
343,05	4,443
343,26	7,360
343,47	4,062
343,68	5,608
343,89	5,616
344,10	6,084
344,31	8,232
344,52	2,893
344,73	4,985
344,94	5,572
345,14	4,931
345,35	5,688
345,56	6,654
345,77	3,195
345,98	6,745
346,19	5,379
346,40	4,207
346,61	5,597
346,82	3,122
347,03	6,922
347,24	5,913
347,45	3,861
347,66	9,890
347,87	5,545
348,08	7,185
348,28	3,218
348,49	6,753
348,70	6,878
348,91	7,721
349,12	4,674
349,33	18,710
349,54	4,926
349,75	10,675
349,96	5,294
350,17	5,456
350,38	-0,004
350,59	8,397
350,80	3,270
351,00	10,192
351,21	9,932
351,42	6,502
351,63	-0,708
351,84	5,869
352,05	5,909
352,26	4,871
352,47	5,660
352,68	7,743
352,89	7,881
353,09	6,954
353,30	3,125
353,51	4,100
353,72	8,842
353,93	8,471
354,14	1,845
354,35	4,563
354,56	8,984
354,77	6,822
354,98	2,119
355,18	5,021
355,39	9,744
355,60	5,394
355,81	6,215
356,02	8,058
356,23	5,094
356,44	3,834
356,65	7,921
356,85	12,979
357,06	7,768
357,27	7,216
357,48	4,014
357,69	4,535
357,90	6,974
358,11	3,652
358,32	5,008
358,52	7,657
358,73	5,520
358,94	4,544
359,15	4,749
359,36	9,307
359,57	3,940
359,78	7,482
359,98	5,430
360,19	2,707
360,40	6,253
360,61	8,849
360,82	6,238
361,03	11,140
361,24	5,468
361,44	4,200
361,65	6,596
361,86	5,614
362,07	6,759
362,28	3,568
362,49	5,168
362,70	7,312
362,90	9,988
363,11	6,849
363,32	5,635
363,53	8,295
363,74	7,774
363,95	8,698
364,15	5,270
364,36	8,938
364,57	5,609
364,78	5,523
364,99	6,383
365,20	7,640
365,40	10,847
365,61	3,119
365,82	9,640
366,03	6,699
366,24	8,672
366,45	5,914
366,65	1,496
366,86	6,392
367,07	6,167
367,28	5,561
367,49	4,776
367,69	9,090
367,90	7,054
368,11	3,777
368,32	5,125
368,53	8,872
368,73	7,296
368,94	2,726
369,15	7,160
369,36	11,164
369,57	5,377
369,78	3,055
369,98	8,284
370,19	8,083
370,40	0,762
370,61	3,538
370,82	3,582
371,02	6,863
371,23	7,642
371,44	5,709
371,65	6,896
371,85	9,256
372,06	3,933
372,27	3,752
372,48	6,175
372,69	9,348
372,89	4,525
373,10	4,349
373,31	6,177
373,52	6,759
373,73	9,287
373,93	5,005
374,14	6,291
374,35	9,428
374,56	6,354
374,76	4,439
374,97	5,473
375,18	6,564
375,39	7,855
375,60	9,226
375,80	9,324
376,01	2,522
376,22	6,805
376,43	6,103
376,63	3,220
376,84	4,841
377,05	8,874
377,26	5,368
377,46	3,208
377,67	4,838
377,88	5,785
378,09	5,916
378,29	4,483
378,50	8,537
378,71	7,488
378,92	3,436
379,12	7,465
379,33	5,653
379,54	9,336
379,75	8,371
379,95	3,133
380,16	9,794
380,37	7,983
380,58	5,428
380,78	7,034
380,99	6,851
381,20	5,730
381,41	5,783
381,61	8,025
381,82	7,249
382,03	5,455
382,24	9,191
382,44	8,516
382,65	7,592
382,86	6,293
383,06	5,597
383,27	7,216
383,48	4,950
383,69	7,814
383,89	7,564
384,10	6,450
384,31	9,897
384,51	10,799
384,72	8,475
384,93	7,822
385,14	7,790
385,34	5,963
385,55	5,167
385,76	5,137
385,96	8,930
386,17	8,147
386,38	8,283
386,59	8,625
386,79	7,178
387,00	13,610
387,21	9,408
387,41	9,241
387,62	7,138
387,83	8,922
388,03	9,277
388,24	3,260
388,45	8,781
388,66	13,412
388,86	8,284
389,07	0,401
389,28	9,938
389,48	10,591
389,69	5,028
389,90	9,042
390,10	8,875
390,31	12,480
390,52	3,978
390,72	6,553
390,93	6,161
391,14	10,476
391,34	7,875
391,55	10,253
391,76	13,365
391,96	7,693
392,17	9,523
392,38	12,025
392,58	10,498
392,79	12,198
393,00	9,174
393,20	8,138
393,41	8,877
393,62	8,708
393,82	11,645
394,03	11,678
394,24	10,816
394,44	17,106
394,65	12,882
394,86	9,503
395,06	15,483
395,27	9,221
395,48	11,429
395,68	13,653
395,89	13,006
396,10	15,010
396,30	12,377
396,51	9,982
396,72	12,011
396,92	10,454
397,13	12,431
397,34	9,189
397,54	14,325
397,75	12,999
397,95	13,816
398,16	15,472
398,37	14,788
398,57	12,995
398,78	13,805
398,99	18,172
399,19	16,482
399,40	20,721
399,60	12,466
399,81	18,246
400,02	18,358
400,22	19,593
400,43	14,073
400,64	15,109
400,84	18,334
401,05	20,306
401,25	17,923
401,46	18,612
401,67	19,929
401,87	16,491
402,08	14,007
402,29	19,342
402,49	21,738
402,70	20,825
402,90	15,745
403,11	18,124
403,32	20,504
403,52	20,074
403,73	20,695
403,93	23,876
404,14	20,993
404,35	20,828
404,55	18,064
404,76	18,330
404,96	23,057
405,17	21,425
405,38	25,973
405,58	21,784
405,79	21,458
405,99	23,723
406,20	23,978
406,40	21,671
406,61	24,270
406,82	23,198
407,02	24,569
407,23	23,891
407,43	23,230
407,64	23,512
407,85	25,321
408,05	17,347
408,26	33,479
408,46	29,350
408,67	23,335
408,87	19,953
409,08	28,598
409,29	31,757
409,49	28,747
409,70	28,524
409,90	32,006
410,11	27,404
410,31	33,262
410,52	28,283
410,72	29,894
410,93	33,996
411,14	30,280
411,34	28,214
411,55	34,498
411,75	34,572
411,96	30,260
412,16	30,414
412,37	32,324
412,57	31,233
412,78	32,942
412,99	31,998
413,19	35,644
413,40	30,859
413,60	29,979
413,81	31,469
414,01	33,060
414,22	29,584
414,42	33,329
414,63	27,704
414,83	33,880
415,04	35,944
415,24	33,453
415,45	31,529
415,65	31,654
415,86	34,526
416,07	35,654
416,27	38,357
416,48	40,786
416,68	38,185
416,89	31,741
417,09	35,925
417,30	40,519
417,50	37,767
417,71	37,405
417,91	40,179
418,12	35,721
418,32	37,338
418,53	39,949
418,73	36,798
418,94	36,907
419,14	38,028
419,35	36,980
419,55	37,058
419,76	40,620
419,96	39,640
420,17	39,403
420,37	37,926
420,58	40,393
420,78	39,611
420,99	35,996
421,19	40,242
421,40	38,331
421,60	43,090
421,81	35,646
422,01	40,759
422,22	40,749
422,42	41,891
422,63	43,483
422,83	41,280
423,04	43,928
423,24	45,017
423,45	39,924
423,65	42,287
423,86	45,149
424,06	42,554
424,27	41,607
424,47	38,922
424,67	41,089
424,88	45,049
425,08	39,778
425,29	52,148
425,49	40,683
425,70	42,026
425,90	41,654
426,11	40,703
426,31	43,528
426,52	45,399
426,72	43,345
426,93	41,524
427,13	47,454
427,33	43,467
427,54	48,615
427,74	46,811
427,95	48,318
428,15	41,463
428,36	43,459
428,56	42,544
428,77	44,695
428,97	48,087
429,18	48,428
429,38	41,373
429,58	48,334
429,79	44,657
429,99	45,209
430,20	40,121
430,40	47,683
430,61	44,110
430,81	42,394
431,01	45,167
431,22	46,714
431,42	50,551
431,63	43,934
431,83	47,492
432,04	45,438
432,24	49,119
432,44	44,571
432,65	40,406
432,85	41,414
433,06	42,892
433,26	42,979
433,47	43,324
433,67	42,270
433,87	45,000
434,08	41,306
434,28	42,779
434,49	45,166
434,69	47,427
434,89	41,871
435,10	44,754
435,30	44,449
435,51	43,492
435,71	44,127
435,91	44,950
436,12	44,334
436,32	42,409
436,53	44,967
436,73	46,058
436,93	46,341
437,14	45,955
437,34	44,664
437,55	46,816
437,75	49,098
437,95	50,851
438,16	48,572
438,36	52,530
438,57	44,603
438,77	46,889
438,97	50,941
439,18	49,783
439,38	46,685
439,58	46,715
439,79	49,942
439,99	45,348
440,20	49,136
440,40	53,398
440,60	44,847
440,81	50,236
441,01	48,967
441,21	51,121
441,42	50,448
441,62	49,960
441,83	49,546
442,03	49,939
442,23	50,249
442,44	46,472
442,64	53,521
442,84	46,722
443,05	48,580
443,25	42,815
443,45	50,883
443,66	50,259
443,86	45,524
444,06	47,090
444,27	49,500
444,47	47,237
444,67	50,847
444,88	52,169
445,08	51,550
445,28	48,419
445,49	46,651
445,69	46,140
445,90	49,597
446,10	53,546
446,30	49,525
446,51	48,876
446,71	56,008
446,91	54,675
447,12	56,408
447,32	47,185
447,52	51,231
447,72	49,515
447,93	48,541
448,13	47,865
448,33	53,489
448,54	54,215
448,74	46,535
448,94	52,163
449,15	53,882
449,35	52,432
449,55	49,138
449,76	54,923
449,96	55,646
450,16	53,761
450,37	51,482
450,57	48,874
450,77	51,049
450,98	48,575
451,18	52,365
451,38	49,978
451,58	50,825
451,79	53,482
451,99	51,341
452,19	48,357
452,40	54,111
452,60	50,194
452,80	48,700
453,00	55,443
453,21	48,564
453,41	53,414
453,61	52,277
453,82	52,927
454,02	49,330
454,22	56,515
454,42	52,842
454,63	51,257
454,83	50,861
455,03	52,273
455,24	51,164
455,44	49,235
455,64	50,191
455,84	50,977
456,05	52,729
456,25	51,343
456,45	55,645
456,65	52,111
456,86	51,783
457,06	53,630
457,26	60,705
457,47	56,675
457,67	50,765
457,87	50,092
458,07	52,600
458,28	57,337
458,48	54,334
458,68	51,488
458,88	57,401
459,09	52,493
459,29	56,758
459,49	54,175
459,69	53,927
459,90	54,848
460,10	53,929
460,30	53,208
460,50	51,189
460,71	54,572
460,91	50,598
461,11	50,925
461,31	47,313
461,52	55,582
461,72	53,912
461,92	51,701
462,12	62,869
462,32	49,524
462,53	54,328
462,73	51,303
462,93	57,243
463,13	58,327
463,34	51,885
463,54	51,285
463,74	50,512
463,94	53,558
464,14	49,430
464,35	49,240
464,55	52,366
464,75	53,016
464,95	51,853
465,16	48,517
465,36	53,521
465,56	51,746
465,76	51,881
465,96	54,305
466,17	49,212
466,37	50,193
466,57	56,057
466,77	52,872
466,97	51,646
467,18	52,844
467,38	53,470
467,58	52,571
467,78	57,844
467,98	52,755
468,19	56,683
468,39	55,279
468,59	55,645
468,79	53,310
468,99	51,850
469,19	47,933
469,40	53,186
469,60	44,085
469,80	49,486
470,00	52,298
470,20	58,198
470,41	50,601
470,61	56,974
470,81	55,693
471,01	50,327
471,21	51,628
471,41	53,963
471,62	49,112
471,82	49,979
472,02	48,624
472,22	54,887
472,42	50,649
472,62	53,851
472,83	50,221
473,03	53,748
473,23	52,169
473,43	53,274
473,63	54,955
473,83	52,877
474,03	53,093
474,24	58,667
474,44	54,987
474,64	52,929
474,84	52,999
475,04	51,966
475,24	55,073
475,45	53,060
475,65	48,919
475,85	53,569
476,05	46,712
476,25	50,727
476,45	52,852
476,65	55,396
476,85	50,336
477,06	51,413
477,26	49,065
477,46	53,094
477,66	53,651
477,86	53,107
478,06	49,190
478,26	55,764
478,46	53,724
478,67	56,726
478,87	51,231
479,07	52,818
479,27	51,598
479,47	51,164
479,67	48,700
479,87	49,940
480,07	55,060
480,28	51,919
480,48	49,984
480,68	53,144
480,88	58,662
481,08	50,050
481,28	54,359
481,48	57,897
481,68	48,867
481,88	53,526
482,08	47,366
482,29	55,293
482,49	50,151
482,69	52,014
482,89	49,676
483,09	54,356
483,29	50,840
483,49	48,442
483,69	50,192
483,89	52,369
484,09	47,851
484,29	46,506
484,50	48,799
484,70	50,894
484,90	49,507
485,10	49,318
485,30	50,737
485,50	53,015
485,70	52,621
485,90	46,773
486,10	49,339
486,30	48,883
486,50	52,194
486,70	47,852
486,90	47,940
487,10	50,378
487,30	50,189
487,51	51,576
487,71	46,140
487,91	48,669
488,11	50,742
488,31	47,379
488,51	48,631
488,71	48,823
488,91	52,283
489,11	47,505
489,31	50,055
489,51	48,697
489,71	51,928
489,91	50,401
490,11	51,715
490,31	50,907
490,51	50,078
490,71	50,055
490,91	48,995
491,11	51,771
491,31	54,618
491,51	46,335
491,72	49,709
491,92	53,777
492,12	52,164
492,32	51,046
492,52	54,165
492,72	50,154
492,92	49,711
493,12	48,850
493,32	46,947
493,52	50,688
493,72	49,617
493,92	49,263
494,12	49,304
494,32	51,995
494,52	49,853
494,72	52,884
494,92	49,882
495,12	50,656
495,32	54,177
495,52	50,257
495,72	52,893
495,92	55,371
496,12	54,625
496,32	51,357
496,52	50,818
496,72	52,199
496,92	50,694
497,12	52,988
497,32	54,482
497,52	54,196
497,72	54,786
497,92	55,614
498,12	52,020
498,32	53,500
498,52	52,694
498,72	49,677
498,92	51,633
499,12	56,394
499,32	50,828
499,52	54,370
499,72	53,872
499,92	55,944
500,12	55,982
500,32	54,139
500,52	51,682
500,72	58,729
500,91	56,299
501,11	57,203
501,31	51,625
501,51	56,572
501,71	56,229
501,91	55,293
502,11	53,344
502,31	56,255
502,51	56,092
502,71	53,204
502,91	53,876
503,11	53,356
503,31	56,684
503,51	53,579
503,71	51,296
503,91	54,995
504,11	57,025
504,31	53,627
504,51	55,144
504,71	58,509
504,91	57,262
505,10	52,814
505,30	56,947
505,50	55,016
505,70	55,079
505,90	53,850
506,10	53,187
506,30	54,939
506,50	56,553
506,70	58,628
506,90	52,907
507,10	56,960
507,30	56,589
507,50	58,922
507,70	56,767
507,89	56,527
508,09	53,093
508,29	54,227
508,49	55,090
508,69	54,850
508,89	52,814
509,09	52,389
509,29	54,581
509,49	56,663
509,69	60,901
509,89	54,563
510,09	53,438
510,28	56,971
510,48	54,066
510,68	56,718
510,88	54,940
511,08	54,959
511,28	54,963
511,48	54,571
511,68	54,379
511,88	55,251
512,07	53,744
512,27	56,997
512,47	54,108
512,67	53,821
512,87	55,359
513,07	55,476
513,27	52,854
513,47	56,494
513,67	52,906
513,86	58,826
514,06	54,081
514,26	54,952
514,46	56,254
514,66	54,797
514,86	54,385
515,06	56,710
515,26	56,033
515,45	54,390
515,65	51,843
515,85	56,297
516,05	54,332
516,25	54,405
516,45	57,016
516,65	55,486
516,84	56,807
517,04	57,012
517,24	54,862
517,44	55,317
517,64	57,495
517,84	58,599
518,04	56,596
518,23	54,546
518,43	57,827
518,63	56,669
518,83	55,726
519,03	56,687
519,23	57,466
519,42	53,484
519,62	55,870
519,82	55,053
520,02	56,226
520,22	54,539
520,42	50,319
520,61	54,703
520,81	58,138
521,01	59,191
521,21	51,317
521,41	55,908
521,61	58,249
521,80	54,252
522,00	54,403
522,20	58,847
522,40	54,892
522,60	56,046
522,79	52,796
522,99	57,144
523,19	53,158
523,39	55,556
523,59	58,182
523,78	56,574
523,98	55,017
524,18	58,064
524,38	52,454
524,58	55,587
524,77	59,023
524,97	56,381
525,17	53,955
525,37	55,910
525,57	56,602
525,76	56,813
525,96	57,677
526,16	56,148
526,36	53,850
526,56	56,093
526,75	55,361
526,95	55,631
527,15	56,709
527,35	56,488
527,55	56,881
527,74	60,172
527,94	53,155
528,14	55,368
528,34	55,842
528,53	53,127
528,73	58,798
528,93	56,693
529,13	57,383
529,32	57,326
529,52	55,369
529,72	51,726
529,92	52,951
530,12	53,575
530,31	53,083
530,51	56,450
530,71	56,347
530,91	57,869
531,10	51,787
531,30	54,256
531,50	55,228
531,70	56,949
531,89	57,982
532,09	54,803
532,29	54,106
532,49	57,131
532,68	57,013
532,88	51,869
533,08	54,452
533,28	54,711
533,47	52,761
533,67	55,615
533,87	55,049
534,06	59,195
534,26	54,130
534,46	53,153
534,66	54,193
534,85	57,332
535,05	51,835
535,25	52,855
535,45	54,414
535,64	54,070
535,84	53,080
536,04	50,168
536,23	55,429
536,43	56,304
536,63	52,889
536,83	54,587
537,02	50,819
537,22	51,688
537,42	55,166
537,61	53,653
537,81	54,538
538,01	53,957
538,20	55,040
538,40	50,752
538,60	51,485
538,80	49,659
538,99	47,868
539,19	46,599
539,39	45,479
539,58	46,091
539,78	44,371
539,98	44,311
540,17	45,531
540,37	45,147
540,57	42,363
540,76	42,170
540,96	38,762
541,16	42,065
541,36	39,515
541,55	37,003
541,75	36,983
541,95	38,531
542,14	37,414
542,34	35,004
542,54	35,173
542,73	37,192
542,93	37,779
543,13	35,219
543,32	35,316
543,52	37,533
543,72	34,621
543,91	36,348
544,11	35,468
544,31	36,586
544,50	37,361
544,70	38,072
544,89	36,967
545,09	38,786
545,29	38,037
545,48	38,040
545,68	38,402
545,88	39,406
546,07	39,363
546,27	39,256
546,47	41,136
546,66	44,314
546,86	45,250
547,06	43,154
547,25	43,682
547,45	48,914
547,64	46,704
547,84	47,881
548,04	46,548
548,23	50,394
548,43	48,853
548,63	52,693
548,82	51,643
549,02	48,050
549,21	48,793
549,41	48,485
549,61	50,254
549,80	49,175
550,00	51,178
550,20	47,345
550,39	51,323
550,59	52,347
550,78	51,820
550,98	48,916
551,18	52,880
551,37	52,440
551,57	51,461
551,76	50,989
551,96	51,884
552,16	51,008
552,35	53,113
552,55	51,892
552,74	50,813
552,94	53,717
553,14	49,794
553,33	51,462
553,53	51,174
553,72	55,944
553,92	55,828
554,12	52,913
554,31	54,661
554,51	55,012
554,70	48,562
554,90	54,738
555,09	53,714
555,29	56,688
555,49	54,869
555,68	56,370
555,88	54,473
556,07	55,773
556,27	58,319
556,46	53,728
556,66	54,863
556,86	57,930
557,05	53,740
557,25	51,521
557,44	52,825
557,64	53,147
557,83	55,619
558,03	57,614
558,22	55,612
558,42	55,037
558,62	56,386
558,81	54,514
559,01	54,564
559,20	55,547
559,40	55,875
559,59	53,233
559,79	51,477
559,98	54,421
560,18	56,198
560,37	56,415
560,57	53,907
560,76	54,382
560,96	51,648
561,16	56,234
561,35	55,623
561,55	55,608
561,74	55,495
561,94	56,445
562,13	57,720
562,33	58,660
562,52	56,694
562,72	54,196
562,91	55,077
563,11	53,627
563,30	57,742
563,50	53,135
563,69	54,992
563,89	54,887
564,08	54,931
564,28	55,015
564,47	52,172
564,67	55,464
564,86	53,318
565,06	55,251
565,25	55,362
565,45	54,579
565,64	57,313
565,84	51,717
566,03	54,190
566,23	57,520
566,42	55,643
566,62	56,969
566,81	53,387
567,01	58,794
567,20	56,915
567,40	53,360
567,59	52,954
567,79	57,559
567,98	57,786
568,18	55,209
568,37	57,477
568,57	56,561
568,76	58,246
568,96	55,223
569,15	53,504
569,35	55,694
569,54	58,441
569,73	57,720
569,93	55,470
570,12	54,380
570,32	57,539
570,51	53,451
570,71	56,986
570,90	56,006
571,10	52,958
571,29	56,026
571,49	54,567
571,68	56,865
571,87	56,308
572,07	55,934
572,26	52,898
572,46	55,573
572,65	56,758
572,85	52,075
573,04	52,148
573,24	54,560
573,43	57,308
573,62	56,983
573,82	53,958
574,01	53,845
574,21	54,332
574,40	52,336
574,60	54,109
574,79	57,435
574,98	54,845
575,18	55,220
575,37	53,513
575,57	54,591
575,76	54,950
575,96	53,008
576,15	53,579
576,34	53,807
576,54	54,731
576,73	55,756
576,93	54,164
577,12	54,152
577,31	55,998
577,51	53,225
577,70	51,548
577,90	54,461
578,09	51,784
578,28	52,387
578,48	53,761
578,67	55,650
578,87	54,028
579,06	52,980
579,25	52,569
579,45	54,882
579,64	52,044
579,84	51,487
580,03	52,118
580,22	56,050
580,42	51,429
580,61	52,191
580,81	53,531
581,00	53,899
581,19	53,057
581,39	53,103
581,58	52,964
581,77	53,054
581,97	54,346
582,16	51,318
582,35	51,949
582,55	53,017
582,74	54,474
582,94	53,936
583,13	49,761
583,32	51,534
583,52	53,410
583,71	51,994
583,90	53,904
584,10	52,682
584,29	53,210
584,48	51,817
584,68	53,048
584,87	53,992
585,06	52,177
585,26	51,805
585,45	51,363
585,65	54,175
585,84	51,641
586,03	52,396
586,23	50,938
586,42	51,500
586,61	53,983
586,81	51,757
587,00	52,809
587,19	51,013
587,39	55,750
587,58	52,861
587,77	52,585
587,97	51,542
588,16	50,962
588,35	53,135
588,54	51,760
588,74	51,198
588,93	53,570
589,12	52,454
589,32	51,293
589,51	52,798
589,70	51,820
589,90	51,710
590,09	52,238
590,28	55,027
590,48	51,495
590,67	52,068
590,86	53,175
591,06	52,252
591,25	54,263
591,44	53,980
591,63	51,671
591,83	54,719
592,02	54,002
592,21	52,860
592,41	52,586
592,60	55,077
592,79	53,578
592,98	54,043
593,18	52,555
593,37	53,939
593,56	55,293
593,76	54,179
593,95	55,506
594,14	51,897
594,33	57,712
594,53	52,803
594,72	53,063
594,91	56,620
595,10	55,251
595,30	53,420
595,49	54,964
595,68	56,647
595,88	55,439
596,07	55,664
596,26	54,555
596,45	55,002
596,65	53,425
596,84	53,325
597,03	52,784
597,22	55,373
597,42	55,971
597,61	55,421
597,80	53,238
597,99	54,112
598,19	56,885
598,38	54,547
598,57	54,960
598,76	55,245
598,95	54,714
599,15	54,766
599,34	54,306
599,53	54,663
599,72	54,839
599,92	55,337
600,11	55,057
600,30	53,078
600,49	54,767
600,69	54,805
600,88	54,836
601,07	56,935
601,26	55,289
601,45	53,825
601,65	53,867
601,84	56,164
602,03	56,754
602,22	56,350
602,42	56,653
602,61	54,375
602,80	55,124
602,99	55,709
603,18	51,954
603,38	55,560
603,57	54,528
603,76	52,452
603,95	54,700
604,14	55,383
604,34	55,674
604,53	54,651
604,72	55,440
604,91	54,830
605,10	54,522
605,29	56,749
605,49	53,090
605,68	55,132
605,87	56,010
606,06	53,661
606,25	54,065
606,45	53,413
606,64	55,259
606,83	54,634
607,02	53,618
607,21	53,426
607,40	52,790
607,60	51,835
607,79	51,758
607,98	51,255
608,17	51,706
608,36	51,852
608,55	49,269
608,75	50,421
608,94	48,059
609,13	45,186
609,32	43,484
609,51	44,566
609,70	43,112
609,89	46,288
610,09	44,302
610,28	45,481
610,47	43,586
610,66	43,609
610,85	43,322
611,04	45,242
611,23	45,241
611,43	42,615
611,62	43,656
611,81	42,423
612,00	43,237
612,19	43,379
612,38	44,259
612,57	44,934
612,77	44,913
612,96	45,895
613,15	47,120
613,34	47,676
613,53	49,377
613,72	50,449
613,91	48,876
614,10	49,693
614,29	51,662
614,49	49,443
614,68	49,599
614,87	50,164
615,06	52,657
615,25	49,552
615,44	51,808
615,63	53,495
615,82	51,597
616,01	51,389
616,21	52,245
616,40	54,801
616,59	53,684
616,78	52,666
616,97	52,452
617,16	52,944
617,35	52,742
617,54	52,108
617,73	54,973
617,92	51,877
618,11	53,066
618,31	51,528
618,50	53,266
618,69	53,677
618,88	52,359
619,07	51,838
619,26	50,589
619,45	52,020
619,64	51,685
619,83	51,967
620,02	52,765
620,21	53,999
620,40	53,481
620,59	51,289
620,78	51,445
620,97	53,884
621,17	53,356
621,36	52,815
621,55	52,766
621,74	52,905
621,93	51,432
622,12	52,625
622,31	52,248
622,50	52,084
622,69	54,201
622,88	53,434
623,07	55,879
623,26	54,699
623,45	55,214
623,64	53,542
623,83	52,602
624,02	55,292
624,21	54,490
624,40	53,904
624,59	52,966
624,78	55,316
624,97	55,591
625,16	52,176
625,35	51,675
625,54	52,733
625,73	53,756
625,92	54,289
626,12	53,992
626,31	55,386
626,50	54,289
626,69	53,942
626,88	51,998
627,07	55,722
627,26	53,636
627,45	52,783
627,64	54,202
627,83	54,530
628,02	53,219
628,21	53,081
628,40	52,172
628,59	54,013
628,78	53,133
628,97	52,406
629,16	50,167
629,35	53,862
629,54	56,281
629,73	51,074
629,92	51,259
630,10	53,440
630,29	53,735
630,48	53,214
630,67	51,781
630,86	55,143
631,05	55,039
631,24	55,307
631,43	52,254
631,62	52,652
631,81	53,514
632,00	53,488
632,19	52,537
632,38	54,128
632,57	54,752
632,76	53,128
632,95	55,998
633,14	55,684
633,33	55,641
633,52	55,842
633,71	55,374
633,90	53,007
634,09	53,293
634,28	54,889
634,47	53,071
634,66	54,443
634,85	55,413
635,04	55,725
635,22	54,957
635,41	57,647
635,60	56,358
635,79	56,347
635,98	53,684
636,17	55,806
636,36	54,897
636,55	54,884
636,74	53,816
636,93	54,115
637,12	56,336
637,31	54,877
637,50	51,648
637,69	56,576
637,87	54,707
638,06	55,342
638,25	54,593
638,44	54,963
638,63	51,768
638,82	53,999
639,01	54,488
639,20	54,571
639,39	56,918
639,58	52,393
639,77	55,123
639,95	55,243
640,14	54,031
640,33	53,973
640,52	54,020
640,71	57,756
640,90	55,582
641,09	56,166
641,28	53,497
641,47	55,518
641,66	55,648
641,84	54,636
642,03	53,921
642,22	54,611
642,41	56,267
642,60	55,537
642,79	55,420
642,98	52,554
643,17	53,469
643,35	53,575
643,54	55,930
643,73	55,883
643,92	56,573
644,11	53,851
644,30	53,392
644,49	59,993
644,67	55,126
644,86	53,610
645,05	54,553
645,24	52,815
645,43	55,254
645,62	55,471
645,81	56,067
645,99	56,107
646,18	56,784
646,37	54,117
646,56	56,080
646,75	56,739
646,94	57,154
647,13	53,803
647,31	51,890
647,50	54,626
647,69	57,353
647,88	55,233
648,07	54,879
648,26	60,220
648,44	55,419
648,63	53,273
648,82	55,103
649,01	56,816
649,20	53,512
649,38	53,862
649,57	53,777
649,76	53,046
649,95	55,321
650,14	52,866
650,33	55,122
650,51	55,070
650,70	56,599
650,89	55,384
651,08	53,595
651,27	57,490
651,45	53,026
651,64	54,574
651,83	55,044
652,02	53,833
652,21	54,468
652,39	55,444
652,58	54,771
652,77	54,983
652,96	54,706
653,15	54,606
653,33	54,334
653,52	55,233
653,71	56,065
653,90	55,808
654,09	54,943
654,27	56,177
654,46	56,833
654,65	55,891
654,84	55,206
655,02	55,280
655,21	55,853
655,40	57,177
655,59	53,791
655,77	56,197
655,96	55,053
656,15	56,494
656,34	56,412
656,53	55,291
656,71	54,409
656,90	56,640
657,09	55,965
657,28	56,550
657,46	54,470
657,65	55,601
657,84	53,683
658,03	57,186
658,21	56,369
658,40	53,823
658,59	55,156
658,78	55,268
658,96	53,843
659,15	54,501
659,34	53,139
659,52	54,540
659,71	55,809
659,90	53,353
660,09	55,550
660,27	56,769
660,46	56,313
660,65	55,652
660,84	53,268
661,02	56,136
661,21	55,602
661,40	54,051
661,58	54,955
661,77	54,145
661,96	51,854
662,15	56,748
662,33	53,519
662,52	53,994
662,71	54,931
662,89	52,054
663,08	54,604
663,27	55,737
663,45	53,420
663,64	54,322
663,83	51,517
664,02	54,355
664,20	55,618
664,39	53,381
664,58	54,652
664,76	55,031
664,95	54,502
665,14	53,621
665,32	53,415
665,51	55,497
665,70	54,552
665,88	55,786
666,07	55,616
666,26	55,997
666,44	56,657
666,63	53,358
666,82	55,094
667,00	55,747
667,19	53,038
667,38	56,423
667,56	56,167
667,75	53,844
667,94	54,778
668,12	52,278
668,31	54,188
668,50	53,642
668,68	55,173
668,87	54,442
669,06	54,146
669,24	55,773
669,43	53,604
669,62	51,732
669,80	54,421
669,99	54,793
670,18	55,065
670,36	50,963
670,55	53,317
670,74	54,626
670,92	52,630
671,11	54,520
671,29	52,272
671,48	54,922
671,67	54,953
671,85	54,613
672,04	53,128
672,23	53,767
672,41	53,756
672,60	54,813
672,78	52,743
672,97	54,317
673,16	55,133
673,34	56,134
673,53	53,559
673,71	54,244
673,90	54,406
674,09	54,695
674,27	54,095
674,46	54,809
674,64	56,170
674,83	54,092
675,02	51,954
675,20	53,051
675,39	51,211
675,57	54,214
675,76	54,081
675,95	57,266
676,13	55,082
676,32	55,958
676,50	55,257
676,69	53,849
676,88	53,024
677,06	53,959
677,25	54,692
677,43	55,577
677,62	54,917
677,80	54,334
677,99	53,810
678,18	55,286
678,36	56,486
678,55	51,961
678,73	55,953
678,92	55,759
679,10	55,433
679,29	54,811
679,48	52,159
679,66	53,362
679,85	55,604
680,03	55,445
680,22	54,704
680,40	55,344
680,59	53,367
680,77	52,796
680,96	55,186
681,15	54,348
681,33	56,311
681,52	54,011
681,70	54,712
681,89	55,786
682,07	55,661
682,26	54,219
682,44	53,973
682,63	55,418
682,81	55,050
683,00	55,245
683,18	53,424
683,37	54,538
683,55	51,561
683,74	54,436
683,92	58,883
684,11	53,631
684,29	54,216
684,48	53,144
684,67	53,467
684,85	54,298
685,04	54,019
685,22	54,434
685,41	53,025
685,59	55,406
685,78	52,612
685,96	52,184
686,15	52,487
686,33	55,030
686,52	53,549
686,70	53,205
686,89	54,344
687,07	54,897
687,26	57,011
687,44	55,543
687,62	54,109
687,81	55,330
687,99	54,778
688,18	54,687
688,36	55,717
688,55	55,968
688,73	54,074
688,92	54,525
689,10	53,741
689,29	56,697
689,47	56,764
689,66	54,210
689,84	53,439
690,03	57,827
690,21	54,330
690,40	55,563
690,58	52,959
690,76	53,696
690,95	55,124
691,13	55,023
691,32	54,515
691,50	55,244
691,69	54,877
691,87	53,774
692,06	54,389
692,24	53,205
692,43	58,025
692,61	54,333
692,79	52,295
692,98	54,195
693,16	56,398
693,35	54,478
693,53	54,738
693,72	55,423
693,90	57,142
694,08	52,774
694,27	54,504
694,45	56,514
694,64	59,156
694,82	54,769
695,01	53,338
695,19	54,691
695,37	54,977
695,56	53,983
695,74	55,462
695,93	54,460
696,11	53,807
696,29	55,774
696,48	55,300
696,66	55,978
696,85	55,412
697,03	54,355
697,21	56,553
697,40	53,544
697,58	56,878
697,77	55,388
697,95	55,219
698,13	57,159
698,32	56,421
698,50	56,339
698,69	53,918
698,87	56,152
699,05	55,933
699,24	54,862
699,42	54,285
699,60	52,802
699,79	53,895
699,97	53,851
700,16	53,901
700,34	55,880
700,52	54,547
700,71	55,513
700,89	55,594
701,07	53,436
701,26	55,939
701,44	53,659
701,63	53,134
701,81	56,587
701,99	55,605
702,18	53,017
702,36	53,764
702,54	54,947
702,73	55,612
702,91	54,115
703,09	54,306
703,28	53,178
703,46	54,913
703,64	53,711
703,83	56,318
704,01	56,777
704,19	55,808
704,38	53,647
704,56	54,230
704,74	55,003
704,93	56,268
705,11	56,057
705,29	53,350
705,48	56,081
705,66	55,455
705,84	54,251
706,03	51,614
706,21	56,128
706,39	53,231
706,58	54,701
706,76	53,770
706,94	55,177
707,12	54,271
707,31	53,108
707,49	53,239
707,67	54,314
707,86	54,718
708,04	53,988
708,22	53,932
708,41	53,904
708,59	54,883
708,77	52,835
708,95	55,307
709,14	57,027
709,32	55,730
709,50	53,094
709,69	53,465
709,87	53,766
710,05	54,879
710,23	53,711
710,42	53,043
710,60	55,170
710,78	56,140
710,97	54,329
711,15	51,886
711,33	56,701
711,51	52,839
711,70	51,777
711,88	53,515
712,06	56,796
712,24	54,291
712,43	55,324
712,61	55,022
712,79	55,841
712,97	55,570
713,16	54,547
713,34	53,727
713,52	55,979
713,70	55,208
713,89	53,999
714,07	54,392
714,25	54,468
714,43	56,776
714,62	54,110
714,80	53,782
714,98	53,281
715,16	54,871
715,35	52,693
715,53	54,113
715,71	55,172
715,89	57,324
716,07	55,373
716,26	58,492
716,44	57,205
716,62	54,729
716,80	53,923
716,99	54,630
717,17	55,382
717,35	55,698
717,53	53,377
717,71	54,164
717,90	56,603
718,08	55,268
718,26	54,275
718,44	54,268
718,62	56,523
718,81	56,785
718,99	54,303
719,17	53,415
719,35	56,138
719,53	52,670
719,72	53,098
719,90	55,682
720,08	54,702
720,26	57,764
720,44	53,685
720,62	54,864
720,81	57,387
720,99	57,052
721,17	54,906
721,35	55,640
721,53	55,882
721,72	57,309
721,90	55,020
722,08	53,240
722,26	55,693
722,44	55,636
722,62	55,394
722,81	53,797
722,99	53,911
723,17	54,232
723,35	55,181
723,53	54,989
723,71	56,452
723,89	58,328
724,08	51,859
724,26	56,979
724,44	54,107
724,62	56,141
724,80	54,537
724,98	56,767
725,16	57,166
725,35	55,377
725,53	54,575
725,71	53,017
725,89	56,744
726,07	57,004
726,25	57,695
726,43	55,045
726,61	54,765
726,80	57,252
726,98	53,587
727,16	55,662
727,34	55,185
727,52	54,882
727,70	53,471
727,88	53,375
728,06	52,553
728,25	52,392
728,43	54,895
728,61	53,702
728,79	52,188
728,97	55,738
729,15	54,795
729,33	56,758
729,51	55,964
729,69	57,532
729,87	55,312
730,06	55,205
730,24	55,117
730,42	56,028
730,60	53,224
730,78	55,586
730,96	55,429
731,14	57,873
731,32	54,612
731,50	52,215
731,68	54,620
731,86	53,922
732,04	54,547
732,22	54,768
732,41	58,602
732,59	54,185
732,77	55,619
732,95	56,374
733,13	55,201
733,31	54,483
733,49	54,231
733,67	53,948
733,85	56,174
734,03	56,470
734,21	55,638
734,39	54,035
734,57	57,375
734,75	54,789
734,93	53,846
735,11	56,340
735,29	54,361
735,47	57,902
735,65	54,650
735,84	52,453
736,02	55,640
736,20	59,438
736,38	55,676
736,56	56,817
736,74	55,965
736,92	54,438
737,10	56,311
737,28	55,661
737,46	55,931
737,64	55,880
737,82	55,093
738,00	53,819
738,18	55,103
738,36	56,913
738,54	54,526
738,72	53,601
738,90	55,494
739,08	55,400
739,26	51,772
739,44	55,277
739,62	57,202
739,80	56,305
739,98	55,643
740,16	53,540
740,34	53,655
740,52	57,066
740,70	54,994
740,88	54,762
741,06	54,248
741,24	54,572
741,42	55,986
741,60	55,040
741,78	56,297
741,96	58,336
742,14	53,232
742,32	53,035
742,50	56,081
742,68	55,164
742,86	55,181
743,04	53,572
743,21	55,847
743,39	58,883
743,57	56,495
743,75	52,765
743,93	54,973
744,11	51,268
744,29	53,855
744,47	54,779
744,65	53,692
744,83	53,749
745,01	53,773
745,19	54,188
745,37	57,687
745,55	55,883
745,73	57,215
745,91	53,191
746,09	54,506
746,27	54,814
746,45	51,798
746,62	54,227
746,80	53,856
746,98	54,491
747,16	54,682
747,34	55,921
747,52	53,132
747,70	54,698
747,88	56,414
748,06	54,739
748,24	54,895
748,42	57,740
748,60	55,412
748,78	54,803
748,95	56,010
749,13	58,484
749,31	55,324
749,49	53,062
749,67	54,925
749,85	55,651
750,03	56,794
750,21	55,776
750,39	55,729
750,57	56,374
750,74	55,679
750,92	53,324
751,10	57,532
751,28	53,517
751,46	55,481
751,64	55,956
751,82	56,852
752,00	55,545
752,17	55,639
752,35	52,772
752,53	55,632
752,71	54,218
752,89	55,975
753,07	53,902
753,25	56,607
753,43	54,739
753,60	56,971
753,78	54,183
753,96	55,271
754,14	54,793
754,32	56,383
754,50	56,384
754,68	56,021
754,85	56,841
755,03	53,531
755,21	55,842
755,39	59,761
755,57	55,329
755,75	55,497
755,92	53,117
756,10	56,669
756,28	56,570
756,46	53,802
756,64	54,174
756,82	57,340
756,99	55,485
757,17	55,141
757,35	52,909
757,53	58,574
757,71	56,740
757,89	53,615
758,06	54,826
758,24	56,780
758,42	55,085
758,60	55,499
758,78	53,917
758,95	54,795
759,13	57,427
759,31	54,860
759,49	55,994
759,67	55,286
759,84	54,931
760,02	56,319
760,20	53,844
760,38	55,167
760,56	53,669
760,73	56,533
760,91	56,906
761,09	54,847
761,27	54,792
761,45	55,195
761,62	56,079
761,80	54,919
761,98	54,560
762,16	55,655
762,33	54,447
762,51	58,764
762,69	53,414
762,87	54,822
763,05	57,125
763,22	54,166
763,40	55,519
763,58	54,620
763,76	55,173
763,93	54,982
764,11	57,454
764,29	52,926
764,47	55,289
764,64	57,132
764,82	57,898
765,00	53,560
765,18	52,786
765,35	53,646
765,53	54,435
765,71	54,785
765,89	54,402
766,06	53,513
766,24	54,902
766,42	55,246
766,60	56,920
766,77	56,236
766,95	54,919
767,13	54,966
767,30	56,424
767,48	55,904
767,66	56,466
767,84	52,530
768,01	55,609
768,19	57,887
768,37	56,607
768,54	54,694
768,72	56,739
768,90	56,346
769,08	56,065
769,25	55,915
769,43	54,980
769,61	53,694
769,78	54,814
769,96	53,143
770,14	56,474
770,31	55,871
770,49	54,234
770,67	54,887
770,85	54,448
771,02	56,958
771,20	54,304
771,38	57,635
771,55	54,896
771,73	54,151
771,91	54,623
772,08	57,076
772,26	55,177
772,44	55,235
772,61	56,300
772,79	54,724
772,97	54,203
773,14	55,926
773,32	58,379
773,50	53,020
773,67	55,481
773,85	56,376
774,03	55,584
774,20	55,178
774,38	55,300
774,56	53,998
774,73	54,558
774,91	56,480
775,09	55,320
775,26	58,272
775,44	56,438
775,61	55,713
775,79	53,776
775,97	56,864
776,14	53,072
776,32	53,968
776,50	56,416
776,67	55,101
776,85	55,673
777,03	53,241
777,20	56,208
777,38	55,538
777,55	57,092
777,73	53,024
777,91	52,892
778,08	56,145
778,26	54,026
778,43	57,027
778,61	51,546
778,79	54,740
778,96	55,887
779,14	56,369
779,32	56,634
779,49	57,618
779,67	59,738
779,84	56,740
780,02	55,218
780,20	53,138
780,37	56,368
780,55	50,704
780,72	59,142
780,90	57,523
781,07	55,389
781,25	57,066
781,43	57,341
781,60	55,246
781,78	56,703
781,95	56,226
782,13	55,482
782,30	57,596
782,48	58,048
782,66	53,032
782,83	53,914
783,01	58,424
783,18	57,882
783,36	57,819
783,53	57,636
783,71	55,723
783,89	57,042
784,06	56,232
784,24	57,369
784,41	59,927
784,59	54,197
784,76	56,250
784,94	55,050
785,11	54,207
785,29	54,099
785,46	54,846
785,64	56,552
785,82	57,131
785,99	54,245
786,17	55,080
786,34	56,710
786,52	56,381
786,69	59,413
786,87	54,430
787,04	53,484
787,22	54,480
787,39	57,098
787,57	56,013
787,74	58,539
787,92	57,864
788,09	58,114
788,27	53,452
788,44	56,943
788,62	57,806
788,79	55,310
788,97	58,643
789,14	55,214
789,32	58,040
789,49	59,052
789,67	56,548
789,84	54,147
790,02	58,238
790,19	56,718
790,37	55,980
790,54	59,573
790,72	62,344
790,89	60,154
791,07	56,517
791,24	54,472
791,42	57,576
791,59	59,629
791,77	58,253
791,94	53,611
792,12	55,969
792,29	59,034
792,47	54,905
792,64	57,151
792,81	58,375
792,99	57,507
793,16	56,355
793,34	59,007
793,51	58,696
793,69	57,490
793,86	54,957
794,04	54,152
794,21	60,639
794,39	53,696
794,56	58,934
794,73	56,839
794,91	59,876
795,08	55,177
795,26	57,156
795,43	55,053
795,61	57,858
795,78	60,173
795,95	56,794
796,13	58,468
796,30	57,651
796,48	54,004
796,65	53,111
796,83	59,981
797,00	61,226
797,17	56,243
797,35	57,832
797,52	57,903
797,70	61,476
797,87	57,210
798,04	54,569
798,22	58,143
798,39	57,412
798,57	57,556
798,74	57,694
798,91	56,526
799,09	54,820
799,26	56,789
799,44	57,502
799,61	57,736
799,78	57,755
799,96	57,213
800,13	55,398
800,31	56,234
800,48	60,813
800,65	61,280
800,83	53,775
801,00	55,717
801,17	54,630
801,35	58,787
801,52	57,426
801,70	56,148
801,87	56,096
802,04	59,728
802,22	53,419
802,39	54,629
802,56	62,180
802,74	56,076
802,91	54,707
803,08	60,185
803,26	58,693
803,43	62,301
803,61	59,034
803,78	55,223
803,95	58,751
804,13	56,885
804,30	55,304
804,47	58,523
804,65	59,674
804,82	60,168
804,99	59,263
805,17	55,378
805,34	60,610
805,51	58,620
805,69	57,761
805,86	58,917
806,03	59,631
806,21	59,317
806,38	59,906
806,55	61,009
806,72	65,070
806,90	61,196
807,07	57,529
807,24	55,476
807,42	55,585
807,59	56,927
807,76	53,158
807,94	57,944
808,11	60,499
808,28	61,891
808,45	56,138
808,63	59,217
808,80	65,324
808,97	57,394
809,15	55,153
809,32	58,522
809,49	53,914
809,67	59,976
809,84	60,958
810,01	60,510
810,18	66,240
810,36	63,643
810,53	57,468
810,70	57,912
810,87	57,706
811,05	60,209
811,22	62,232
811,39	55,942
811,57	62,473
811,74	62,456
811,91	54,569
812,08	56,922
812,26	59,135
812,43	59,458
812,60	58,410
812,77	55,633
812,95	61,977
813,12	60,012
813,29	55,308
813,46	60,618
813,64	62,666
813,81	58,572
813,98	56,394
814,15	62,428
814,32	64,755
814,50	62,681
814,67	62,688
814,84	60,113
815,01	60,402
815,19	54,684
815,36	51,270
815,53	57,268
815,70	60,274
815,87	60,093
816,05	51,884
816,22	59,184
816,39	65,513
816,56	66,302
816,74	59,699
816,91	59,757
817,08	64,569
817,25	63,564
817,42	58,201
817,60	60,866
817,77	58,555
817,94	57,047
818,11	59,050
818,28	57,722
818,45	62,661
818,63	60,590
818,80	58,220
818,97	62,447
819,14	68,108
819,31	63,445
819,49	60,605
819,66	61,127
819,83	60,698
820,00	63,298
820,17	60,127
820,34	56,498
820,52	63,746
820,69	60,099
820,86	57,896
821,03	59,670
821,20	65,636
821,37	67,048
821,55	51,167
821,72	57,259
821,89	66,086
822,06	68,144
822,23	50,132
822,40	57,611
822,57	63,444
822,75	67,298
822,92	57,286
823,09	56,589
823,26	63,718
823,43	65,538
823,60	59,126
823,77	58,954
823,94	66,259
824,12	66,215
824,29	55,839
824,46	58,692
824,63	69,136
824,80	64,314
824,97	58,053
825,14	59,928
825,31	63,366
825,49	61,601
825,66	55,435
825,83	58,716
826,00	59,272
826,17	72,903
826,34	54,694
826,51	54,200
826,68	58,400
826,85	64,702
827,02	65,272
827,20	56,664
827,37	61,584
827,54	62,579
827,71	57,942
827,88	61,666
828,05	65,297
828,22	59,730
828,39	63,931
828,56	63,061
828,73	65,642
828,90	60,586
829,07	61,413
829,25	60,656
829,42	66,626
829,59	60,289
829,76	58,646
829,93	57,922
830,10	58,607
830,27	63,578
830,44	61,855
830,61	57,550
830,78	72,418
830,95	56,601
831,12	58,848
831,29	55,009
831,46	57,578
831,63	62,780
831,80	55,465
831,97	59,136
832,14	65,782
832,31	72,333
832,48	61,613
832,65	65,776
832,83	57,442
833,00	58,857
833,17	61,292
833,34	62,562
833,51	70,978
833,68	71,512
833,85	64,071
834,02	58,850
834,19	62,054
834,36	67,778
834,53	60,889
834,70	62,020
834,87	75,820
835,04	61,510
835,21	61,553
835,38	57,129
835,55	60,605
835,72	72,932
835,89	55,360
836,06	61,878
836,23	62,361
836,40	54,079
836,57	52,701
836,74	61,120
836,91	64,381
837,08	64,083
837,25	64,826
837,42	54,072
837,59	63,772
837,76	67,044
837,93	66,475
838,09	55,152
838,26	68,258
838,43	65,735
838,60	60,330
838,77	61,025
838,94	73,116
839,11	58,892
839,28	55,043
839,45	60,429
839,62	64,110
839,79	59,883
839,96	65,707
840,13	64,048
840,30	54,316
840,47	57,595
840,64	55,374
840,81	63,275
840,98	57,521
841,15	78,683
841,32	58,021
841,48	65,691
841,65	70,419
841,82	56,466
841,99	58,523
842,16	60,374
842,33	70,489
842,50	61,167
842,67	65,172
842,84	60,330
843,01	58,346
843,18	66,966
843,35	59,253
843,52	59,693
843,68	66,270
843,85	61,264
844,02	59,381
844,19	58,962
844,36	73,066
844,53	77,178
844,70	62,825
844,87	70,835
845,04	67,940
845,21	57,159
845,37	67,844
845,54	59,456
845,71	66,353
845,88	83,227
846,05	56,529
846,22	57,287
846,39	70,035
846,56	75,983
846,72	47,941
846,89	62,818
847,06	76,155
847,23	75,430
847,40	63,235
847,57	54,966
847,74	74,068
847,90	75,965
848,07	59,891
848,24	65,007
848,41	76,408
848,58	77,233
848,75	64,936
848,92	66,595
849,08	59,009
849,25	70,324
849,42	56,613
849,59	66,405
849,76	67,330
849,93	68,749
850,09	70,437
850,26	52,331
850,43	75,299
850,60	65,151
850,77	62,127
850,94	73,445
851,10	69,163
851,27	66,024
851,44	66,961
851,61	64,415
851,78	68,550
851,95	72,290
852,11	61,427
852,28	72,648
852,45	72,919
852,62	61,973
852,79	64,400
852,95	60,417
853,12	71,304
853,29	68,567
853,46	54,525
853,63	63,837
853,79	59,424
853,96	60,621
854,13	68,312
854,30	62,080
854,46	80,110
854,63	63,089
854,80	70,708
854,97	54,171
855,14	78,464
855,30	72,252
855,47	61,006
855,64	68,695
855,81	70,295
855,97	75,131
856,14	68,358
856,31	57,808
856,48	71,486
856,65	87,856
856,81	59,991
856,98	63,228
857,15	62,763
857,32	81,911
857,48	53,514
857,65	67,464
857,82	83,439
857,99	68,848
858,15	56,439
858,32	66,950
858,49	64,908
858,65	90,255
858,82	81,205
858,99	75,992
859,16	83,416
859,32	79,939
859,49	60,735
859,66	71,228
859,83	72,214
859,99	64,639
860,16	63,859
860,33	63,713
860,49	79,775
860,66	75,818
860,83	67,209
861,00	58,657
861,16	85,394
861,33	79,728
861,50	56,159
861,66	71,838
861,83	86,151
862,00	78,113
862,16	70,455
862,33	52,626
862,50	105,089
862,67	78,852
862,83	61,488
863,00	86,835
863,17	94,639
863,33	69,443
863,50	49,814
863,67	63,525
863,83	80,250
864,00	90,214
864,17	48,871
864,33	64,747
864,50	67,694
864,67	60,730
864,83	63,836
865,00	52,547
865,17	57,656
865,33	71,306
865,50	52,773
865,67	66,075
865,83	68,349
866,00	118,418
866,17	82,693
866,33	73,980
866,50	122,691
866,66	67,417
866,83	98,182
867,00	83,442
867,16	79,235
867,33	91,857
867,50	76,699
867,66	57,546
867,83	81,634
868,00	102,316
868,16	54,651
868,33	48,795
868,49	107,377
868,66	78,000
868,83	70,789
868,99	85,419
869,16	84,353
869,32	97,355
869,49	73,323
869,66	54,256
869,82	94,955
869,99	118,267
870,15	48,055
870,32	88,069
870,49	102,612
870,65	133,887
870,82	78,058
870,98	76,455
871,15	106,163
871,32	86,353
871,48	39,329
871,65	72,255
871,81	85,000
871,98	60,401
872,15	61,450
872,31	42,592
872,48	134,252
872,64	91,852
872,81	53,360
872,97	79,435
873,14	98,360
873,31	92,073
873,47	87,840
873,64	77,142
873,80	114,719
873,97	124,476
874,13	65,654
874,30	77,468
874,46	119,862
874,63	76,699
874,80	69,042
874,96	78,021
875,13	109,461
875,29	74,504
875,46	111,413
875,62	64,405
875,79	114,995
875,95	84,890
876,12	71,618
876,28	41,260
876,45	117,853
876,61	80,763
876,78	78,869
876,94	59,628
877,11	113,004
877,27	74,212
877,44	125,284
877,60	58,565
877,77	102,888
877,94	89,244
878,10	88,871
878,27	69,954
878,43	129,618
878,60	64,631
878,76	66,024
878,93	81,541
879,09	112,877
879,26	115,550
879,42	80,534
879,58	64,285
879,75	124,713
879,91	134,751
880,08	-15,595
880,24	68,842
880,41	111,803
880,57	85,239
880,74	65,240
880,90	110,416
881,07	78,692
881,23	127,471
881,40	80,105
881,56	56,747
881,73	114,184
881,89	152,237
882,06	103,249
882,22	182,590
882,38	201,387
882,55	201,446
882,71	108,730
882,88	91,999
883,04	219,292
883,21	221,088
883,37	98,373
883,54	91,608
883,70	190,549
883,86	130,043
884,03	65,972
884,19	38,757
884,36	-31,064
884,52	207,971
884,69	128,666
884,85	53,044
885,01	318,505
885,18	111,757
885,34	102,662
885,51	-7,584
885,67	82,590
>>>>> Data<<<<< Espectral Procesado Extremo
