Fichero De Datos De SpectraSuite
++++++++++++++++++++++++++++++++++++
Fecha: Wed Apr 22 11:40:50 CEST 2009
Usuario: evoflor
Presente Oscuro Del Espectro: Sí
La Referencia de Presente Del Espectro De: Sí
Muestreados de los componentes de Número de espectros: 1
Espectrómetros: USB4F02353
Tiempo de integración (usec): 500000 (USB4F02353)
Promedio de Espectros Hechos un: 5 (USB4F02353)
El Alisar Del Furgón: 0 (USB4F02353)
Párrafo de de Corregir del la del del de Eléctrica del obscuridad: Sí (USB4F02353)
Estrobo/Lámpara Permitido: No (USB4F02353)
Correct for Detector Non-linearity: No (USB4F02353)
Párrafo de de Corregir del la del del de Externa del luz: No (USB4F02353)
Procesado del espectro de Número de pixeles en: 3648
>>>>> Comienza Data<<<<< Espectral Procesado Del EL
177,79	239,526
178,00	239,526
178,22	239,526
178,44	1322,088
178,66	-424,164
178,88	347,915
179,09	-123,787
179,31	269,722
179,53	535,882
179,75	9,006
179,96	390,431
180,18	-615,662
180,40	101,242
180,62	444,801
180,83	-32,273
181,05	-124,268
181,27	-173090,000
181,49	-69,109
181,70	416,500
181,92	636,497
182,14	651,476
182,36	164,646
182,58	348,100
182,79	563,795
183,01	-55,241
183,23	182,033
183,45	115,415
183,66	-264,115
183,88	277,000
184,10	-2639,818
184,32	105,421
184,53	130,477
184,75	-97,120
184,97	10,133
185,18	12,989
185,40	-572,548
185,62	159,173
185,84	85,131
186,05	147,838
186,27	9,630
186,49	1395,769
186,71	59,126
186,92	200,593
187,14	-175,490
187,36	105,110
187,58	101,380
187,79	-83,875
188,01	323,168
188,23	-187,472
188,45	115,289
188,66	109,777
188,88	-1739,818
189,10	-1343,900
189,31	93,191
189,53	3,814
189,75	340,205
189,97	219,192
190,18	198,240
190,40	700,529
190,62	-143,552
190,83	-254,455
191,05	-10,986
191,27	111,400
191,49	472,995
191,70	-278,317
191,92	-269,407
192,14	-1,057
192,35	502,095
192,57	2605,429
192,79	-109,229
193,01	147,206
193,22	59,636
193,44	-6,638
193,66	73,950
193,87	17,966
194,09	13,395
194,31	126,024
194,53	524,406
194,74	19,339
194,96	21,087
195,18	123,025
195,39	-404,459
195,61	-16,780
195,83	-211,935
196,04	160,180
196,26	-349,698
196,48	-101,359
196,70	286,859
196,91	233,189
197,13	64,532
197,35	117,352
197,56	365,913
197,78	1432,761
198,00	536,993
198,21	350,922
198,43	-943,547
198,65	148,250
198,86	33,417
199,08	3,902
199,30	166,377
199,51	-376,189
199,73	192,996
199,95	370,520
200,16	880,346
200,38	286,000
200,60	177,589
200,81	297,409
201,03	181,766
201,25	-1064,900
201,46	244,380
201,68	9,604
201,90	1704,318
202,11	208,435
202,33	71,616
202,55	-142,625
202,76	-45,641
202,98	1,010
203,20	-66,298
203,41	-285,737
203,63	238,434
203,85	-171290,000
204,06	6,937
204,28	-100,458
204,50	144,283
204,71	304,223
204,93	-422,480
205,15	128,283
205,36	1,166
205,58	468,695
205,80	-161,521
206,01	85,815
206,23	149,190
206,45	231,534
206,66	153,699
206,88	56,992
207,10	248,159
207,31	343,695
207,53	39,400
207,75	26,184
207,96	1540,224
208,18	-106,468
208,39	91,158
208,61	5691,143
208,83	-322,007
209,04	322,463
209,26	-17,926
209,48	109,722
209,69	68,694
209,91	569,561
210,13	124,307
210,34	0,702
210,56	195,800
210,77	-1781,024
210,99	32,463
211,21	5417,059
211,42	-171,226
211,64	-41,831
211,86	72,651
212,07	189,003
212,29	124,347
212,50	134,403
212,72	8,038
212,94	153,932
213,15	137,342
213,37	78,897
213,58	-256,075
213,80	2882,500
214,02	8434,706
214,23	222,245
214,45	304,885
214,67	-673,049
214,88	-37,215
215,10	-344,349
215,31	16,354
215,53	-81,159
215,75	102,243
215,96	1622,919
216,18	866,056
216,39	231,975
216,61	338,624
216,83	214,241
217,04	690,899
217,26	38,210
217,47	142,792
217,69	249,600
217,91	96,675
218,12	-29990,000
218,34	155,149
218,55	306,340
218,77	44,272
218,99	109,409
219,20	-97,848
219,42	232,302
219,63	-10,213
219,85	-104,008
220,06	219,192
220,28	235,240
220,50	56,119
220,71	22,998
220,93	2060,189
221,14	-2216,900
221,36	39,025
221,58	24,018
221,79	24,673
222,01	1205,086
222,22	878,224
222,44	-512,472
222,65	146,102
222,87	467,762
223,09	129,482
223,30	116,759
223,52	179,405
223,73	223,867
223,95	-8,465
224,16	156,474
224,38	322,725
224,60	99,603
224,81	125,963
225,03	36,002
225,24	22,826
225,46	40,847
225,67	24,020
225,89	-30,249
226,10	315,331
226,32	1118,320
226,54	65,732
226,75	-31,663
226,97	125,135
227,18	114,006
227,40	90,637
227,61	57,119
227,83	4,814
228,04	180,988
228,26	91,848
228,47	21,265
228,69	257,183
228,91	109,325
229,12	122,877
229,34	25,717
229,55	29,595
229,77	9,669
229,98	-31,414
230,20	92,773
230,41	9,126
230,63	69,157
230,84	20,988
231,06	24,638
231,27	23,658
231,49	63,924
231,71	28,194
231,92	32,651
232,14	-3,403
232,35	80,094
232,57	61,035
232,78	-4,383
233,00	44,177
233,21	32,495
233,43	30,800
233,64	26,023
233,86	18,511
234,07	0,087
234,29	19,497
234,50	5,918
234,72	33,155
234,93	0,682
235,15	11,655
235,36	26,548
235,58	39,406
235,79	37,521
236,01	18,306
236,22	20,982
236,44	27,178
236,65	20,876
236,87	17,759
237,08	3,047
237,30	-2,067
237,51	16,906
237,73	-4,465
237,94	6,720
238,16	21,376
238,37	12,185
238,59	6,093
238,80	5,782
239,02	10,201
239,23	13,423
239,45	1,627
239,66	18,843
239,88	33,117
240,09	30,534
240,31	3,343
240,52	8,557
240,74	14,199
240,95	14,052
241,17	2,110
241,38	12,279
241,60	11,132
241,81	36,109
242,03	10,133
242,24	2,120
242,46	18,018
242,67	4,578
242,89	13,885
243,10	14,466
243,32	15,227
243,53	21,712
243,75	8,841
243,96	10,500
244,18	15,163
244,39	10,443
244,60	9,057
244,82	7,878
245,03	16,238
245,25	15,237
245,46	20,010
245,68	5,002
245,89	17,314
246,11	14,126
246,32	7,842
246,54	5,877
246,75	7,079
246,97	11,365
247,18	16,355
247,39	3,116
247,61	9,078
247,82	5,094
248,04	7,863
248,25	12,477
248,47	15,054
248,68	11,523
248,90	4,595
249,11	8,624
249,33	16,297
249,54	10,175
249,75	10,280
249,97	7,877
250,18	12,742
250,40	19,311
250,61	-2,837
250,83	6,828
251,04	4,053
251,25	12,614
251,47	2,884
251,68	8,351
251,90	11,431
252,11	12,057
252,33	7,193
252,54	10,825
252,76	7,204
252,97	2,777
253,18	3,028
253,40	6,553
253,61	4,576
253,83	11,941
254,04	10,178
254,25	8,156
254,47	4,844
254,68	2,883
254,90	6,761
255,11	7,920
255,33	11,659
255,54	8,275
255,75	9,545
255,97	4,886
256,18	5,387
256,40	9,265
256,61	9,242
256,82	1,619
257,04	11,923
257,25	1,142
257,47	9,273
257,68	6,658
257,89	9,524
258,11	8,181
258,32	3,943
258,54	5,460
258,75	11,387
258,96	11,331
259,18	10,937
259,39	4,825
259,61	8,532
259,82	10,856
260,03	12,934
260,25	9,848
260,46	6,674
260,68	8,521
260,89	3,213
261,10	1,795
261,32	9,368
261,53	4,892
261,75	10,920
261,96	0,887
262,17	13,955
262,39	12,246
262,60	3,960
262,81	1,384
263,03	11,483
263,24	8,467
263,46	2,063
263,67	5,674
263,88	9,331
264,10	9,114
264,31	5,489
264,52	6,901
264,74	6,847
264,95	9,041
265,17	4,991
265,38	7,647
265,59	13,625
265,81	8,086
266,02	4,115
266,23	1,777
266,45	9,917
266,66	10,941
266,87	6,923
267,09	2,996
267,30	13,883
267,52	9,934
267,73	7,574
267,94	4,808
268,16	6,393
268,37	7,595
268,58	10,254
268,80	6,206
269,01	9,883
269,22	11,790
269,44	8,848
269,65	6,181
269,86	-0,140
270,08	9,577
270,29	3,760
270,50	4,437
270,72	11,372
270,93	5,230
271,14	3,883
271,36	5,111
271,57	8,874
271,78	7,293
272,00	9,586
272,21	5,683
272,42	10,869
272,64	8,149
272,85	5,474
273,06	4,852
273,28	9,065
273,49	8,659
273,70	10,359
273,92	8,764
274,13	9,204
274,34	1,365
274,56	8,968
274,77	4,675
274,98	6,654
275,20	6,037
275,41	10,603
275,62	6,894
275,84	5,836
276,05	14,464
276,26	6,006
276,47	4,432
276,69	11,247
276,90	9,527
277,11	6,064
277,33	6,879
277,54	8,087
277,75	8,771
277,97	3,064
278,18	3,820
278,39	9,604
278,61	6,611
278,82	5,057
279,03	9,692
279,24	7,703
279,46	6,327
279,67	10,346
279,88	6,774
280,10	10,450
280,31	1,597
280,52	8,196
280,73	5,054
280,95	9,830
281,16	6,777
281,37	7,737
281,59	10,321
281,80	10,443
282,01	5,704
282,22	7,300
282,44	3,080
282,65	11,533
282,86	10,457
283,08	6,186
283,29	6,925
283,50	7,604
283,71	4,564
283,93	6,952
284,14	9,174
284,35	6,534
284,56	11,395
284,78	2,854
284,99	8,157
285,20	11,929
285,42	5,358
285,63	6,419
285,84	3,025
286,05	5,121
286,27	8,679
286,48	3,609
286,69	3,868
286,90	7,011
287,12	5,199
287,33	5,103
287,54	4,376
287,75	5,736
287,97	6,360
288,18	4,825
288,39	3,454
288,60	7,825
288,82	6,099
289,03	4,228
289,24	7,897
289,45	8,521
289,67	8,066
289,88	6,627
290,09	11,064
290,30	7,349
290,52	6,022
290,73	4,693
290,94	1,713
291,15	7,577
291,37	7,194
291,58	5,345
291,79	5,293
292,00	6,803
292,21	7,945
292,43	5,629
292,64	4,160
292,85	6,088
293,06	8,710
293,28	7,290
293,49	3,070
293,70	10,988
293,91	4,764
294,12	5,355
294,34	4,110
294,55	7,095
294,76	5,221
294,97	7,285
295,19	3,712
295,40	7,312
295,61	8,352
295,82	2,921
296,03	6,565
296,25	7,385
296,46	6,092
296,67	1,721
296,88	2,185
297,09	7,207
297,31	5,139
297,52	7,153
297,73	2,413
297,94	9,748
298,15	6,768
298,37	3,014
298,58	6,042
298,79	7,433
299,00	1,042
299,21	5,153
299,43	3,582
299,64	10,190
299,85	6,596
300,06	4,064
300,27	6,878
300,49	9,523
300,70	6,817
300,91	7,067
301,12	6,396
301,33	8,799
301,54	2,962
301,76	4,548
301,97	3,499
302,18	4,461
302,39	8,854
302,60	15,398
302,82	4,551
303,03	8,994
303,24	6,320
303,45	5,945
303,66	6,269
303,87	5,163
304,09	8,714
304,30	5,379
304,51	4,186
304,72	7,183
304,93	4,527
305,14	6,109
305,36	5,131
305,57	2,265
305,78	8,409
305,99	4,214
306,20	5,130
306,41	4,719
306,62	4,262
306,84	6,261
307,05	3,263
307,26	7,110
307,47	9,043
307,68	4,333
307,89	4,916
308,11	9,264
308,32	2,818
308,53	6,833
308,74	3,873
308,95	4,856
309,16	7,018
309,37	10,162
309,59	4,125
309,80	5,575
310,01	7,557
310,22	8,225
310,43	4,320
310,64	7,217
310,85	7,794
311,06	5,572
311,28	6,693
311,49	6,060
311,70	9,679
311,91	2,821
312,12	3,846
312,33	4,573
312,54	6,355
312,75	4,184
312,97	4,139
313,18	8,819
313,39	5,582
313,60	4,733
313,81	6,528
314,02	5,885
314,23	8,412
314,44	4,225
314,65	5,084
314,87	5,324
315,08	5,041
315,29	6,931
315,50	10,119
315,71	7,540
315,92	10,716
316,13	4,586
316,34	7,034
316,55	7,291
316,77	2,556
316,98	4,730
317,19	5,832
317,40	8,403
317,61	8,388
317,82	4,082
318,03	4,906
318,24	2,814
318,45	7,803
318,66	6,958
318,87	1,669
319,09	8,629
319,30	6,582
319,51	7,725
319,72	7,339
319,93	6,492
320,14	5,396
320,35	7,007
320,56	4,402
320,77	4,605
320,98	10,489
321,19	7,497
321,40	5,416
321,62	7,655
321,83	7,705
322,04	6,927
322,25	4,385
322,46	8,965
322,67	6,128
322,88	8,292
323,09	2,185
323,30	10,085
323,51	8,043
323,72	7,293
323,93	4,931
324,14	7,172
324,35	3,201
324,56	2,915
324,77	6,370
324,99	4,980
325,20	1,704
325,41	7,127
325,62	6,081
325,83	2,674
326,04	3,290
326,25	6,110
326,46	4,660
326,67	6,595
326,88	8,478
327,09	4,080
327,30	5,392
327,51	4,548
327,72	8,800
327,93	7,384
328,14	4,742
328,35	4,493
328,56	7,337
328,77	6,837
328,98	8,194
329,19	8,114
329,40	7,164
329,61	5,302
329,82	2,848
330,04	5,939
330,25	3,583
330,46	6,828
330,67	4,510
330,88	4,131
331,09	5,092
331,30	6,852
331,51	7,685
331,72	8,211
331,93	9,956
332,14	3,711
332,35	7,842
332,56	5,625
332,77	5,951
332,98	2,793
333,19	2,610
333,40	5,561
333,61	4,560
333,82	10,341
334,03	6,227
334,24	6,553
334,45	6,845
334,66	8,420
334,87	4,410
335,08	4,116
335,29	5,230
335,50	2,847
335,71	2,998
335,92	6,199
336,13	9,907
336,34	4,760
336,55	6,902
336,76	8,950
336,97	5,425
337,18	3,462
337,39	7,219
337,60	5,290
337,81	8,444
338,02	8,771
338,23	6,993
338,44	6,705
338,65	7,041
338,86	8,934
339,07	4,720
339,28	8,154
339,49	5,656
339,70	1,324
339,91	5,073
340,11	9,410
340,32	4,432
340,53	3,680
340,74	3,137
340,95	4,763
341,16	5,858
341,37	2,970
341,58	4,244
341,79	5,996
342,00	7,718
342,21	5,070
342,42	6,186
342,63	7,775
342,84	5,444
343,05	5,839
343,26	7,826
343,47	6,503
343,68	2,378
343,89	7,246
344,10	6,767
344,31	7,259
344,52	6,249
344,73	6,079
344,94	7,388
345,14	5,634
345,35	8,169
345,56	5,921
345,77	3,881
345,98	6,484
346,19	7,301
346,40	6,025
346,61	6,529
346,82	6,205
347,03	5,555
347,24	8,562
347,45	7,066
347,66	10,066
347,87	7,563
348,08	6,887
348,28	0,836
348,49	7,982
348,70	10,319
348,91	7,420
349,12	1,778
349,33	18,753
349,54	8,376
349,75	7,739
349,96	7,355
350,17	7,700
350,38	1,968
350,59	6,991
350,80	5,225
351,00	5,856
351,21	12,140
351,42	8,220
351,63	7,587
351,84	7,397
352,05	9,178
352,26	7,490
352,47	5,002
352,68	6,902
352,89	11,531
353,09	9,355
353,30	1,695
353,51	6,750
353,72	8,826
353,93	8,630
354,14	2,013
354,35	5,569
354,56	10,573
354,77	4,791
354,98	2,372
355,18	10,883
355,39	10,777
355,60	4,195
355,81	4,586
356,02	7,621
356,23	6,701
356,44	3,248
356,65	6,798
356,85	11,267
357,06	10,760
357,27	9,427
357,48	5,917
357,69	4,578
357,90	5,744
358,11	3,085
358,32	4,813
358,52	8,698
358,73	7,336
358,94	5,875
359,15	10,209
359,36	8,251
359,57	7,049
359,78	7,314
359,98	4,333
360,19	4,197
360,40	6,296
360,61	9,380
360,82	3,345
361,03	12,691
361,24	11,249
361,44	6,362
361,65	8,184
361,86	7,440
362,07	7,265
362,28	5,428
362,49	5,456
362,70	7,889
362,90	10,682
363,11	5,527
363,32	7,375
363,53	6,549
363,74	10,887
363,95	8,029
364,15	6,492
364,36	9,624
364,57	6,689
364,78	8,925
364,99	7,393
365,20	10,173
365,40	7,570
365,61	3,162
365,82	7,755
366,03	6,592
366,24	6,805
366,45	6,508
366,65	9,186
366,86	9,666
367,07	8,559
367,28	4,703
367,49	6,868
367,69	11,546
367,90	6,793
368,11	4,764
368,32	3,881
368,53	9,832
368,73	8,277
368,94	4,690
369,15	5,254
369,36	9,471
369,57	10,077
369,78	4,600
369,98	9,172
370,19	8,946
370,40	10,001
370,61	4,267
370,82	2,563
371,02	14,212
371,23	10,406
371,44	6,260
371,65	7,316
371,85	12,506
372,06	6,698
372,27	5,398
372,48	7,620
372,69	9,644
372,89	4,572
373,10	7,234
373,31	4,218
373,52	7,981
373,73	11,562
373,93	6,638
374,14	6,806
374,35	6,573
374,56	8,954
374,76	6,464
374,97	7,522
375,18	7,396
375,39	7,869
375,60	6,456
375,80	7,100
376,01	4,477
376,22	6,572
376,43	5,104
376,63	7,309
376,84	7,606
377,05	10,147
377,26	9,125
377,46	2,435
377,67	6,810
377,88	9,208
378,09	8,691
378,29	3,718
378,50	8,402
378,71	7,714
378,92	5,773
379,12	5,998
379,33	6,964
379,54	11,094
379,75	10,864
379,95	5,012
380,16	9,686
380,37	10,284
380,58	8,315
380,78	10,786
380,99	7,024
381,20	5,584
381,41	7,610
381,61	9,986
381,82	8,290
382,03	10,276
382,24	5,778
382,44	7,233
382,65	7,912
382,86	7,369
383,06	5,944
383,27	8,150
383,48	4,771
383,69	10,380
383,89	11,212
384,10	9,175
384,31	7,544
384,51	8,871
384,72	7,789
384,93	7,771
385,14	6,799
385,34	9,956
385,55	7,048
385,76	5,887
385,96	11,798
386,17	7,899
386,38	9,262
386,59	12,743
386,79	8,604
387,00	13,854
387,21	13,162
387,41	10,592
387,62	6,164
387,83	14,441
388,03	8,311
388,24	3,109
388,45	9,948
388,66	11,612
388,86	8,367
389,07	7,422
389,28	13,733
389,48	11,279
389,69	8,671
389,90	9,516
390,10	10,068
390,31	13,312
390,52	7,279
390,72	8,494
390,93	10,949
391,14	10,361
391,34	11,029
391,55	13,305
391,76	16,380
391,96	11,080
392,17	9,857
392,38	15,463
392,58	8,774
392,79	11,827
393,00	7,020
393,20	7,701
393,41	8,695
393,62	10,787
393,82	10,067
394,03	7,588
394,24	11,191
394,44	13,596
394,65	12,470
394,86	8,809
395,06	10,772
395,27	9,540
395,48	11,175
395,68	12,993
395,89	12,128
396,10	11,776
396,30	6,882
396,51	10,469
396,72	14,219
396,92	10,571
397,13	10,725
397,34	7,606
397,54	13,197
397,75	12,370
397,95	6,595
398,16	10,641
398,37	11,982
398,57	8,884
398,78	11,090
398,99	13,425
399,19	14,465
399,40	14,254
399,60	11,348
399,81	15,964
400,02	15,375
400,22	15,443
400,43	14,088
400,64	12,628
400,84	12,702
401,05	14,322
401,25	13,149
401,46	14,796
401,67	17,952
401,87	12,424
402,08	12,598
402,29	12,920
402,49	17,061
402,70	18,066
402,90	14,310
403,11	13,962
403,32	14,073
403,52	15,505
403,73	16,096
403,93	19,218
404,14	21,622
404,35	18,301
404,55	14,100
404,76	14,336
404,96	16,060
405,17	19,965
405,38	21,648
405,58	15,654
405,79	20,244
405,99	20,554
406,20	17,152
406,40	13,789
406,61	19,860
406,82	17,187
407,02	21,130
407,23	18,468
407,43	21,629
407,64	15,533
407,85	20,859
408,05	14,799
408,26	23,702
408,46	23,525
408,67	16,571
408,87	20,183
409,08	25,761
409,29	25,830
409,49	25,721
409,70	23,497
409,90	24,673
410,11	21,804
410,31	25,885
410,52	22,649
410,72	18,989
410,93	26,771
411,14	23,154
411,34	21,418
411,55	24,646
411,75	26,732
411,96	23,710
412,16	24,995
412,37	23,925
412,57	24,995
412,78	24,968
412,99	25,641
413,19	23,444
413,40	22,027
413,60	22,642
413,81	22,134
414,01	28,428
414,22	25,806
414,42	25,004
414,63	22,852
414,83	31,157
415,04	29,360
415,24	26,815
415,45	29,575
415,65	28,773
415,86	27,911
416,07	28,875
416,27	31,050
416,48	33,156
416,68	33,334
416,89	25,783
417,09	24,448
417,30	33,941
417,50	31,806
417,71	31,071
417,91	33,640
418,12	32,021
418,32	32,175
418,53	31,566
418,73	31,484
418,94	31,225
419,14	34,031
419,35	29,890
419,55	31,964
419,76	30,640
419,96	28,501
420,17	30,309
420,37	32,164
420,58	36,883
420,78	32,243
420,99	32,920
421,19	32,925
421,40	34,264
421,60	37,243
421,81	32,473
422,01	31,556
422,22	33,669
422,42	33,947
422,63	36,876
422,83	34,566
423,04	38,185
423,24	42,274
423,45	36,136
423,65	38,543
423,86	40,371
424,06	38,412
424,27	33,198
424,47	34,204
424,67	36,925
424,88	41,405
425,08	33,723
425,29	39,624
425,49	39,431
425,70	31,276
425,90	36,800
426,11	37,461
426,31	39,292
426,52	37,544
426,72	37,449
426,93	38,486
427,13	39,203
427,33	40,620
427,54	40,237
427,74	44,716
427,95	45,703
428,15	39,104
428,36	41,155
428,56	38,587
428,77	40,304
428,97	40,026
429,18	43,202
429,38	38,030
429,58	47,116
429,79	42,592
429,99	40,974
430,20	38,756
430,40	44,579
430,61	41,292
430,81	38,738
431,01	41,711
431,22	40,989
431,42	49,231
431,63	34,583
431,83	41,836
432,04	39,801
432,24	47,310
432,44	42,148
432,65	40,145
432,85	39,999
433,06	44,094
433,26	37,926
433,47	37,635
433,67	41,738
433,87	40,280
434,08	37,230
434,28	39,277
434,49	40,734
434,69	43,734
434,89	36,659
435,10	39,212
435,30	43,555
435,51	40,487
435,71	39,349
435,91	41,280
436,12	40,499
436,32	45,440
436,53	44,983
436,73	42,632
436,93	45,052
437,14	41,028
437,34	42,599
437,55	44,096
437,75	42,968
437,95	52,068
438,16	47,236
438,36	46,139
438,57	41,048
438,77	44,287
438,97	47,944
439,18	49,835
439,38	42,379
439,58	46,142
439,79	44,953
439,99	45,577
440,20	46,993
440,40	44,357
440,60	42,946
440,81	49,113
441,01	46,348
441,21	47,356
441,42	48,081
441,62	52,272
441,83	45,311
442,03	49,804
442,23	48,788
442,44	47,371
442,64	49,463
442,84	47,922
443,05	48,314
443,25	43,482
443,45	50,272
443,66	44,267
443,86	43,838
444,06	48,423
444,27	45,155
444,47	48,209
444,67	42,547
444,88	51,667
445,08	50,014
445,28	49,382
445,49	46,631
445,69	48,216
445,90	47,630
446,10	54,364
446,30	48,738
446,51	49,747
446,71	51,854
446,91	51,415
447,12	53,662
447,32	48,211
447,52	54,444
447,72	46,233
447,93	50,606
448,13	46,563
448,33	50,976
448,54	51,563
448,74	45,247
448,94	49,852
449,15	52,923
449,35	51,645
449,55	45,608
449,76	56,880
449,96	48,496
450,16	53,970
450,37	47,698
450,57	46,212
450,77	47,293
450,98	49,784
451,18	49,939
451,38	47,176
451,58	55,323
451,79	51,603
451,99	48,746
452,19	52,494
452,40	49,353
452,60	48,635
452,80	46,425
453,00	52,817
453,21	50,703
453,41	54,662
453,61	50,396
453,82	51,480
454,02	47,975
454,22	57,951
454,42	53,600
454,63	48,793
454,83	46,038
455,03	52,137
455,24	50,187
455,44	49,644
455,64	50,170
455,84	49,846
456,05	47,200
456,25	48,954
456,45	47,066
456,65	53,404
456,86	51,537
457,06	51,456
457,26	52,621
457,47	52,689
457,67	49,515
457,87	49,574
458,07	48,888
458,28	49,306
458,48	49,394
458,68	43,362
458,88	55,752
459,09	51,830
459,29	54,303
459,49	52,150
459,69	49,622
459,90	56,752
460,10	49,787
460,30	53,417
460,50	51,442
460,71	49,591
460,91	47,046
461,11	54,697
461,31	50,219
461,52	56,521
461,72	53,773
461,92	49,433
462,12	59,522
462,32	48,351
462,53	47,773
462,73	50,733
462,93	54,911
463,13	54,521
463,34	51,147
463,54	50,014
463,74	47,806
463,94	51,847
464,14	53,581
464,35	48,681
464,55	53,395
464,75	57,784
464,95	51,233
465,16	49,358
465,36	57,259
465,56	50,609
465,76	47,753
465,96	54,020
466,17	48,265
466,37	50,603
466,57	54,272
466,77	53,143
466,97	50,490
467,18	55,001
467,38	50,051
467,58	52,962
467,78	54,091
467,98	53,846
468,19	55,443
468,39	53,631
468,59	55,322
468,79	53,899
468,99	49,560
469,19	50,530
469,40	51,444
469,60	44,728
469,80	51,586
470,00	52,315
470,20	51,602
470,41	50,727
470,61	53,774
470,81	51,109
471,01	48,438
471,21	55,695
471,41	51,523
471,62	51,525
471,82	50,177
472,02	51,795
472,22	56,200
472,42	51,145
472,62	51,685
472,83	53,169
473,03	56,848
473,23	51,741
473,43	56,229
473,63	49,280
473,83	51,981
474,03	55,006
474,24	55,960
474,44	51,030
474,64	53,206
474,84	51,781
475,04	52,012
475,24	53,038
475,45	53,773
475,65	51,251
475,85	55,207
476,05	48,159
476,25	50,026
476,45	48,999
476,65	58,167
476,85	50,135
477,06	50,270
477,26	53,258
477,46	51,260
477,66	55,821
477,86	52,369
478,06	53,488
478,26	57,176
478,46	54,288
478,67	53,749
478,87	53,446
479,07	51,400
479,27	55,443
479,47	52,487
479,67	50,847
479,87	50,983
480,07	48,211
480,28	51,020
480,48	50,468
480,68	53,342
480,88	56,977
481,08	54,721
481,28	53,415
481,48	52,810
481,68	52,310
481,88	51,090
482,08	48,813
482,29	53,527
482,49	49,600
482,69	48,951
482,89	51,075
483,09	53,012
483,29	48,977
483,49	49,794
483,69	53,807
483,89	50,390
484,09	47,769
484,29	49,329
484,50	48,321
484,70	52,562
484,90	50,946
485,10	49,635
485,30	50,637
485,50	52,197
485,70	49,502
485,90	50,801
486,10	49,804
486,30	50,814
486,50	49,457
486,70	49,425
486,90	51,162
487,10	52,288
487,30	50,356
487,51	51,865
487,71	47,499
487,91	48,634
488,11	51,759
488,31	48,002
488,51	51,198
488,71	48,159
488,91	50,577
489,11	47,516
489,31	49,538
489,51	47,042
489,71	51,558
489,91	49,352
490,11	49,661
490,31	51,262
490,51	53,169
490,71	49,193
490,91	49,165
491,11	48,800
491,31	52,757
491,51	48,915
491,72	50,759
491,92	52,517
492,12	52,290
492,32	54,558
492,52	53,295
492,72	50,410
492,92	51,561
493,12	52,271
493,32	49,502
493,52	48,629
493,72	51,703
493,92	54,972
494,12	51,011
494,32	51,606
494,52	48,394
494,72	51,314
494,92	51,329
495,12	50,030
495,32	53,979
495,52	51,373
495,72	53,310
495,92	53,894
496,12	51,910
496,32	50,439
496,52	51,914
496,72	54,905
496,92	52,906
497,12	51,509
497,32	52,881
497,52	52,861
497,72	53,462
497,92	53,066
498,12	49,548
498,32	51,299
498,52	51,815
498,72	53,076
498,92	51,252
499,12	54,017
499,32	51,400
499,52	51,000
499,72	54,707
499,92	56,158
500,12	54,738
500,32	55,634
500,52	53,816
500,72	60,298
500,91	56,474
501,11	54,477
501,31	50,719
501,51	56,605
501,71	56,949
501,91	57,833
502,11	55,585
502,31	51,353
502,51	54,152
502,71	55,628
502,91	51,664
503,11	54,001
503,31	55,884
503,51	51,653
503,71	52,059
503,91	57,812
504,11	52,518
504,31	54,157
504,51	56,230
504,71	57,569
504,91	56,144
505,10	54,980
505,30	58,871
505,50	54,733
505,70	55,694
505,90	54,685
506,10	52,157
506,30	55,922
506,50	57,078
506,70	57,139
506,90	55,283
507,10	54,225
507,30	51,942
507,50	55,679
507,70	58,301
507,89	56,237
508,09	53,823
508,29	53,049
508,49	59,995
508,69	55,339
508,89	53,482
509,09	56,992
509,29	53,839
509,49	58,031
509,69	58,026
509,89	55,881
510,09	52,520
510,28	57,529
510,48	55,956
510,68	54,707
510,88	57,483
511,08	56,162
511,28	56,014
511,48	56,693
511,68	54,652
511,88	52,314
512,07	54,843
512,27	55,853
512,47	54,362
512,67	53,661
512,87	53,547
513,07	54,094
513,27	53,301
513,47	52,909
513,67	52,991
513,86	57,329
514,06	55,000
514,26	51,362
514,46	59,909
514,66	54,737
514,86	56,063
515,06	55,809
515,26	57,020
515,45	52,838
515,65	54,408
515,85	54,582
516,05	55,613
516,25	55,918
516,45	58,003
516,65	55,009
516,84	55,952
517,04	57,592
517,24	53,414
517,44	55,715
517,64	58,184
517,84	59,599
518,04	54,481
518,23	57,313
518,43	58,626
518,63	53,119
518,83	54,115
519,03	52,858
519,23	57,703
519,42	56,806
519,62	54,083
519,82	51,820
520,02	56,036
520,22	55,689
520,42	53,122
520,61	57,802
520,81	57,630
521,01	57,901
521,21	55,312
521,41	54,831
521,61	58,648
521,80	54,066
522,00	53,291
522,20	58,631
522,40	58,067
522,60	54,848
522,79	52,708
522,99	60,075
523,19	55,997
523,39	55,343
523,59	55,756
523,78	57,614
523,98	53,167
524,18	56,607
524,38	53,796
524,58	53,884
524,77	58,006
524,97	54,809
525,17	56,507
525,37	54,555
525,57	59,291
525,76	54,093
525,96	56,868
526,16	53,189
526,36	52,824
526,56	53,482
526,75	51,854
526,95	59,631
527,15	56,073
527,35	55,606
527,55	55,352
527,74	55,034
527,94	55,862
528,14	54,372
528,34	55,061
528,53	55,394
528,73	56,196
528,93	56,437
529,13	54,925
529,32	54,750
529,52	54,882
529,72	52,767
529,92	50,790
530,12	55,042
530,31	49,475
530,51	55,617
530,71	55,579
530,91	57,094
531,10	48,125
531,30	54,126
531,50	52,362
531,70	55,808
531,89	57,821
532,09	53,619
532,29	50,760
532,49	53,079
532,68	54,638
532,88	53,751
533,08	51,415
533,28	55,125
533,47	54,930
533,67	55,765
533,87	52,636
534,06	59,723
534,26	52,794
534,46	54,196
534,66	54,933
534,85	52,415
535,05	49,773
535,25	52,796
535,45	50,033
535,64	56,586
535,84	51,613
536,04	52,108
536,23	54,506
536,43	53,891
536,63	52,219
536,83	53,023
537,02	49,742
537,22	50,184
537,42	50,859
537,61	50,805
537,81	51,217
538,01	50,938
538,20	52,298
538,40	48,298
538,60	50,888
538,80	48,849
538,99	48,991
539,19	46,766
539,39	47,234
539,58	47,826
539,78	44,527
539,98	44,757
540,17	43,767
540,37	42,748
540,57	40,983
540,76	41,733
540,96	37,950
541,16	42,804
541,36	38,550
541,55	38,267
541,75	38,204
541,95	39,687
542,14	37,899
542,34	35,348
542,54	36,147
542,73	37,455
542,93	38,087
543,13	36,068
543,32	35,250
543,52	37,642
543,72	35,488
543,91	36,514
544,11	36,462
544,31	35,763
544,50	36,465
544,70	38,789
544,89	38,411
545,09	38,360
545,29	37,329
545,48	38,784
545,68	37,769
545,88	38,668
546,07	40,335
546,27	40,103
546,47	42,575
546,66	43,493
546,86	44,002
547,06	43,694
547,25	45,688
547,45	46,407
547,64	45,311
547,84	49,851
548,04	45,617
548,23	49,856
548,43	46,964
548,63	50,085
548,82	49,930
549,02	47,673
549,21	45,410
549,41	46,591
549,61	49,241
549,80	49,025
550,00	48,454
550,20	47,530
550,39	49,579
550,59	46,198
550,78	49,647
550,98	47,651
551,18	50,713
551,37	51,893
551,57	48,544
551,76	47,708
551,96	51,422
552,16	51,804
552,35	50,265
552,55	51,500
552,74	51,986
552,94	52,598
553,14	50,541
553,33	49,889
553,53	51,082
553,72	52,122
553,92	54,213
554,12	51,934
554,31	51,644
554,51	53,182
554,70	49,366
554,90	53,341
555,09	56,349
555,29	55,194
555,49	51,465
555,68	54,723
555,88	53,807
556,07	51,777
556,27	54,911
556,46	53,190
556,66	53,446
556,86	57,471
557,05	54,271
557,25	52,413
557,44	52,835
557,64	52,781
557,83	54,397
558,03	49,737
558,22	52,480
558,42	53,163
558,62	56,035
558,81	53,690
559,01	50,755
559,20	54,971
559,40	53,832
559,59	51,956
559,79	52,335
559,98	55,736
560,18	55,522
560,37	54,682
560,57	54,234
560,76	53,065
560,96	51,518
561,16	55,164
561,35	52,229
561,55	58,219
561,74	52,134
561,94	55,357
562,13	54,421
562,33	54,454
562,52	52,266
562,72	52,557
562,91	53,252
563,11	53,291
563,30	57,813
563,50	52,173
563,69	53,186
563,89	50,743
564,08	53,442
564,28	52,632
564,47	54,467
564,67	56,677
564,86	53,150
565,06	53,350
565,25	52,784
565,45	53,848
565,64	55,832
565,84	50,943
566,03	50,401
566,23	57,390
566,42	54,751
566,62	51,688
566,81	52,783
567,01	53,068
567,20	55,039
567,40	50,904
567,59	52,634
567,79	56,272
567,98	57,181
568,18	54,461
568,37	52,268
568,57	53,387
568,76	57,488
568,96	53,895
569,15	54,672
569,35	56,333
569,54	56,891
569,73	55,627
569,93	54,707
570,12	52,503
570,32	55,598
570,51	54,763
570,71	55,092
570,90	55,780
571,10	53,829
571,29	55,030
571,49	53,511
571,68	55,973
571,87	55,671
572,07	54,120
572,26	53,816
572,46	54,669
572,65	57,120
572,85	52,824
573,04	53,944
573,24	55,015
573,43	56,672
573,62	55,569
573,82	54,851
574,01	54,482
574,21	53,008
574,40	50,889
574,60	52,169
574,79	56,853
574,98	52,548
575,18	53,831
575,37	53,110
575,57	56,057
575,76	55,506
575,96	55,349
576,15	55,174
576,34	54,068
576,54	52,809
576,73	53,932
576,93	52,837
577,12	52,873
577,31	55,343
577,51	53,323
577,70	51,633
577,90	52,219
578,09	52,831
578,28	51,320
578,48	52,969
578,67	54,145
578,87	53,808
579,06	53,485
579,25	55,175
579,45	54,349
579,64	51,451
579,84	51,454
580,03	53,085
580,22	52,918
580,42	51,509
580,61	53,969
580,81	53,117
581,00	53,422
581,19	54,779
581,39	51,120
581,58	51,254
581,77	52,894
581,97	54,773
582,16	52,026
582,35	52,149
582,55	52,345
582,74	52,523
582,94	53,891
583,13	52,724
583,32	54,329
583,52	53,180
583,71	51,885
583,90	52,091
584,10	50,860
584,29	51,842
584,48	49,902
584,68	52,194
584,87	52,972
585,06	52,645
585,26	51,875
585,45	50,506
585,65	54,053
585,84	51,609
586,03	52,479
586,23	50,720
586,42	52,495
586,61	52,518
586,81	52,107
587,00	52,160
587,19	50,413
587,39	51,702
587,58	50,808
587,77	52,444
587,97	50,972
588,16	51,162
588,35	52,222
588,54	51,725
588,74	51,709
588,93	52,251
589,12	51,110
589,32	50,261
589,51	52,422
589,70	50,309
589,90	48,846
590,09	50,291
590,28	53,656
590,48	51,320
590,67	51,590
590,86	51,756
591,06	50,894
591,25	54,543
591,44	51,996
591,63	51,912
591,83	52,352
592,02	52,601
592,21	52,812
592,41	52,674
592,60	52,340
592,79	52,096
592,98	51,840
593,18	51,569
593,37	53,469
593,56	53,530
593,76	53,168
593,95	51,341
594,14	53,416
594,33	55,822
594,53	52,710
594,72	52,376
594,91	54,871
595,10	53,551
595,30	52,690
595,49	51,478
595,68	53,493
595,88	52,996
596,07	53,142
596,26	51,871
596,45	53,846
596,65	52,793
596,84	51,501
597,03	51,993
597,22	54,226
597,42	55,519
597,61	52,416
597,80	51,439
597,99	53,632
598,19	55,511
598,38	55,143
598,57	52,963
598,76	54,820
598,95	54,189
599,15	53,501
599,34	54,519
599,53	54,200
599,72	55,226
599,92	54,747
600,11	53,481
600,30	52,204
600,49	53,292
600,69	54,287
600,88	53,908
601,07	54,448
601,26	53,496
601,45	53,244
601,65	53,091
601,84	53,513
602,03	54,423
602,22	55,325
602,42	52,630
602,61	53,645
602,80	54,264
602,99	54,196
603,18	50,149
603,38	53,331
603,57	52,148
603,76	52,771
603,95	53,037
604,14	53,384
604,34	54,631
604,53	53,952
604,72	55,179
604,91	54,425
605,10	53,695
605,29	54,688
605,49	52,274
605,68	53,587
605,87	54,680
606,06	53,511
606,25	52,643
606,45	52,897
606,64	53,637
606,83	52,122
607,02	53,202
607,21	53,188
607,40	52,770
607,60	49,754
607,79	50,687
607,98	48,994
608,17	49,783
608,36	50,148
608,55	48,698
608,75	49,571
608,94	48,583
609,13	44,509
609,32	42,603
609,51	43,746
609,70	43,505
609,89	44,515
610,09	42,658
610,28	44,637
610,47	41,683
610,66	41,929
610,85	39,795
611,04	44,485
611,23	42,153
611,43	42,061
611,62	42,239
611,81	42,462
612,00	42,379
612,19	41,949
612,38	42,752
612,57	44,816
612,77	44,064
612,96	45,730
613,15	44,792
613,34	48,127
613,53	46,752
613,72	48,354
613,91	47,808
614,10	46,753
614,29	49,214
614,49	47,986
614,68	47,269
614,87	49,333
615,06	52,025
615,25	48,198
615,44	52,566
615,63	48,316
615,82	50,921
616,01	49,706
616,21	49,694
616,40	49,288
616,59	53,457
616,78	49,854
616,97	50,350
617,16	51,680
617,35	53,372
617,54	50,949
617,73	52,156
617,92	52,346
618,11	53,472
618,31	49,847
618,50	50,845
618,69	52,298
618,88	50,091
619,07	49,406
619,26	49,963
619,45	49,222
619,64	51,336
619,83	49,481
620,02	48,453
620,21	51,833
620,40	51,825
620,59	50,356
620,78	49,523
620,97	51,088
621,17	50,920
621,36	49,742
621,55	50,208
621,74	50,362
621,93	49,518
622,12	49,220
622,31	51,848
622,50	51,923
622,69	52,458
622,88	50,429
623,07	51,951
623,26	52,099
623,45	53,003
623,64	50,140
623,83	50,401
624,02	51,177
624,21	52,412
624,40	51,860
624,59	50,267
624,78	51,872
624,97	52,613
625,16	49,434
625,35	49,991
625,54	48,819
625,73	50,822
625,92	53,747
626,12	52,042
626,31	52,240
626,50	53,167
626,69	53,733
626,88	50,242
627,07	49,869
627,26	50,414
627,45	51,235
627,64	50,387
627,83	52,219
628,02	49,431
628,21	50,568
628,40	52,179
628,59	52,552
628,78	50,040
628,97	49,073
629,16	48,522
629,35	49,302
629,54	52,802
629,73	50,131
629,92	49,182
630,10	50,294
630,29	50,126
630,48	49,662
630,67	48,624
630,86	50,148
631,05	50,368
631,24	51,473
631,43	49,172
631,62	50,685
631,81	48,347
632,00	49,955
632,19	47,729
632,38	49,833
632,57	51,907
632,76	49,954
632,95	51,423
633,14	52,400
633,33	50,995
633,52	51,507
633,71	53,336
633,90	50,020
634,09	50,766
634,28	50,538
634,47	49,397
634,66	50,649
634,85	50,599
635,04	53,140
635,22	52,919
635,41	52,050
635,60	51,493
635,79	52,187
635,98	50,515
636,17	52,033
636,36	50,801
636,55	50,806
636,74	49,775
636,93	51,382
637,12	52,241
637,31	50,613
637,50	49,613
637,69	52,964
637,87	51,252
638,06	51,239
638,25	50,999
638,44	52,162
638,63	50,388
638,82	50,726
639,01	50,663
639,20	51,467
639,39	53,605
639,58	50,064
639,77	51,659
639,95	51,671
640,14	50,325
640,33	50,766
640,52	50,715
640,71	52,831
640,90	51,073
641,09	52,983
641,28	51,030
641,47	53,102
641,66	50,619
641,84	50,995
642,03	50,630
642,22	52,366
642,41	52,677
642,60	50,635
642,79	52,504
642,98	51,053
643,17	49,154
643,35	49,558
643,54	50,683
643,73	50,972
643,92	52,524
644,11	51,565
644,30	48,400
644,49	52,731
644,67	51,851
644,86	49,752
645,05	52,666
645,24	51,100
645,43	51,028
645,62	52,326
645,81	51,115
645,99	51,969
646,18	52,291
646,37	50,157
646,56	52,657
646,75	54,052
646,94	52,150
647,13	51,240
647,31	50,005
647,50	50,544
647,69	52,396
647,88	52,904
648,07	51,784
648,26	52,865
648,44	50,730
648,63	50,839
648,82	51,539
649,01	52,893
649,20	49,812
649,38	50,206
649,57	50,397
649,76	49,635
649,95	50,424
650,14	50,915
650,33	48,476
650,51	50,677
650,70	52,937
650,89	50,967
651,08	51,176
651,27	52,176
651,45	50,438
651,64	50,613
651,83	50,801
652,02	50,297
652,21	50,840
652,39	51,078
652,58	49,105
652,77	50,651
652,96	52,564
653,15	51,007
653,33	52,251
653,52	52,607
653,71	54,220
653,90	53,871
654,09	53,784
654,27	54,178
654,46	54,464
654,65	54,005
654,84	52,915
655,02	54,391
655,21	53,264
655,40	54,658
655,59	53,348
655,77	54,672
655,96	53,152
656,15	53,711
656,34	55,746
656,53	54,369
656,71	53,960
656,90	55,777
657,09	55,760
657,28	56,162
657,46	53,761
657,65	53,260
657,84	52,228
658,03	52,746
658,21	53,757
658,40	51,144
658,59	51,729
658,78	51,675
658,96	51,841
659,15	50,867
659,34	51,135
659,52	51,759
659,71	52,766
659,90	50,324
660,09	51,903
660,27	52,305
660,46	52,453
660,65	52,505
660,84	50,690
661,02	51,238
661,21	51,347
661,40	52,274
661,58	52,167
661,77	52,945
661,96	48,762
662,15	51,467
662,33	51,355
662,52	49,580
662,71	51,682
662,89	48,842
663,08	51,043
663,27	51,560
663,45	50,130
663,64	52,060
663,83	49,246
664,02	51,401
664,20	53,656
664,39	50,543
664,58	51,634
664,76	50,287
664,95	51,149
665,14	50,069
665,32	50,873
665,51	51,764
665,70	52,518
665,88	51,658
666,07	52,404
666,26	54,220
666,44	53,947
666,63	49,342
666,82	51,602
667,00	52,844
667,19	49,587
667,38	50,937
667,56	52,180
667,75	50,420
667,94	52,210
668,12	49,186
668,31	51,093
668,50	51,888
668,68	52,420
668,87	50,979
669,06	51,460
669,24	53,186
669,43	51,556
669,62	50,671
669,80	50,132
669,99	51,599
670,18	52,525
670,36	49,448
670,55	51,836
670,74	53,858
670,92	48,940
671,11	50,910
671,29	50,045
671,48	51,245
671,67	50,602
671,85	53,972
672,04	50,612
672,23	51,795
672,41	50,523
672,60	51,949
672,78	51,304
672,97	52,060
673,16	50,980
673,34	51,086
673,53	50,723
673,71	52,450
673,90	53,221
674,09	52,252
674,27	48,782
674,46	50,382
674,64	51,413
674,83	51,597
675,02	50,460
675,20	50,912
675,39	50,601
675,57	52,366
675,76	50,226
675,95	54,151
676,13	52,213
676,32	52,819
676,50	50,541
676,69	50,160
676,88	52,008
677,06	50,471
677,25	51,749
677,43	53,452
677,62	53,373
677,80	52,256
677,99	52,352
678,18	51,556
678,36	53,684
678,55	49,578
678,73	50,598
678,92	53,150
679,10	52,463
679,29	52,908
679,48	51,028
679,66	51,245
679,85	52,227
680,03	52,162
680,22	50,243
680,40	49,899
680,59	50,825
680,77	52,389
680,96	50,827
681,15	49,391
681,33	52,526
681,52	51,263
681,70	52,039
681,89	53,773
682,07	53,256
682,26	50,785
682,44	51,032
682,63	52,222
682,81	51,885
683,00	51,670
683,18	48,683
683,37	54,122
683,55	50,895
683,74	52,325
683,92	56,273
684,11	51,433
684,29	52,031
684,48	50,606
684,67	51,609
684,85	52,808
685,04	50,626
685,22	52,435
685,41	51,330
685,59	51,537
685,78	52,378
685,96	49,874
686,15	50,826
686,33	52,339
686,52	50,777
686,70	52,411
686,89	53,234
687,07	52,345
687,26	53,525
687,44	52,625
687,62	51,402
687,81	51,694
687,99	51,999
688,18	51,957
688,36	53,127
688,55	52,022
688,73	51,306
688,92	51,030
689,10	51,764
689,29	52,629
689,47	53,650
689,66	52,409
689,84	51,103
690,03	51,480
690,21	51,440
690,40	52,734
690,58	50,272
690,76	50,155
690,95	51,596
691,13	51,759
691,32	51,718
691,50	53,596
691,69	52,642
691,87	50,837
692,06	50,439
692,24	51,447
692,43	53,035
692,61	49,133
692,79	51,577
692,98	50,129
693,16	53,285
693,35	50,018
693,53	52,938
693,72	51,570
693,90	53,040
694,08	51,465
694,27	50,571
694,45	53,651
694,64	54,212
694,82	50,943
695,01	50,251
695,19	51,153
695,37	52,198
695,56	51,832
695,74	52,498
695,93	52,951
696,11	50,574
696,29	53,517
696,48	52,688
696,66	51,280
696,85	52,416
697,03	52,223
697,21	52,799
697,40	52,584
697,58	53,638
697,77	51,293
697,95	52,298
698,13	52,663
698,32	52,561
698,50	51,594
698,69	50,917
698,87	53,197
699,05	52,104
699,24	50,308
699,42	51,516
699,60	50,694
699,79	51,936
699,97	52,308
700,16	49,184
700,34	53,683
700,52	52,078
700,71	52,084
700,89	50,412
701,07	51,433
701,26	51,647
701,44	50,546
701,63	52,652
701,81	51,209
701,99	52,219
702,18	50,979
702,36	49,627
702,54	50,318
702,73	50,913
702,91	50,157
703,09	51,936
703,28	50,067
703,46	51,426
703,64	50,612
703,83	52,450
704,01	50,809
704,19	51,412
704,38	49,519
704,56	52,560
704,74	51,365
704,93	51,068
705,11	51,816
705,29	49,998
705,48	53,030
705,66	52,635
705,84	50,134
706,03	49,794
706,21	52,007
706,39	51,795
706,58	49,244
706,76	50,819
706,94	53,096
707,12	52,208
707,31	51,173
707,49	49,411
707,67	51,466
707,86	52,554
708,04	51,330
708,22	48,794
708,41	50,824
708,59	52,629
708,77	48,921
708,95	51,473
709,14	53,308
709,32	52,015
709,50	50,854
709,69	50,320
709,87	51,455
710,05	51,469
710,23	50,939
710,42	49,225
710,60	50,958
710,78	49,790
710,97	50,789
711,15	51,641
711,33	55,221
711,51	50,172
711,70	49,095
711,88	50,384
712,06	51,390
712,24	49,768
712,43	52,057
712,61	51,627
712,79	52,278
712,97	51,728
713,16	52,060
713,34	50,219
713,52	52,209
713,70	51,275
713,89	50,950
714,07	51,029
714,25	50,899
714,43	54,768
714,62	50,705
714,80	50,846
714,98	48,440
715,16	51,192
715,35	50,374
715,53	50,523
715,71	54,211
715,89	53,976
716,07	51,334
716,26	55,036
716,44	52,496
716,62	51,347
716,80	53,181
716,99	50,821
717,17	53,062
717,35	52,156
717,53	52,493
717,71	50,051
717,90	52,017
718,08	50,297
718,26	49,583
718,44	52,232
718,62	54,843
718,81	52,380
718,99	49,531
719,17	49,998
719,35	51,101
719,53	50,687
719,72	50,675
719,90	48,424
720,08	50,631
720,26	52,014
720,44	50,660
720,62	50,258
720,81	52,876
720,99	55,164
721,17	50,342
721,35	52,787
721,53	52,227
721,72	53,930
721,90	52,308
722,08	50,851
722,26	55,189
722,44	53,305
722,62	50,761
722,81	49,769
722,99	52,188
723,17	51,852
723,35	50,960
723,53	51,278
723,71	53,990
723,89	53,837
724,08	47,654
724,26	50,885
724,44	52,198
724,62	51,419
724,80	52,255
724,98	51,537
725,16	51,614
725,35	51,433
725,53	50,558
725,71	50,825
725,89	54,212
726,07	53,795
726,25	54,415
726,43	51,549
726,61	52,022
726,80	53,721
726,98	50,936
727,16	51,726
727,34	54,834
727,52	51,046
727,70	49,974
727,88	50,472
728,06	49,771
728,25	49,020
728,43	53,134
728,61	50,686
728,79	53,007
728,97	52,160
729,15	51,669
729,33	51,621
729,51	54,077
729,69	53,973
729,87	51,821
730,06	52,741
730,24	51,658
730,42	54,155
730,60	49,335
730,78	51,810
730,96	50,893
731,14	51,539
731,32	52,872
731,50	50,719
731,68	51,909
731,86	52,943
732,04	53,951
732,22	51,478
732,41	55,260
732,59	53,505
732,77	53,261
732,95	53,362
733,13	53,939
733,31	51,458
733,49	52,002
733,67	54,185
733,85	52,557
734,03	54,077
734,21	50,047
734,39	52,109
734,57	53,965
734,75	53,392
734,93	52,181
735,11	51,749
735,29	50,459
735,47	55,078
735,65	51,180
735,84	51,640
736,02	51,959
736,20	55,043
736,38	50,940
736,56	53,589
736,74	51,815
736,92	51,376
737,10	50,441
737,28	53,281
737,46	53,104
737,64	50,707
737,82	52,489
738,00	53,929
738,18	51,572
738,36	53,518
738,54	51,966
738,72	50,861
738,90	50,837
739,08	51,973
739,26	50,817
739,44	50,656
739,62	52,582
739,80	53,297
739,98	50,549
740,16	52,868
740,34	50,106
740,52	55,111
740,70	51,769
740,88	50,785
741,06	51,457
741,24	51,979
741,42	51,802
741,60	49,489
741,78	52,324
741,96	52,037
742,14	50,530
742,32	50,006
742,50	52,547
742,68	52,683
742,86	53,324
743,04	48,114
743,21	51,676
743,39	53,605
743,57	51,108
743,75	50,125
743,93	51,229
744,11	50,514
744,29	50,548
744,47	50,066
744,65	50,896
744,83	49,534
745,01	50,458
745,19	52,648
745,37	53,457
745,55	53,599
745,73	51,505
745,91	49,572
746,09	50,298
746,27	49,923
746,45	48,372
746,62	50,809
746,80	48,850
746,98	49,422
747,16	49,146
747,34	50,031
747,52	50,331
747,70	51,897
747,88	50,287
748,06	51,951
748,24	51,970
748,42	53,007
748,60	51,181
748,78	49,397
748,95	53,639
749,13	54,340
749,31	53,516
749,49	50,924
749,67	51,115
749,85	54,404
750,03	49,734
750,21	51,355
750,39	53,810
750,57	53,896
750,74	50,802
750,92	49,282
751,10	53,577
751,28	51,897
751,46	52,229
751,64	51,740
751,82	53,004
752,00	51,405
752,17	51,321
752,35	49,215
752,53	51,564
752,71	50,509
752,89	53,373
753,07	51,780
753,25	51,885
753,43	50,121
753,60	52,831
753,78	51,247
753,96	52,843
754,14	52,873
754,32	52,486
754,50	52,502
754,68	53,409
754,85	53,846
755,03	54,735
755,21	52,972
755,39	54,429
755,57	52,768
755,75	52,108
755,92	51,688
756,10	51,668
756,28	53,114
756,46	51,353
756,64	51,116
756,82	52,406
756,99	53,095
757,17	51,788
757,35	51,231
757,53	55,202
757,71	53,059
757,89	51,102
758,06	52,752
758,24	54,116
758,42	53,455
758,60	52,042
758,78	52,073
758,95	53,047
759,13	51,806
759,31	50,402
759,49	51,321
759,67	52,732
759,84	51,645
760,02	53,376
760,20	51,969
760,38	50,735
760,56	52,140
760,73	52,212
760,91	53,518
761,09	53,453
761,27	51,386
761,45	52,198
761,62	50,587
761,80	55,089
761,98	52,835
762,16	52,567
762,33	51,456
762,51	56,431
762,69	52,105
762,87	50,171
763,05	51,908
763,22	52,908
763,40	52,580
763,58	51,449
763,76	51,580
763,93	52,021
764,11	52,569
764,29	47,701
764,47	51,742
764,64	54,538
764,82	53,158
765,00	49,896
765,18	49,709
765,35	49,930
765,53	52,637
765,71	54,118
765,89	51,319
766,06	51,624
766,24	52,248
766,42	51,244
766,60	50,825
766,77	52,313
766,95	53,095
767,13	52,166
767,30	53,639
767,48	52,194
767,66	52,192
767,84	50,646
768,01	51,348
768,19	52,660
768,37	53,609
768,54	51,270
768,72	52,624
768,90	52,928
769,08	52,717
769,25	52,708
769,43	50,104
769,61	51,440
769,78	52,285
769,96	51,682
770,14	52,050
770,31	53,276
770,49	52,293
770,67	52,546
770,85	50,052
771,02	55,167
771,20	51,820
771,38	53,389
771,55	50,498
771,73	51,682
771,91	53,348
772,08	54,494
772,26	50,239
772,44	51,358
772,61	54,819
772,79	51,771
772,97	53,019
773,14	52,466
773,32	52,259
773,50	52,269
773,67	51,490
773,85	54,726
774,03	53,250
774,20	53,424
774,38	53,181
774,56	50,253
774,73	53,768
774,91	53,144
775,09	51,833
775,26	54,513
775,44	53,731
775,61	52,958
775,79	51,961
775,97	52,118
776,14	51,012
776,32	50,255
776,50	52,840
776,67	52,347
776,85	54,508
777,03	50,038
777,20	52,593
777,38	52,034
777,55	51,406
777,73	48,299
777,91	51,242
778,08	53,188
778,26	52,539
778,43	53,208
778,61	49,987
778,79	48,948
778,96	50,445
779,14	53,919
779,32	51,167
779,49	53,892
779,67	54,416
779,84	50,262
780,02	54,964
780,20	49,025
780,37	52,201
780,55	48,514
780,72	56,494
780,90	51,876
781,07	52,439
781,25	52,610
781,43	53,001
781,60	49,847
781,78	52,313
781,95	52,590
782,13	52,786
782,30	55,788
782,48	52,713
782,66	50,934
782,83	53,085
783,01	56,952
783,18	54,485
783,36	52,914
783,53	55,028
783,71	51,252
783,89	52,304
784,06	57,148
784,24	53,296
784,41	54,518
784,59	54,185
784,76	53,129
784,94	51,327
785,11	53,274
785,29	53,007
785,46	51,920
785,64	52,827
785,82	51,190
785,99	53,579
786,17	51,411
786,34	50,398
786,52	55,940
786,69	55,957
786,87	51,167
787,04	55,605
787,22	50,854
787,39	52,181
787,57	52,782
787,74	53,502
787,92	55,740
788,09	54,138
788,27	49,383
788,44	53,076
788,62	55,848
788,79	54,581
788,97	55,230
789,14	52,147
789,32	50,386
789,49	52,006
789,67	52,938
789,84	49,279
790,02	54,991
790,19	53,911
790,37	52,786
790,54	53,498
790,72	58,001
790,89	56,915
791,07	54,076
791,24	49,826
791,42	54,343
791,59	52,096
791,77	51,626
791,94	52,438
792,12	51,992
792,29	56,808
792,47	52,855
792,64	57,485
792,81	55,872
792,99	53,689
793,16	54,698
793,34	55,970
793,51	55,214
793,69	54,080
793,86	51,012
794,04	55,336
794,21	54,319
794,39	48,742
794,56	52,617
794,73	52,471
794,91	53,981
795,08	54,508
795,26	53,523
795,43	52,625
795,61	54,832
795,78	55,104
795,95	53,678
796,13	52,094
796,30	52,769
796,48	53,989
796,65	52,992
796,83	57,334
797,00	58,112
797,17	51,276
797,35	54,487
797,52	53,434
797,70	58,056
797,87	55,327
798,04	50,519
798,22	53,620
798,39	55,266
798,57	53,853
798,74	55,933
798,91	55,036
799,09	48,822
799,26	54,825
799,44	51,928
799,61	51,391
799,78	52,393
799,96	52,891
800,13	53,068
800,31	54,845
800,48	57,641
800,65	55,029
800,83	51,957
801,00	51,757
801,17	54,180
801,35	52,718
801,52	54,725
801,70	53,996
801,87	52,933
802,04	57,706
802,22	52,167
802,39	53,248
802,56	58,784
802,74	51,569
802,91	52,344
803,08	55,129
803,26	54,896
803,43	55,492
803,61	54,039
803,78	54,808
803,95	52,027
804,13	57,793
804,30	51,086
804,47	55,957
804,65	55,132
804,82	56,372
804,99	55,380
805,17	54,260
805,34	59,271
805,51	56,801
805,69	55,063
805,86	52,291
806,03	59,993
806,21	59,463
806,38	55,637
806,55	53,281
806,72	60,433
806,90	54,862
807,07	56,506
807,24	52,983
807,42	53,098
807,59	55,839
807,76	49,406
807,94	52,229
808,11	59,309
808,28	56,409
808,45	51,706
808,63	52,220
808,80	56,310
808,97	53,962
809,15	50,970
809,32	58,608
809,49	49,519
809,67	51,071
809,84	54,853
810,01	54,860
810,18	60,353
810,36	52,226
810,53	55,908
810,70	54,336
810,87	54,115
811,05	55,038
811,22	52,468
811,39	52,703
811,57	57,402
811,74	55,255
811,91	50,767
812,08	55,121
812,26	56,045
812,43	51,899
812,60	54,513
812,77	55,422
812,95	55,908
813,12	58,275
813,29	51,579
813,46	54,539
813,64	58,789
813,81	54,357
813,98	51,005
814,15	56,171
814,32	59,580
814,50	58,832
814,67	56,642
814,84	54,543
815,01	56,763
815,19	54,302
815,36	48,973
815,53	53,719
815,70	54,323
815,87	55,344
816,05	47,978
816,22	55,605
816,39	58,185
816,56	59,983
816,74	53,264
816,91	47,859
817,08	61,825
817,25	53,121
817,42	53,199
817,60	53,266
817,77	55,605
817,94	52,447
818,11	55,078
818,28	58,813
818,45	56,084
818,63	53,390
818,80	60,365
818,97	57,347
819,14	57,686
819,31	58,617
819,49	55,930
819,66	53,973
819,83	55,280
820,00	56,559
820,17	53,263
820,34	56,984
820,52	59,476
820,69	59,736
820,86	54,490
821,03	58,188
821,20	61,978
821,37	59,316
821,55	50,967
821,72	49,795
821,89	56,753
822,06	63,226
822,23	50,199
822,40	53,684
822,57	56,829
822,75	61,839
822,92	50,135
823,09	54,686
823,26	56,948
823,43	61,905
823,60	52,733
823,77	55,365
823,94	62,343
824,12	65,134
824,29	53,550
824,46	54,954
824,63	62,268
824,80	60,225
824,97	55,334
825,14	58,057
825,31	57,218
825,49	52,549
825,66	55,078
825,83	47,405
826,00	56,927
826,17	65,203
826,34	53,530
826,51	51,120
826,68	56,092
826,85	56,371
827,02	49,994
827,20	49,750
827,37	57,810
827,54	58,978
827,71	58,291
827,88	60,281
828,05	59,946
828,22	53,418
828,39	55,083
828,56	62,566
828,73	59,387
828,90	60,144
829,07	53,209
829,25	56,677
829,42	56,729
829,59	55,803
829,76	58,617
829,93	55,176
830,10	57,731
830,27	57,778
830,44	58,151
830,61	49,803
830,78	67,503
830,95	60,857
831,12	55,013
831,29	56,268
831,46	59,580
831,63	56,749
831,80	57,378
831,97	53,882
832,14	61,668
832,31	75,338
832,48	55,741
832,65	62,720
832,83	56,984
833,00	62,138
833,17	56,349
833,34	61,471
833,51	56,372
833,68	69,836
833,85	55,441
834,02	54,686
834,19	54,258
834,36	64,027
834,53	46,686
834,70	58,127
834,87	69,882
835,04	57,079
835,21	56,167
835,38	51,413
835,55	51,687
835,72	72,092
835,89	55,879
836,06	61,843
836,23	63,871
836,40	54,241
836,57	52,055
836,74	61,524
836,91	62,132
837,08	61,921
837,25	59,146
837,42	49,758
837,59	51,840
837,76	55,432
837,93	57,390
838,09	52,106
838,26	61,518
838,43	67,191
838,60	59,008
838,77	53,196
838,94	61,588
839,11	55,156
839,28	56,268
839,45	52,296
839,62	60,545
839,79	56,491
839,96	63,538
840,13	62,810
840,30	51,320
840,47	45,492
840,64	57,475
840,81	53,801
840,98	52,180
841,15	56,555
841,32	42,663
841,48	66,647
841,65	50,781
841,82	59,972
841,99	61,061
842,16	50,599
842,33	59,725
842,50	64,532
842,67	52,957
842,84	54,197
843,01	58,232
843,18	58,553
843,35	54,517
843,52	46,193
843,68	61,392
843,85	60,681
844,02	47,084
844,19	48,605
844,36	66,029
844,53	71,470
844,70	56,406
844,87	68,686
845,04	67,446
845,21	49,531
845,37	74,127
845,54	45,798
845,71	58,561
845,88	75,361
846,05	54,280
846,22	48,486
846,39	65,494
846,56	63,297
846,72	45,886
846,89	65,364
847,06	73,552
847,23	72,081
847,40	54,330
847,57	47,813
847,74	66,333
847,90	65,210
848,07	57,712
848,24	61,652
848,41	50,372
848,58	83,182
848,75	67,297
848,92	60,444
849,08	52,129
849,25	60,842
849,42	45,242
849,59	56,688
849,76	51,282
849,93	59,881
850,09	71,567
850,26	42,575
850,43	68,582
850,60	62,491
850,77	41,583
850,94	60,813
851,10	66,343
851,27	57,861
851,44	47,829
851,61	56,220
851,78	61,233
851,95	55,223
852,11	55,965
852,28	50,138
852,45	54,915
852,62	66,970
852,79	68,036
852,95	53,126
853,12	66,295
853,29	50,508
853,46	55,640
853,63	69,362
853,79	53,791
853,96	51,668
854,13	75,469
854,30	59,905
854,46	76,675
854,63	62,820
854,80	52,597
854,97	51,547
855,14	74,470
855,30	64,407
855,47	60,252
855,64	71,372
855,81	61,273
855,97	78,483
856,14	65,515
856,31	47,924
856,48	70,407
856,65	84,441
856,81	52,234
856,98	65,364
857,15	57,688
857,32	60,363
857,48	36,209
857,65	54,339
857,82	74,139
857,99	64,646
858,15	54,794
858,32	56,369
858,49	63,054
858,65	94,103
858,82	69,882
858,99	47,776
859,16	74,921
859,32	77,478
859,49	54,833
859,66	54,270
859,83	68,737
859,99	55,899
860,16	55,291
860,33	53,584
860,49	79,693
860,66	75,520
860,83	66,792
861,00	58,107
861,16	74,729
861,33	75,550
861,50	49,020
861,66	58,561
861,83	93,845
862,00	62,608
862,16	67,961
862,33	65,745
862,50	101,772
862,67	72,324
862,83	70,538
863,00	76,814
863,17	77,618
863,33	60,394
863,50	43,237
863,67	66,572
863,83	67,864
864,00	88,552
864,17	50,379
864,33	49,395
864,50	85,970
864,67	56,165
864,83	63,020
865,00	53,165
865,17	52,052
865,33	92,857
865,50	50,937
865,67	47,022
865,83	75,804
866,00	90,976
866,17	63,314
866,33	65,977
866,50	109,701
866,66	72,782
866,83	51,261
867,00	70,141
867,16	74,227
867,33	86,393
867,50	42,778
867,66	35,790
867,83	95,871
868,00	72,751
868,16	57,014
868,33	54,732
868,49	70,336
868,66	74,456
868,83	73,359
868,99	66,374
869,16	107,614
869,32	78,552
869,49	65,142
869,66	25,495
869,82	81,607
869,99	87,773
870,15	35,664
870,32	88,835
870,49	90,999
870,65	126,413
870,82	61,928
870,98	79,133
871,15	96,511
871,32	51,381
871,48	53,756
871,65	35,580
871,81	61,832
871,98	40,493
872,15	42,745
872,31	39,994
872,48	121,852
872,64	69,134
872,81	29,220
872,97	80,805
873,14	75,654
873,31	76,097
873,47	28,066
873,64	55,427
873,80	114,555
873,97	102,817
874,13	63,779
874,30	44,884
874,46	96,778
874,63	85,027
874,80	71,382
874,96	46,410
875,13	98,353
875,29	51,337
875,46	144,285
875,62	51,470
875,79	107,623
875,95	75,914
876,12	53,328
876,28	30,927
876,45	115,610
876,61	84,490
876,78	61,992
876,94	30,813
877,11	81,938
877,27	94,517
877,44	111,176
877,60	50,423
877,77	122,992
877,94	118,307
878,10	91,350
878,27	96,261
878,43	122,120
878,60	41,501
878,76	78,987
878,93	56,165
879,09	109,507
879,26	106,459
879,42	116,052
879,58	74,669
879,75	115,000
879,91	136,863
880,08	0,172
880,24	77,368
880,41	127,742
880,57	88,614
880,74	71,909
880,90	70,798
881,07	68,835
881,23	125,528
881,40	77,189
881,56	85,867
881,73	97,352
881,89	87,214
882,06	72,158
882,22	170,813
882,38	111,462
882,55	149,995
882,71	52,120
882,88	50,882
883,04	183,360
883,21	196,044
883,37	77,181
883,54	36,448
883,70	181,977
883,86	85,157
884,03	74,162
884,19	45,568
884,36	42,712
884,52	218,039
884,69	98,955
884,85	71,693
885,01	187,667
885,18	129,202
885,34	68,105
885,51	16,592
885,67	104,869
>>>>> Data<<<<< Espectral Procesado Extremo
