Fichero De Datos De SpectraSuite
++++++++++++++++++++++++++++++++++++
Fecha: Wed Apr 22 11:39:35 CEST 2009
Usuario: evoflor
Presente Oscuro Del Espectro: Sí
La Referencia de Presente Del Espectro De: Sí
Muestreados de los componentes de Número de espectros: 1
Espectrómetros: USB4F02353
Tiempo de integración (usec): 500000 (USB4F02353)
Promedio de Espectros Hechos un: 5 (USB4F02353)
El Alisar Del Furgón: 0 (USB4F02353)
Párrafo de de Corregir del la del del de Eléctrica del obscuridad: Sí (USB4F02353)
Estrobo/Lámpara Permitido: No (USB4F02353)
Correct for Detector Non-linearity: No (USB4F02353)
Párrafo de de Corregir del la del del de Externa del luz: No (USB4F02353)
Procesado del espectro de Número de pixeles en: 3648
>>>>> Comienza Data<<<<< Espectral Procesado Del EL
177,79	231,610
178,00	231,610
178,22	231,610
178,44	1168,791
178,66	-294,058
178,88	534,072
179,09	-378,468
179,31	293,983
179,53	593,003
179,75	189,277
179,96	223,621
180,18	-356,738
180,40	280,382
180,62	500,902
180,83	-227,521
181,05	-480,976
181,27	-77240,000
181,49	12,087
181,70	141,308
181,92	912,893
182,14	498,313
182,36	-13,461
182,58	-520,400
182,79	963,571
183,01	-31,618
183,23	47,834
183,45	-240,431
183,66	-35,133
183,88	697,882
184,10	-3678,909
184,32	244,653
184,53	253,382
184,75	-233,166
184,97	128,028
185,18	-63,985
185,40	-704,519
185,62	155,041
185,84	-173,275
186,05	65,564
186,27	-188,459
186,49	651,538
186,71	-46,041
186,92	40,073
187,14	-181,326
187,36	177,793
187,58	68,171
187,79	-125,593
188,01	362,813
188,23	-175,966
188,45	123,248
188,66	352,857
188,88	-618,909
189,10	-1654,400
189,31	0,273
189,53	-41,350
189,75	140,773
189,97	342,077
190,18	157,682
190,40	697,882
190,62	-65,340
190,83	-246,576
191,05	235,835
191,27	308,114
191,49	349,356
191,70	-284,808
191,92	-212,203
192,14	-63,002
192,35	524,775
192,57	3878,286
192,79	161,542
193,01	192,262
193,22	145,118
193,44	-70,375
193,66	72,963
193,87	-8,051
194,09	-39,978
194,31	206,438
194,53	477,203
194,74	130,387
194,96	59,642
195,18	175,986
195,39	-253,668
195,61	-136,917
195,83	-124,870
196,04	71,798
196,26	-175,578
196,48	46,209
196,70	192,922
196,91	-8,792
197,13	136,304
197,35	-80,708
197,56	253,065
197,78	2349,552
198,00	609,371
198,21	632,718
198,43	-689,767
198,65	124,313
198,86	313,453
199,08	126,361
199,30	129,028
199,51	-154,853
199,73	237,290
199,95	478,564
200,16	657,077
200,38	223,068
200,60	99,914
200,81	122,998
201,03	46,033
201,25	-1825,400
201,46	123,649
201,68	44,807
201,90	2819,091
202,11	-205,496
202,33	191,993
202,55	-755,750
202,76	0,183
202,98	62,160
203,20	156,538
203,41	-453,895
203,63	49,395
203,85	-68240,000
204,06	141,624
204,28	-166,602
204,50	156,137
204,71	201,661
204,93	-519,680
205,15	34,759
205,36	-178,662
205,58	300,269
205,80	-68,945
206,01	82,377
206,23	184,021
206,45	207,804
206,66	182,241
206,88	-122,252
207,10	328,955
207,31	393,166
207,53	-26,171
207,75	74,091
207,96	925,672
208,18	-223,959
208,39	0,849
208,61	3801,143
208,83	-236,117
209,04	151,906
209,26	-297,880
209,48	200,080
209,69	98,452
209,91	704,865
210,13	-9,459
210,34	41,017
210,56	165,389
210,77	-1472,756
210,99	9,672
211,21	7614,118
211,42	-111,445
211,64	-45,102
211,86	204,484
212,07	298,902
212,29	211,618
212,50	125,525
212,72	72,077
212,94	193,730
213,15	178,970
213,37	101,536
213,58	-199,202
213,80	648,571
214,02	8514,118
214,23	254,270
214,45	324,066
214,67	133,659
214,88	205,906
215,10	-183,521
215,31	99,869
215,53	-51,500
215,75	143,722
215,96	1144,969
216,18	276,620
216,39	305,202
216,61	333,712
216,83	316,696
217,04	948,764
217,26	44,742
217,47	137,392
217,69	384,249
217,91	-22,784
218,12	-85340,000
218,34	208,303
218,55	448,382
218,77	35,385
218,99	171,182
219,20	-71,979
219,42	367,439
219,63	-51,471
219,85	-78,419
220,06	-197,923
220,28	157,625
220,50	32,794
220,71	67,515
220,93	3580,000
221,14	-1753,400
221,36	-37,553
221,58	49,382
221,79	180,484
222,01	821,034
222,22	212,105
222,44	-790,562
222,65	139,784
222,87	168,811
223,09	156,519
223,30	91,347
223,52	202,673
223,73	140,217
223,95	-5,296
224,16	207,505
224,38	272,607
224,60	92,255
224,81	185,476
225,03	28,568
225,24	155,256
225,46	83,455
225,67	68,460
225,89	45,733
226,10	238,072
226,32	70,720
226,54	26,361
226,75	-20,826
226,97	107,606
227,18	111,607
227,40	71,656
227,61	34,177
227,83	8,573
228,04	56,631
228,26	54,847
228,47	96,131
228,69	186,989
228,91	130,328
229,12	32,812
229,34	15,500
229,55	48,402
229,77	30,479
229,98	-0,572
230,20	53,380
230,41	4,064
230,63	91,012
230,84	-6,194
231,06	8,366
231,27	45,174
231,49	14,981
231,71	28,370
231,92	38,466
232,14	35,787
232,35	75,851
232,57	40,438
232,78	8,009
233,00	14,743
233,21	71,240
233,43	4,380
233,64	29,141
233,86	36,280
234,07	31,398
234,29	20,732
234,50	26,367
234,72	44,766
234,93	-5,993
235,15	22,255
235,36	16,530
235,58	34,415
235,79	34,292
236,01	-0,207
236,22	3,966
236,44	46,080
236,65	18,991
236,87	34,205
237,08	7,119
237,30	-18,265
237,51	24,141
237,73	-6,993
237,94	4,516
238,16	17,701
238,37	11,858
238,59	23,098
238,80	-7,422
239,02	12,846
239,23	14,214
239,45	1,199
239,66	23,417
239,88	33,281
240,09	25,293
240,31	3,397
240,52	8,509
240,74	15,334
240,95	12,431
241,17	5,767
241,38	-0,499
241,60	11,464
241,81	25,819
242,03	12,774
242,24	10,132
242,46	18,204
242,67	1,321
242,89	12,239
243,10	17,550
243,32	15,055
243,53	17,076
243,75	3,881
243,96	8,457
244,18	10,468
244,39	10,333
244,60	9,512
244,82	6,887
245,03	15,855
245,25	12,317
245,46	20,592
245,68	8,652
245,89	11,844
246,11	18,727
246,32	8,803
246,54	3,745
246,75	4,695
246,97	8,177
247,18	21,406
247,39	3,906
247,61	8,806
247,82	5,395
248,04	4,448
248,25	8,784
248,47	19,346
248,68	9,117
248,90	3,495
249,11	10,656
249,33	15,030
249,54	9,589
249,75	13,349
249,97	0,203
250,18	17,996
250,40	10,633
250,61	-6,293
250,83	5,743
251,04	0,393
251,25	14,059
251,47	1,802
251,68	9,960
251,90	9,358
252,11	6,315
252,33	6,784
252,54	9,117
252,76	4,462
252,97	7,135
253,18	0,380
253,40	2,870
253,61	7,260
253,83	9,691
254,04	11,917
254,25	5,148
254,47	3,136
254,68	8,598
254,90	7,005
255,11	9,993
255,33	4,969
255,54	6,421
255,75	6,883
255,97	3,624
256,18	3,515
256,40	7,723
256,61	8,791
256,82	1,963
257,04	12,891
257,25	5,487
257,47	9,376
257,68	3,819
257,89	10,935
258,11	8,282
258,32	7,393
258,54	4,727
258,75	12,588
258,96	14,026
259,18	4,946
259,39	2,527
259,61	8,177
259,82	7,291
260,03	9,030
260,25	8,856
260,46	3,879
260,68	7,249
260,89	1,873
261,10	7,443
261,32	7,977
261,53	2,530
261,75	8,903
261,96	-0,340
262,17	11,761
262,39	9,837
262,60	3,126
262,81	2,609
263,03	12,698
263,24	7,339
263,46	6,758
263,67	4,316
263,88	6,613
264,10	9,436
264,31	3,892
264,52	6,201
264,74	11,067
264,95	6,670
265,17	11,530
265,38	5,321
265,59	9,695
265,81	8,146
266,02	4,892
266,23	3,676
266,45	9,512
266,66	12,958
266,87	10,563
267,09	2,817
267,30	7,861
267,52	11,069
267,73	7,026
267,94	6,351
268,16	8,725
268,37	3,840
268,58	3,704
268,80	7,099
269,01	6,918
269,22	8,004
269,44	4,466
269,65	8,882
269,86	2,617
270,08	5,675
270,29	3,059
270,50	4,237
270,72	8,225
270,93	4,833
271,14	2,295
271,36	3,992
271,57	7,535
271,78	2,747
272,00	5,065
272,21	9,045
272,42	6,857
272,64	5,853
272,85	2,340
273,06	5,513
273,28	8,562
273,49	7,170
273,70	10,986
273,92	7,270
274,13	12,320
274,34	7,635
274,56	5,578
274,77	1,631
274,98	9,692
275,20	7,801
275,41	11,102
275,62	5,347
275,84	7,713
276,05	12,004
276,26	1,651
276,47	2,009
276,69	9,681
276,90	6,587
277,11	4,759
277,33	4,191
277,54	7,269
277,75	7,758
277,97	1,709
278,18	5,725
278,39	7,689
278,61	2,717
278,82	6,574
279,03	5,463
279,24	7,263
279,46	5,845
279,67	10,329
279,88	4,940
280,10	8,980
280,31	1,387
280,52	5,241
280,73	1,675
280,95	7,635
281,16	11,558
281,37	7,210
281,59	9,820
281,80	11,082
282,01	4,013
282,22	5,104
282,44	4,393
282,65	8,732
282,86	6,805
283,08	7,631
283,29	6,134
283,50	5,019
283,71	5,465
283,93	6,701
284,14	6,289
284,35	4,659
284,56	6,527
284,78	4,093
284,99	5,275
285,20	9,590
285,42	4,735
285,63	9,189
285,84	3,410
286,05	5,623
286,27	5,775
286,48	4,724
286,69	4,263
286,90	5,428
287,12	4,783
287,33	4,240
287,54	6,617
287,75	4,983
287,97	5,243
288,18	3,837
288,39	3,989
288,60	5,520
288,82	5,493
289,03	3,992
289,24	5,954
289,45	8,233
289,67	7,121
289,88	2,920
290,09	5,692
290,30	6,956
290,52	5,115
290,73	5,756
290,94	1,699
291,15	6,567
291,37	5,916
291,58	4,612
291,79	5,920
292,00	5,991
292,21	7,172
292,43	5,345
292,64	4,036
292,85	3,638
293,06	8,194
293,28	4,149
293,49	5,036
293,70	7,960
293,91	3,588
294,12	5,807
294,34	3,836
294,55	5,861
294,76	7,340
294,97	7,731
295,19	1,954
295,40	5,913
295,61	5,490
295,82	0,846
296,03	6,220
296,25	5,381
296,46	4,162
296,67	1,810
296,88	0,755
297,09	7,244
297,31	5,609
297,52	4,919
297,73	3,039
297,94	5,958
298,15	5,314
298,37	5,312
298,58	5,103
298,79	7,741
299,00	3,928
299,21	2,341
299,43	2,792
299,64	9,935
299,85	4,404
300,06	2,543
300,27	4,132
300,49	10,120
300,70	4,681
300,91	4,309
301,12	2,904
301,33	7,932
301,54	4,066
301,76	6,806
301,97	6,190
302,18	4,623
302,39	5,730
302,60	14,070
302,82	5,202
303,03	7,560
303,24	3,546
303,45	4,082
303,66	4,835
303,87	4,916
304,09	8,295
304,30	2,888
304,51	5,206
304,72	3,964
304,93	6,909
305,14	6,168
305,36	2,948
305,57	5,092
305,78	3,683
305,99	2,863
306,20	7,313
306,41	3,584
306,62	4,324
306,84	4,773
307,05	2,321
307,26	4,660
307,47	8,515
307,68	5,098
307,89	3,024
308,11	4,905
308,32	3,200
308,53	3,587
308,74	2,778
308,95	4,990
309,16	7,860
309,37	4,990
309,59	3,592
309,80	1,975
310,01	5,833
310,22	6,327
310,43	3,365
310,64	6,728
310,85	6,492
311,06	3,458
311,28	3,210
311,49	5,733
311,70	9,038
311,91	4,901
312,12	4,142
312,33	5,780
312,54	6,033
312,75	5,040
312,97	3,953
313,18	5,781
313,39	4,134
313,60	2,946
313,81	5,546
314,02	6,812
314,23	7,480
314,44	1,128
314,65	5,144
314,87	1,851
315,08	4,676
315,29	5,933
315,50	6,325
315,71	7,576
315,92	8,368
316,13	2,309
316,34	5,718
316,55	7,596
316,77	3,805
316,98	3,549
317,19	6,182
317,40	6,702
317,61	6,920
317,82	5,579
318,03	4,382
318,24	4,855
318,45	7,597
318,66	4,662
318,87	0,606
319,09	7,554
319,30	5,503
319,51	5,771
319,72	5,716
319,93	4,684
320,14	6,801
320,35	7,301
320,56	2,876
320,77	3,158
320,98	9,281
321,19	4,756
321,40	3,618
321,62	5,102
321,83	3,566
322,04	5,983
322,25	4,720
322,46	6,885
322,67	7,855
322,88	6,664
323,09	3,036
323,30	8,366
323,51	7,925
323,72	6,777
323,93	1,245
324,14	4,676
324,35	2,499
324,56	1,158
324,77	4,131
324,99	3,474
325,20	1,716
325,41	5,834
325,62	7,351
325,83	3,388
326,04	3,230
326,25	6,481
326,46	-0,427
326,67	6,419
326,88	6,407
327,09	4,595
327,30	2,269
327,51	5,610
327,72	6,249
327,93	5,935
328,14	0,793
328,35	2,742
328,56	7,249
328,77	2,675
328,98	5,064
329,19	4,791
329,40	3,971
329,61	5,516
329,82	2,680
330,04	5,188
330,25	4,174
330,46	4,921
330,67	1,444
330,88	4,300
331,09	4,390
331,30	4,186
331,51	3,145
331,72	5,726
331,93	7,885
332,14	6,398
332,35	8,592
332,56	5,399
332,77	5,859
332,98	3,226
333,19	2,913
333,40	6,024
333,61	2,889
333,82	6,437
334,03	4,879
334,24	5,912
334,45	2,221
334,66	5,741
334,87	7,260
335,08	2,910
335,29	2,354
335,50	2,137
335,71	1,726
335,92	6,477
336,13	6,908
336,34	2,009
336,55	4,927
336,76	7,212
336,97	3,719
337,18	2,315
337,39	5,090
337,60	7,178
337,81	4,295
338,02	3,774
338,23	5,437
338,44	4,775
338,65	4,631
338,86	5,570
339,07	2,417
339,28	5,862
339,49	3,406
339,70	-0,201
339,91	5,350
340,11	7,382
340,32	1,949
340,53	1,549
340,74	2,322
340,95	3,465
341,16	7,354
341,37	5,564
341,58	3,732
341,79	3,456
342,00	4,311
342,21	3,877
342,42	4,621
342,63	6,399
342,84	3,250
343,05	4,795
343,26	6,239
343,47	6,460
343,68	4,056
343,89	5,067
344,10	6,029
344,31	5,905
344,52	5,511
344,73	2,684
344,94	7,596
345,14	5,565
345,35	5,973
345,56	3,945
345,77	3,362
345,98	7,320
346,19	4,011
346,40	7,099
346,61	3,673
346,82	5,318
347,03	5,682
347,24	7,735
347,45	2,375
347,66	8,581
347,87	2,552
348,08	6,166
348,28	0,451
348,49	4,010
348,70	7,126
348,91	7,577
349,12	2,476
349,33	16,730
349,54	3,401
349,75	6,608
349,96	5,976
350,17	9,172
350,38	4,584
350,59	5,007
350,80	5,422
351,00	7,714
351,21	7,960
351,42	3,717
351,63	3,488
351,84	4,778
352,05	7,707
352,26	4,338
352,47	3,674
352,68	7,543
352,89	7,938
353,09	3,867
353,30	-0,908
353,51	3,770
353,72	5,972
353,93	7,476
354,14	2,460
354,35	5,223
354,56	7,173
354,77	5,640
354,98	2,836
355,18	7,224
355,39	10,508
355,60	2,593
355,81	3,515
356,02	5,290
356,23	6,600
356,44	2,274
356,65	4,869
356,85	10,843
357,06	7,678
357,27	6,473
357,48	4,762
357,69	7,245
357,90	5,486
358,11	-2,066
358,32	2,590
358,52	6,041
358,73	5,342
358,94	3,974
359,15	7,727
359,36	6,943
359,57	6,912
359,78	5,503
359,98	1,886
360,19	3,850
360,40	2,551
360,61	9,107
360,82	4,523
361,03	7,296
361,24	8,454
361,44	3,594
361,65	4,415
361,86	5,337
362,07	4,298
362,28	5,383
362,49	3,250
362,70	5,860
362,90	5,729
363,11	2,071
363,32	3,539
363,53	6,417
363,74	10,960
363,95	8,757
364,15	6,448
364,36	9,142
364,57	7,517
364,78	6,325
364,99	5,181
365,20	6,899
365,40	7,407
365,61	3,928
365,82	8,956
366,03	3,752
366,24	6,588
366,45	3,157
366,65	6,436
366,86	5,082
367,07	3,366
367,28	2,075
367,49	4,300
367,69	9,030
367,90	3,356
368,11	7,042
368,32	3,770
368,53	7,924
368,73	8,644
368,94	-0,425
369,15	3,806
369,36	5,773
369,57	3,951
369,78	3,023
369,98	5,872
370,19	10,191
370,40	4,868
370,61	5,557
370,82	2,973
371,02	7,266
371,23	11,174
371,44	4,224
371,65	6,832
371,85	5,719
372,06	5,557
372,27	6,429
372,48	5,322
372,69	3,592
372,89	2,014
373,10	3,574
373,31	7,762
373,52	7,151
373,73	9,998
373,93	5,676
374,14	5,100
374,35	6,436
374,56	8,331
374,76	5,369
374,97	5,409
375,18	6,311
375,39	8,751
375,60	9,475
375,80	6,245
376,01	6,095
376,22	5,628
376,43	6,042
376,63	5,135
376,84	4,934
377,05	4,390
377,26	4,727
377,46	4,845
377,67	6,024
377,88	8,488
378,09	6,805
378,29	2,889
378,50	8,358
378,71	7,153
378,92	3,223
379,12	7,117
379,33	4,261
379,54	7,716
379,75	10,409
379,95	3,225
380,16	7,496
380,37	10,301
380,58	5,989
380,78	9,307
380,99	4,564
381,20	8,822
381,41	4,541
381,61	9,167
381,82	7,055
382,03	9,965
382,24	7,460
382,44	10,701
382,65	7,621
382,86	7,154
383,06	7,353
383,27	9,020
383,48	7,475
383,69	12,880
383,89	8,706
384,10	6,449
384,31	10,883
384,51	10,172
384,72	10,196
384,93	7,525
385,14	8,666
385,34	8,849
385,55	7,850
385,76	9,043
385,96	11,472
386,17	10,754
386,38	11,559
386,59	13,052
386,79	5,308
387,00	12,564
387,21	13,579
387,41	9,006
387,62	7,137
387,83	13,585
388,03	9,766
388,24	8,189
388,45	11,490
388,66	12,032
388,86	11,337
389,07	7,812
389,28	16,168
389,48	15,703
389,69	9,308
389,90	8,352
390,10	14,094
390,31	15,026
390,52	7,163
390,72	9,489
390,93	14,844
391,14	12,779
391,34	12,006
391,55	14,684
391,76	16,906
391,96	12,936
392,17	14,445
392,38	13,845
392,58	18,616
392,79	14,483
393,00	13,713
393,20	13,307
393,41	14,041
393,62	15,815
393,82	18,017
394,03	19,187
394,24	17,125
394,44	21,771
394,65	16,464
394,86	16,688
395,06	18,701
395,27	19,894
395,48	16,487
395,68	20,175
395,89	19,638
396,10	20,047
396,30	14,023
396,51	18,152
396,72	20,815
396,92	18,618
397,13	19,930
397,34	15,551
397,54	26,366
397,75	19,371
397,95	17,954
398,16	23,161
398,37	20,741
398,57	20,820
398,78	24,376
398,99	25,146
399,19	24,938
399,40	26,465
399,60	20,135
399,81	23,185
400,02	26,376
400,22	25,055
400,43	22,903
400,64	25,861
400,84	25,896
401,05	27,064
401,25	27,706
401,46	26,648
401,67	26,307
401,87	28,936
402,08	28,018
402,29	28,537
402,49	29,266
402,70	31,423
402,90	24,601
403,11	28,413
403,32	31,759
403,52	29,369
403,73	32,362
403,93	30,385
404,14	32,186
404,35	31,293
404,55	28,067
404,76	29,810
404,96	33,711
405,17	33,613
405,38	35,321
405,58	28,626
405,79	34,779
405,99	35,217
406,20	34,241
406,40	29,936
406,61	36,959
406,82	38,121
407,02	36,574
407,23	34,697
407,43	36,269
407,64	34,365
407,85	37,042
408,05	33,434
408,26	45,823
408,46	45,145
408,67	33,419
408,87	37,914
409,08	39,833
409,29	43,532
409,49	39,625
409,70	40,266
409,90	39,215
410,11	39,526
410,31	42,518
410,52	40,142
410,72	40,344
410,93	42,202
411,14	42,124
411,34	39,328
411,55	43,752
411,75	42,057
411,96	40,466
412,16	44,177
412,37	41,089
412,57	44,624
412,78	44,522
412,99	43,916
413,19	48,863
413,40	45,823
413,60	39,928
413,81	43,680
414,01	44,115
414,22	44,432
414,42	47,011
414,63	44,993
414,83	47,011
415,04	49,073
415,24	48,424
415,45	45,798
415,65	45,373
415,86	55,204
416,07	47,957
416,27	45,536
416,48	49,249
416,68	51,499
416,89	44,497
417,09	48,271
417,30	49,540
417,50	47,997
417,71	52,185
417,91	50,105
418,12	48,471
418,32	50,122
418,53	46,545
418,73	49,393
418,94	49,104
419,14	50,333
419,35	47,747
419,55	48,494
419,76	55,189
419,96	49,705
420,17	47,994
420,37	48,347
420,58	52,649
420,78	50,268
420,99	47,626
421,19	53,782
421,40	49,548
421,60	54,780
421,81	50,550
422,01	50,740
422,22	55,766
422,42	57,417
422,63	55,527
422,83	52,088
423,04	55,513
423,24	60,421
423,45	49,126
423,65	54,049
423,86	60,139
424,06	57,124
424,27	54,955
424,47	54,656
424,67	50,994
424,88	58,350
425,08	54,073
425,29	61,048
425,49	53,859
425,70	49,629
425,90	55,030
426,11	50,990
426,31	55,671
426,52	57,813
426,72	49,330
426,93	55,632
427,13	57,243
427,33	53,208
427,54	57,604
427,74	57,124
427,95	64,240
428,15	54,401
428,36	53,172
428,56	53,082
428,77	56,557
428,97	59,949
429,18	60,160
429,38	54,242
429,58	61,121
429,79	55,404
429,99	55,336
430,20	52,413
430,40	62,183
430,61	55,156
430,81	56,075
431,01	60,636
431,22	60,361
431,42	56,478
431,63	53,743
431,83	57,477
432,04	59,183
432,24	59,757
432,44	53,937
432,65	53,829
432,85	53,470
433,06	59,673
433,26	51,945
433,47	55,072
433,67	54,954
433,87	52,347
434,08	55,970
434,28	54,407
434,49	55,061
434,69	57,316
434,89	48,594
435,10	53,122
435,30	56,842
435,51	54,156
435,71	52,971
435,91	51,888
436,12	55,883
436,32	54,696
436,53	55,952
436,73	55,532
436,93	59,316
437,14	56,743
437,34	57,195
437,55	55,742
437,75	55,819
437,95	60,410
438,16	61,713
438,36	60,465
438,57	58,742
438,77	59,214
438,97	60,490
439,18	59,561
439,38	61,278
439,58	56,891
439,79	59,075
439,99	54,964
440,20	65,467
440,40	59,472
440,60	55,323
440,81	62,730
441,01	59,837
441,21	63,999
441,42	62,401
441,62	69,944
441,83	56,284
442,03	63,267
442,23	61,604
442,44	55,796
442,64	64,791
442,84	59,683
443,05	60,017
443,25	57,315
443,45	62,699
443,66	58,501
443,86	63,089
444,06	61,532
444,27	59,074
444,47	61,426
444,67	63,210
444,88	62,306
445,08	60,112
445,28	59,112
445,49	61,304
445,69	56,157
445,90	63,092
446,10	64,102
446,30	55,323
446,51	62,856
446,71	67,080
446,91	65,486
447,12	66,319
447,32	59,188
447,52	61,942
447,72	64,377
447,93	60,003
448,13	58,540
448,33	64,501
448,54	59,980
448,74	54,726
448,94	63,082
449,15	63,784
449,35	61,868
449,55	65,455
449,76	66,067
449,96	60,800
450,16	62,969
450,37	58,015
450,57	61,582
450,77	60,226
450,98	63,024
451,18	66,951
451,38	61,177
451,58	63,362
451,79	65,139
451,99	59,708
452,19	63,917
452,40	64,950
452,60	61,904
452,80	61,477
453,00	67,320
453,21	58,433
453,41	66,594
453,61	62,749
453,82	68,192
454,02	59,389
454,22	65,745
454,42	63,558
454,63	61,880
454,83	64,460
455,03	68,052
455,24	62,950
455,44	62,745
455,64	62,457
455,84	58,904
456,05	64,785
456,25	62,894
456,45	57,432
456,65	60,817
456,86	63,065
457,06	61,049
457,26	72,390
457,47	60,116
457,67	62,669
457,87	59,008
458,07	60,641
458,28	65,942
458,48	64,209
458,68	61,810
458,88	66,066
459,09	63,650
459,29	67,008
459,49	62,227
459,69	64,540
459,90	65,192
460,10	61,335
460,30	61,540
460,50	65,346
460,71	63,208
460,91	59,251
461,11	62,225
461,31	62,475
461,52	64,602
461,72	61,428
461,92	62,754
462,12	70,575
462,32	64,648
462,53	57,518
462,73	67,702
462,93	64,976
463,13	64,100
463,34	62,571
463,54	62,257
463,74	62,616
463,94	61,209
464,14	66,626
464,35	61,379
464,55	70,304
464,75	65,127
464,95	64,683
465,16	62,566
465,36	66,362
465,56	59,607
465,76	62,543
465,96	65,680
466,17	59,918
466,37	61,438
466,57	65,163
466,77	66,299
466,97	63,376
467,18	69,492
467,38	62,729
467,58	66,414
467,78	65,020
467,98	67,046
468,19	64,225
468,39	64,820
468,59	65,500
468,79	64,314
468,99	64,179
469,19	59,281
469,40	65,282
469,60	55,477
469,80	62,015
470,00	67,374
470,20	67,456
470,41	57,698
470,61	64,680
470,81	68,308
471,01	61,470
471,21	62,088
471,41	63,609
471,62	63,555
471,82	63,309
472,02	60,604
472,22	61,510
472,42	66,217
472,62	65,537
472,83	63,673
473,03	65,807
473,23	63,664
473,43	71,213
473,63	64,221
473,83	63,094
474,03	59,484
474,24	66,361
474,44	61,356
474,64	64,753
474,84	62,271
475,04	63,457
475,24	65,799
475,45	64,357
475,65	63,241
475,85	68,081
476,05	59,448
476,25	61,890
476,45	59,911
476,65	70,391
476,85	63,051
477,06	64,502
477,26	63,943
477,46	60,551
477,66	67,174
477,86	61,987
478,06	63,094
478,26	69,230
478,46	60,992
478,67	63,966
478,87	64,136
479,07	65,212
479,27	65,692
479,47	62,348
479,67	60,695
479,87	60,781
480,07	64,789
480,28	61,899
480,48	58,587
480,68	64,513
480,88	70,679
481,08	63,208
481,28	63,574
481,48	64,437
481,68	62,539
481,88	58,680
482,08	59,353
482,29	65,209
482,49	59,695
482,69	64,740
482,89	61,841
483,09	64,404
483,29	62,577
483,49	58,398
483,69	59,820
483,89	60,927
484,09	59,153
484,29	59,527
484,50	60,929
484,70	61,557
484,90	60,739
485,10	61,253
485,30	61,419
485,50	65,336
485,70	60,329
485,90	62,573
486,10	55,861
486,30	61,595
486,50	61,498
486,70	59,254
486,90	60,083
487,10	63,252
487,30	60,599
487,51	61,088
487,71	56,884
487,91	54,051
488,11	61,128
488,31	55,472
488,51	61,367
488,71	57,130
488,91	61,584
489,11	59,387
489,31	57,501
489,51	57,574
489,71	59,721
489,91	58,390
490,11	61,342
490,31	60,568
490,51	59,432
490,71	60,071
490,91	58,570
491,11	61,045
491,31	65,536
491,51	60,820
491,72	60,579
491,92	59,922
492,12	64,556
492,32	63,255
492,52	62,355
492,72	57,989
492,92	59,919
493,12	59,102
493,32	61,740
493,52	57,882
493,72	59,970
493,92	64,014
494,12	61,597
494,32	62,154
494,52	59,517
494,72	60,648
494,92	62,966
495,12	65,371
495,32	66,098
495,52	58,468
495,72	63,860
495,92	64,229
496,12	67,726
496,32	60,862
496,52	59,245
496,72	61,206
496,92	66,282
497,12	63,113
497,32	67,396
497,52	66,115
497,72	63,649
497,92	67,438
498,12	62,731
498,32	61,818
498,52	66,415
498,72	62,841
498,92	59,855
499,12	67,555
499,32	60,951
499,52	64,045
499,72	66,777
499,92	61,855
500,12	66,137
500,32	67,175
500,52	64,465
500,72	70,667
500,91	67,989
501,11	62,173
501,31	62,784
501,51	68,619
501,71	70,014
501,91	66,351
502,11	65,007
502,31	65,590
502,51	67,957
502,71	66,074
502,91	62,583
503,11	64,970
503,31	66,742
503,51	62,047
503,71	62,799
503,91	67,121
504,11	65,420
504,31	63,959
504,51	64,202
504,71	69,350
504,91	64,901
505,10	66,463
505,30	66,341
505,50	64,487
505,70	65,216
505,90	67,159
506,10	62,368
506,30	66,487
506,50	66,579
506,70	66,703
506,90	64,662
507,10	67,038
507,30	67,091
507,50	67,390
507,70	62,191
507,89	65,979
508,09	62,784
508,29	63,291
508,49	66,441
508,69	67,445
508,89	62,151
509,09	63,880
509,29	66,786
509,49	66,625
509,69	69,837
509,89	65,816
510,09	65,410
510,28	68,251
510,48	65,721
510,68	63,277
510,88	67,110
511,08	66,972
511,28	67,208
511,48	65,171
511,68	63,997
511,88	64,393
512,07	66,092
512,27	66,857
512,47	64,856
512,67	67,988
512,87	64,593
513,07	65,663
513,27	59,799
513,47	64,641
513,67	64,169
513,86	64,905
514,06	65,876
514,26	63,410
514,46	66,968
514,66	64,820
514,86	65,635
515,06	67,397
515,26	68,810
515,45	65,680
515,65	63,395
515,85	64,758
516,05	66,752
516,25	65,796
516,45	65,271
516,65	64,949
516,84	65,902
517,04	65,187
517,24	63,251
517,44	65,254
517,64	68,653
517,84	69,993
518,04	66,200
518,23	69,322
518,43	67,477
518,63	62,248
518,83	62,559
519,03	64,830
519,23	67,348
519,42	67,001
519,62	66,214
519,82	66,019
520,02	66,588
520,22	67,440
520,42	63,164
520,61	66,928
520,81	66,079
521,01	68,715
521,21	62,250
521,41	67,010
521,61	65,420
521,80	61,724
522,00	65,108
522,20	68,465
522,40	65,618
522,60	66,908
522,79	64,285
522,99	67,738
523,19	63,872
523,39	67,874
523,59	65,346
523,78	68,942
523,98	65,809
524,18	63,474
524,38	63,656
524,58	66,267
524,77	67,840
524,97	64,025
525,17	64,238
525,37	65,770
525,57	69,732
525,76	63,579
525,96	64,461
526,16	63,464
526,36	65,331
526,56	63,863
526,75	63,081
526,95	67,395
527,15	64,643
527,35	67,434
527,55	66,201
527,74	64,798
527,94	61,775
528,14	66,648
528,34	64,552
528,53	65,819
528,73	67,511
528,93	65,198
529,13	59,876
529,32	65,237
529,52	66,395
529,72	66,754
529,92	66,347
530,12	66,968
530,31	62,801
530,51	65,729
530,71	70,075
530,91	65,775
531,10	60,391
531,30	65,178
531,50	61,909
531,70	69,049
531,89	66,262
532,09	63,828
532,29	61,899
532,49	61,470
532,68	63,554
532,88	63,912
533,08	63,781
533,28	66,246
533,47	65,020
533,67	63,838
533,87	63,011
534,06	69,554
534,26	64,459
534,46	63,404
534,66	65,826
534,85	62,949
535,05	60,549
535,25	64,744
535,45	60,301
535,64	65,054
535,84	65,110
536,04	60,787
536,23	64,211
536,43	65,370
536,63	63,249
536,83	64,010
537,02	62,758
537,22	60,292
537,42	61,402
537,61	59,522
537,81	61,856
538,01	63,440
538,20	62,866
538,40	60,159
538,60	59,298
538,80	56,810
538,99	56,898
539,19	57,522
539,39	55,428
539,58	57,043
539,78	51,449
539,98	55,649
540,17	52,227
540,37	54,382
540,57	49,441
540,76	49,484
540,96	48,768
541,16	51,119
541,36	47,558
541,55	45,340
541,75	45,095
541,95	45,500
542,14	45,217
542,34	44,376
542,54	43,813
542,73	45,238
542,93	46,648
543,13	43,584
543,32	44,558
543,52	45,989
543,72	41,696
543,91	42,557
544,11	44,805
544,31	43,691
544,50	45,234
544,70	44,726
544,89	44,500
545,09	45,086
545,29	46,412
545,48	46,237
545,68	45,914
545,88	47,756
546,07	48,235
546,27	47,133
546,47	50,124
546,66	51,224
546,86	52,286
547,06	50,976
547,25	52,300
547,45	54,344
547,64	54,221
547,84	58,146
548,04	54,463
548,23	56,783
548,43	55,482
548,63	61,708
548,82	59,324
549,02	58,023
549,21	56,693
549,41	57,905
549,61	57,666
549,80	58,085
550,00	59,105
550,20	56,704
550,39	58,455
550,59	56,492
550,78	60,150
550,98	59,273
551,18	59,229
551,37	61,113
551,57	58,621
551,76	59,840
551,96	58,937
552,16	60,636
552,35	59,621
552,55	61,308
552,74	59,540
552,94	64,199
553,14	60,180
553,33	62,622
553,53	61,196
553,72	62,535
553,92	65,204
554,12	61,386
554,31	61,163
554,51	65,323
554,70	62,027
554,90	60,997
555,09	66,777
555,29	65,578
555,49	64,111
555,68	64,449
555,88	63,062
556,07	64,227
556,27	67,248
556,46	63,588
556,66	62,484
556,86	66,672
557,05	63,725
557,25	60,132
557,44	63,459
557,64	63,840
557,83	63,465
558,03	61,338
558,22	62,105
558,42	66,189
558,62	66,063
558,81	66,617
559,01	62,139
559,20	62,770
559,40	64,590
559,59	64,200
559,79	64,382
559,98	65,306
560,18	67,038
560,37	65,045
560,57	62,954
560,76	65,979
560,96	62,550
561,16	66,469
561,35	62,848
561,55	67,442
561,74	64,215
561,94	64,968
562,13	62,769
562,33	66,259
562,52	64,083
562,72	65,847
562,91	64,952
563,11	63,669
563,30	68,197
563,50	62,564
563,69	61,920
563,89	65,121
564,08	63,979
564,28	63,923
564,47	64,669
564,67	65,959
564,86	61,500
565,06	62,214
565,25	63,122
565,45	64,813
565,64	66,813
565,84	63,940
566,03	62,336
566,23	64,782
566,42	63,157
566,62	63,482
566,81	65,369
567,01	64,643
567,20	65,396
567,40	64,473
567,59	61,891
567,79	66,572
567,98	66,232
568,18	64,549
568,37	67,146
568,57	64,147
568,76	65,231
568,96	65,620
569,15	61,974
569,35	65,707
569,54	68,234
569,73	65,853
569,93	63,526
570,12	65,060
570,32	65,857
570,51	64,252
570,71	66,882
570,90	66,743
571,10	64,938
571,29	63,174
571,49	62,516
571,68	63,556
571,87	65,473
572,07	66,194
572,26	62,233
572,46	62,989
572,65	66,886
572,85	64,475
573,04	64,266
573,24	64,908
573,43	68,261
573,62	65,957
573,82	64,287
574,01	65,032
574,21	63,434
574,40	62,295
574,60	63,584
574,79	67,091
574,98	64,282
575,18	64,778
575,37	62,412
575,57	66,114
575,76	64,893
575,96	62,494
576,15	64,052
576,34	63,836
576,54	65,200
576,73	63,446
576,93	63,533
577,12	65,173
577,31	66,175
577,51	62,700
577,70	62,553
577,90	65,079
578,09	63,139
578,28	62,502
578,48	63,289
578,67	64,737
578,87	64,318
579,06	62,598
579,25	62,491
579,45	64,446
579,64	62,143
579,84	64,381
580,03	61,327
580,22	63,092
580,42	60,827
580,61	62,632
580,81	61,150
581,00	62,010
581,19	63,546
581,39	61,491
581,58	63,378
581,77	63,697
581,97	63,614
582,16	60,711
582,35	60,513
582,55	62,365
582,74	63,198
582,94	62,224
583,13	60,086
583,32	62,386
583,52	61,137
583,71	61,469
583,90	62,538
584,10	61,559
584,29	63,793
584,48	61,356
584,68	61,883
584,87	63,516
585,06	61,057
585,26	60,670
585,45	59,803
585,65	62,078
585,84	61,289
586,03	62,290
586,23	60,390
586,42	62,037
586,61	62,928
586,81	61,791
587,00	62,432
587,19	60,431
587,39	62,933
587,58	59,683
587,77	60,673
587,97	61,749
588,16	59,745
588,35	62,558
588,54	62,738
588,74	61,701
588,93	62,750
589,12	60,460
589,32	60,866
589,51	61,784
589,70	59,365
589,90	60,915
590,09	61,422
590,28	65,780
590,48	60,191
590,67	62,130
590,86	61,531
591,06	62,355
591,25	62,654
591,44	62,094
591,63	60,742
591,83	63,682
592,02	62,731
592,21	61,766
592,41	61,767
592,60	62,129
592,79	62,822
592,98	62,197
593,18	62,794
593,37	62,802
593,56	64,112
593,76	60,697
593,95	63,324
594,14	60,959
594,33	64,441
594,53	61,596
594,72	62,777
594,91	65,800
595,10	63,202
595,30	62,253
595,49	60,550
595,68	63,156
595,88	64,012
596,07	64,593
596,26	63,553
596,45	62,947
596,65	59,319
596,84	63,105
597,03	63,019
597,22	66,638
597,42	65,932
597,61	63,163
597,80	61,637
597,99	63,796
598,19	64,098
598,38	64,442
598,57	64,828
598,76	65,359
598,95	65,672
599,15	63,942
599,34	63,915
599,53	63,105
599,72	63,906
599,92	65,111
600,11	64,853
600,30	64,460
600,49	64,681
600,69	64,528
600,88	63,291
601,07	62,522
601,26	64,234
601,45	63,076
601,65	62,314
601,84	63,474
602,03	64,829
602,22	65,690
602,42	65,762
602,61	62,655
602,80	64,195
602,99	64,271
603,18	63,070
603,38	64,012
603,57	63,086
603,76	61,940
603,95	63,843
604,14	63,111
604,34	61,515
604,53	61,612
604,72	63,505
604,91	63,829
605,10	63,923
605,29	63,219
605,49	64,167
605,68	62,691
605,87	65,530
606,06	62,618
606,25	61,973
606,45	62,970
606,64	63,537
606,83	63,443
607,02	63,042
607,21	63,388
607,40	63,010
607,60	58,056
607,79	59,822
607,98	60,104
608,17	59,983
608,36	58,603
608,55	58,582
608,75	58,816
608,94	57,494
609,13	52,129
609,32	51,200
609,51	51,947
609,70	50,888
609,89	52,809
610,09	53,626
610,28	54,215
610,47	51,165
610,66	50,212
610,85	49,287
611,04	52,802
611,23	50,569
611,43	50,750
611,62	51,041
611,81	50,467
612,00	51,116
612,19	51,666
612,38	52,096
612,57	54,456
612,77	52,969
612,96	53,309
613,15	54,097
613,34	57,048
613,53	56,457
613,72	57,016
613,91	55,283
614,10	57,126
614,29	58,688
614,49	57,131
614,68	58,561
614,87	59,654
615,06	59,973
615,25	57,362
615,44	62,317
615,63	59,484
615,82	59,726
616,01	59,424
616,21	59,415
616,40	60,483
616,59	61,519
616,78	60,172
616,97	62,485
617,16	61,473
617,35	62,422
617,54	60,653
617,73	63,273
617,92	59,558
618,11	62,652
618,31	59,606
618,50	60,718
618,69	59,504
618,88	60,725
619,07	58,741
619,26	59,503
619,45	61,046
619,64	61,230
619,83	60,293
620,02	59,482
620,21	61,970
620,40	61,482
620,59	59,412
620,78	58,093
620,97	60,805
621,17	60,769
621,36	62,269
621,55	61,691
621,74	62,903
621,93	60,335
622,12	61,091
622,31	61,509
622,50	60,687
622,69	62,264
622,88	58,902
623,07	61,377
623,26	60,592
623,45	64,695
623,64	61,112
623,83	61,431
624,02	63,465
624,21	63,541
624,40	63,457
624,59	60,656
624,78	61,444
624,97	63,321
625,16	58,053
625,35	58,772
625,54	60,657
625,73	61,825
625,92	62,580
626,12	62,756
626,31	63,358
626,50	61,369
626,69	61,973
626,88	60,423
627,07	63,376
627,26	61,290
627,45	62,067
627,64	61,617
627,83	62,196
628,02	59,187
628,21	60,651
628,40	60,089
628,59	63,772
628,78	60,476
628,97	62,064
629,16	59,679
629,35	59,532
629,54	63,395
629,73	59,373
629,92	59,663
630,10	63,320
630,29	62,709
630,48	60,581
630,67	60,181
630,86	61,487
631,05	62,267
631,24	63,304
631,43	60,699
631,62	61,892
631,81	60,656
632,00	63,346
632,19	59,693
632,38	61,193
632,57	64,140
632,76	63,440
632,95	62,945
633,14	62,759
633,33	63,501
633,52	64,851
633,71	64,255
633,90	62,743
634,09	62,359
634,28	61,884
634,47	60,405
634,66	62,981
634,85	62,346
635,04	63,840
635,22	61,350
635,41	62,144
635,60	64,339
635,79	62,710
635,98	61,199
636,17	64,543
636,36	61,190
636,55	62,894
636,74	62,675
636,93	61,918
637,12	63,404
637,31	63,114
637,50	60,230
637,69	65,073
637,87	63,521
638,06	65,474
638,25	62,326
638,44	63,790
638,63	61,865
638,82	61,337
639,01	62,685
639,20	61,254
639,39	61,013
639,58	63,820
639,77	62,698
639,95	63,208
640,14	62,386
640,33	63,369
640,52	60,406
640,71	65,300
640,90	64,020
641,09	65,134
641,28	61,020
641,47	64,370
641,66	63,531
641,84	61,237
642,03	62,055
642,22	63,995
642,41	64,932
642,60	61,662
642,79	63,981
642,98	62,947
643,17	61,123
643,35	61,990
643,54	61,420
643,73	61,853
643,92	64,063
644,11	62,061
644,30	60,934
644,49	65,576
644,67	62,436
644,86	60,036
645,05	62,457
645,24	61,625
645,43	62,933
645,62	64,217
645,81	64,916
645,99	63,815
646,18	63,714
646,37	62,915
646,56	63,297
646,75	63,953
646,94	65,356
647,13	62,349
647,31	61,083
647,50	61,048
647,69	63,375
647,88	63,018
648,07	63,366
648,26	66,236
648,44	63,360
648,63	60,036
648,82	63,248
649,01	64,451
649,20	61,893
649,38	61,241
649,57	62,386
649,76	61,610
649,95	63,341
650,14	60,376
650,33	61,417
650,51	62,978
650,70	62,701
650,89	63,122
651,08	60,262
651,27	64,322
651,45	60,743
651,64	60,283
651,83	64,026
652,02	61,629
652,21	62,510
652,39	63,276
652,58	61,954
652,77	62,744
652,96	63,823
653,15	63,143
653,33	63,674
653,52	62,142
653,71	64,552
653,90	63,669
654,09	63,904
654,27	63,597
654,46	64,682
654,65	63,664
654,84	63,845
655,02	64,501
655,21	64,778
655,40	64,581
655,59	63,838
655,77	65,179
655,96	64,397
656,15	63,764
656,34	64,440
656,53	63,899
656,71	64,286
656,90	64,795
657,09	65,527
657,28	63,600
657,46	63,302
657,65	64,056
657,84	62,488
658,03	63,926
658,21	62,981
658,40	61,198
658,59	64,413
658,78	64,457
658,96	63,607
659,15	62,505
659,34	62,538
659,52	63,145
659,71	63,545
659,90	62,883
660,09	62,856
660,27	61,863
660,46	65,103
660,65	62,385
660,84	60,602
661,02	60,805
661,21	62,754
661,40	63,387
661,58	63,950
661,77	62,270
661,96	59,843
662,15	64,371
662,33	61,782
662,52	61,325
662,71	62,945
662,89	60,483
663,08	61,821
663,27	60,381
663,45	62,699
663,64	61,854
663,83	60,998
664,02	62,465
664,20	63,326
664,39	60,567
664,58	61,057
664,76	62,926
664,95	62,199
665,14	63,168
665,32	60,536
665,51	63,602
665,70	63,278
665,88	62,993
666,07	61,274
666,26	65,394
666,44	64,694
666,63	61,334
666,82	62,803
667,00	65,845
667,19	61,808
667,38	62,471
667,56	61,897
667,75	64,022
667,94	64,323
668,12	62,812
668,31	63,750
668,50	62,309
668,68	62,981
668,87	63,095
669,06	63,463
669,24	64,468
669,43	62,366
669,62	60,431
669,80	59,827
669,99	63,446
670,18	63,342
670,36	61,327
670,55	63,503
670,74	61,275
670,92	60,381
671,11	63,149
671,29	59,874
671,48	65,190
671,67	65,132
671,85	63,537
672,04	62,654
672,23	61,694
672,41	61,841
672,60	63,045
672,78	61,468
672,97	62,979
673,16	63,355
673,34	62,796
673,53	61,253
673,71	62,102
673,90	64,508
674,09	62,566
674,27	60,198
674,46	63,106
674,64	64,682
674,83	63,098
675,02	60,349
675,20	62,639
675,39	63,719
675,57	61,606
675,76	60,683
675,95	63,535
676,13	64,035
676,32	63,999
676,50	63,796
676,69	62,840
676,88	61,898
677,06	62,811
677,25	63,217
677,43	66,584
677,62	62,723
677,80	61,863
677,99	61,994
678,18	62,542
678,36	64,168
678,55	61,250
678,73	61,687
678,92	65,105
679,10	63,958
679,29	62,013
679,48	61,721
679,66	61,869
679,85	61,389
680,03	63,239
680,22	62,548
680,40	59,959
680,59	62,624
680,77	61,823
680,96	63,000
681,15	62,440
681,33	63,282
681,52	62,114
681,70	61,701
681,89	64,881
682,07	61,523
682,26	62,015
682,44	64,381
682,63	63,147
682,81	62,825
683,00	63,133
683,18	61,695
683,37	62,665
683,55	62,830
683,74	62,387
683,92	68,668
684,11	63,100
684,29	63,340
684,48	60,895
684,67	61,988
684,85	63,408
685,04	63,249
685,22	62,645
685,41	61,768
685,59	62,399
685,78	61,480
685,96	62,086
686,15	61,450
686,33	61,902
686,52	62,943
686,70	62,212
686,89	62,489
687,07	62,411
687,26	64,117
687,44	62,952
687,62	62,223
687,81	64,633
687,99	61,131
688,18	62,064
688,36	62,893
688,55	64,157
688,73	63,171
688,92	60,404
689,10	62,814
689,29	63,105
689,47	65,846
689,66	63,495
689,84	62,101
690,03	66,446
690,21	63,477
690,40	62,297
690,58	60,597
690,76	61,064
690,95	63,722
691,13	62,116
691,32	61,288
691,50	63,869
691,69	64,715
691,87	60,888
692,06	61,381
692,24	61,974
692,43	63,990
692,61	61,681
692,79	61,070
692,98	59,704
693,16	65,380
693,35	61,594
693,53	65,362
693,72	62,033
693,90	62,690
694,08	61,098
694,27	61,572
694,45	64,621
694,64	63,712
694,82	62,230
695,01	60,801
695,19	60,762
695,37	63,965
695,56	61,910
695,74	61,865
695,93	62,572
696,11	61,811
696,29	63,475
696,48	62,826
696,66	63,014
696,85	64,556
697,03	60,741
697,21	64,074
697,40	62,340
697,58	63,030
697,77	61,467
697,95	62,209
698,13	64,265
698,32	62,668
698,50	60,873
698,69	61,920
698,87	63,134
699,05	61,409
699,24	60,442
699,42	63,666
699,60	61,259
699,79	63,724
699,97	61,943
700,16	61,113
700,34	63,952
700,52	62,919
700,71	62,299
700,89	62,300
701,07	63,746
701,26	64,161
701,44	61,977
701,63	59,920
701,81	62,125
701,99	62,514
702,18	62,693
702,36	58,915
702,54	61,608
702,73	63,095
702,91	62,084
703,09	59,348
703,28	61,377
703,46	62,374
703,64	62,378
703,83	61,318
704,01	62,449
704,19	63,149
704,38	61,408
704,56	61,840
704,74	61,679
704,93	60,124
705,11	63,188
705,29	60,681
705,48	65,361
705,66	62,181
705,84	60,896
706,03	58,322
706,21	62,729
706,39	60,673
706,58	60,445
706,76	59,236
706,94	62,773
707,12	61,847
707,31	61,307
707,49	61,201
707,67	61,338
707,86	63,928
708,04	61,251
708,22	61,375
708,41	60,158
708,59	61,322
708,77	59,537
708,95	60,769
709,14	64,943
709,32	63,370
709,50	60,462
709,69	60,886
709,87	60,454
710,05	61,292
710,23	61,135
710,42	59,920
710,60	62,344
710,78	62,079
710,97	60,440
711,15	61,768
711,33	63,900
711,51	59,912
711,70	58,536
711,88	59,637
712,06	62,642
712,24	61,953
712,43	62,472
712,61	59,560
712,79	63,583
712,97	61,098
713,16	60,639
713,34	60,556
713,52	62,330
713,70	62,682
713,89	61,596
714,07	60,007
714,25	61,018
714,43	62,546
714,62	61,660
714,80	60,509
714,98	60,573
715,16	62,906
715,35	58,656
715,53	61,405
715,71	63,911
715,89	64,434
716,07	61,170
716,26	65,001
716,44	62,743
716,62	61,964
716,80	62,236
716,99	62,785
717,17	63,566
717,35	61,502
717,53	60,280
717,71	60,991
717,90	62,667
718,08	61,824
718,26	58,022
718,44	61,374
718,62	62,461
718,81	63,326
718,99	60,155
719,17	60,045
719,35	61,923
719,53	61,746
719,72	60,097
719,90	62,825
720,08	62,170
720,26	62,904
720,44	60,148
720,62	60,713
720,81	60,435
720,99	66,290
721,17	61,995
721,35	63,320
721,53	62,695
721,72	64,682
721,90	62,563
722,08	61,732
722,26	63,806
722,44	61,677
722,62	60,959
722,81	61,394
722,99	61,880
723,17	61,854
723,35	62,595
723,53	61,952
723,71	62,192
723,89	65,627
724,08	60,185
724,26	62,445
724,44	61,755
724,62	61,403
724,80	60,153
724,98	62,922
725,16	62,742
725,35	61,811
725,53	60,238
725,71	61,639
725,89	62,810
726,07	65,891
726,25	63,715
726,43	60,927
726,61	62,623
726,80	63,089
726,98	63,204
727,16	62,137
727,34	63,766
727,52	61,167
727,70	60,273
727,88	61,076
728,06	59,103
728,25	60,137
728,43	62,904
728,61	61,204
728,79	61,406
728,97	61,590
729,15	60,484
729,33	62,592
729,51	65,176
729,69	63,136
729,87	62,622
730,06	61,392
730,24	63,523
730,42	66,254
730,60	59,529
730,78	62,627
730,96	61,240
731,14	61,940
731,32	60,805
731,50	61,189
731,68	60,456
731,86	61,940
732,04	62,119
732,22	60,333
732,41	65,139
732,59	62,590
732,77	66,306
732,95	63,807
733,13	63,848
733,31	61,702
733,49	60,175
733,67	63,502
733,85	63,866
734,03	62,340
734,21	62,669
734,39	62,188
734,57	65,476
734,75	64,006
734,93	62,427
735,11	63,196
735,29	61,206
735,47	64,059
735,65	63,120
735,84	61,382
736,02	61,021
736,20	64,408
736,38	62,389
736,56	62,068
736,74	61,989
736,92	60,675
737,10	60,135
737,28	63,802
737,46	61,736
737,64	62,901
737,82	62,167
738,00	65,423
738,18	62,788
738,36	62,302
738,54	61,829
738,72	60,253
738,90	62,057
739,08	64,673
739,26	59,981
739,44	64,023
739,62	62,150
739,80	64,006
739,98	61,659
740,16	63,571
740,34	61,701
740,52	61,982
740,70	62,646
740,88	60,755
741,06	61,525
741,24	64,041
741,42	62,737
741,60	60,271
741,78	63,965
741,96	62,500
742,14	61,415
742,32	60,029
742,50	62,137
742,68	63,074
742,86	61,513
743,04	61,855
743,21	62,722
743,39	63,931
743,57	63,751
743,75	62,218
743,93	61,037
744,11	59,311
744,29	62,803
744,47	61,106
744,65	61,869
744,83	62,061
745,01	60,673
745,19	61,775
745,37	66,062
745,55	64,059
745,73	63,295
745,91	62,794
746,09	61,838
746,27	60,928
746,45	59,345
746,62	63,146
746,80	59,968
746,98	61,010
747,16	60,822
747,34	62,184
747,52	60,972
747,70	62,618
747,88	60,948
748,06	61,113
748,24	61,527
748,42	63,418
748,60	62,656
748,78	59,143
748,95	64,710
749,13	67,086
749,31	61,953
749,49	62,521
749,67	62,869
749,85	62,758
750,03	60,887
750,21	62,336
750,39	63,498
750,57	63,475
750,74	64,356
750,92	60,236
751,10	64,849
751,28	62,872
751,46	61,523
751,64	64,156
751,82	64,367
752,00	62,796
752,17	62,356
752,35	59,487
752,53	62,344
752,71	62,527
752,89	62,402
753,07	61,563
753,25	63,247
753,43	61,700
753,60	62,572
753,78	60,716
753,96	63,684
754,14	62,032
754,32	63,246
754,50	63,059
754,68	63,896
754,85	63,905
755,03	62,296
755,21	63,372
755,39	63,860
755,57	62,458
755,75	61,453
755,92	62,102
756,10	64,103
756,28	64,366
756,46	60,981
756,64	62,875
756,82	60,843
756,99	61,964
757,17	62,627
757,35	61,465
757,53	63,722
757,71	63,473
757,89	61,661
758,06	61,741
758,24	63,672
758,42	59,778
758,60	60,608
758,78	64,340
758,95	63,175
759,13	64,213
759,31	60,636
759,49	61,915
759,67	61,354
759,84	62,300
760,02	63,484
760,20	60,166
760,38	60,497
760,56	62,545
760,73	61,943
760,91	62,478
761,09	63,239
761,27	61,847
761,45	61,794
761,62	61,837
761,80	61,652
761,98	61,901
762,16	60,906
762,33	61,852
762,51	64,821
762,69	63,850
762,87	64,551
763,05	62,230
763,22	61,810
763,40	62,389
763,58	60,177
763,76	62,576
763,93	62,484
764,11	64,818
764,29	58,915
764,47	63,516
764,64	62,110
764,82	65,327
765,00	60,375
765,18	58,029
765,35	61,061
765,53	62,752
765,71	60,652
765,89	62,112
766,06	60,371
766,24	63,316
766,42	64,625
766,60	61,968
766,77	58,696
766,95	59,635
767,13	64,118
767,30	64,113
767,48	62,881
767,66	62,389
767,84	61,500
768,01	62,523
768,19	63,263
768,37	62,289
768,54	59,141
768,72	63,013
768,90	65,135
769,08	61,394
769,25	63,228
769,43	60,534
769,61	60,648
769,78	63,246
769,96	60,184
770,14	64,591
770,31	63,504
770,49	64,145
770,67	62,080
770,85	60,671
771,02	63,421
771,20	61,742
771,38	65,139
771,55	61,653
771,73	62,844
771,91	64,853
772,08	65,401
772,26	63,052
772,44	62,063
772,61	62,050
772,79	61,213
772,97	63,521
773,14	60,109
773,32	63,945
773,50	60,895
773,67	63,723
773,85	64,952
774,03	60,564
774,20	61,388
774,38	63,262
774,56	62,100
774,73	63,358
774,91	61,427
775,09	63,267
775,26	63,335
775,44	61,732
775,61	63,338
775,79	59,803
775,97	62,807
776,14	62,803
776,32	60,718
776,50	63,140
776,67	63,209
776,85	60,113
777,03	61,067
777,20	63,618
777,38	64,642
777,55	64,746
777,73	60,661
777,91	62,122
778,08	63,115
778,26	61,668
778,43	63,262
778,61	59,672
778,79	61,471
778,96	61,795
779,14	63,244
779,32	60,675
779,49	64,856
779,67	65,636
779,84	61,499
780,02	65,516
780,20	59,249
780,37	64,806
780,55	56,533
780,72	63,887
780,90	64,650
781,07	61,752
781,25	63,806
781,43	62,810
781,60	62,694
781,78	63,809
781,95	62,442
782,13	62,245
782,30	66,729
782,48	61,305
782,66	62,037
782,83	62,110
783,01	66,229
783,18	62,251
783,36	62,775
783,53	62,568
783,71	61,683
783,89	61,140
784,06	64,830
784,24	60,756
784,41	63,791
784,59	64,934
784,76	61,430
784,94	62,045
785,11	60,432
785,29	61,610
785,46	62,310
785,64	62,646
785,82	63,287
785,99	61,633
786,17	61,317
786,34	63,244
786,52	64,883
786,69	68,265
786,87	61,623
787,04	60,915
787,22	61,499
787,39	65,247
787,57	62,198
787,74	63,562
787,92	65,264
788,09	64,663
788,27	63,651
788,44	61,126
788,62	62,463
788,79	63,879
788,97	65,298
789,14	63,837
789,32	61,677
789,49	63,340
789,67	63,097
789,84	62,073
790,02	65,967
790,19	63,870
790,37	64,561
790,54	62,689
790,72	68,460
790,89	69,604
791,07	65,232
791,24	60,787
791,42	66,689
791,59	64,917
791,77	62,653
791,94	63,573
792,12	62,725
792,29	66,656
792,47	64,546
792,64	64,242
792,81	66,216
792,99	62,205
793,16	64,504
793,34	63,640
793,51	63,558
793,69	65,282
793,86	62,433
794,04	63,988
794,21	65,189
794,39	62,491
794,56	63,940
794,73	63,074
794,91	69,779
795,08	65,798
795,26	63,204
795,43	63,607
795,61	66,734
795,78	67,211
795,95	65,181
796,13	64,992
796,30	64,356
796,48	63,382
796,65	63,638
796,83	67,331
797,00	68,559
797,17	63,891
797,35	65,246
797,52	65,986
797,70	71,193
797,87	66,118
798,04	59,054
798,22	63,592
798,39	66,481
798,57	63,087
798,74	65,581
798,91	63,952
799,09	61,277
799,26	62,404
799,44	63,782
799,61	63,314
799,78	67,894
799,96	64,902
800,13	63,168
800,31	68,066
800,48	66,878
800,65	67,166
800,83	61,960
801,00	60,954
801,17	62,475
801,35	66,177
801,52	65,271
801,70	60,989
801,87	63,737
802,04	67,662
802,22	62,734
802,39	61,933
802,56	67,263
802,74	64,261
802,91	61,447
803,08	64,253
803,26	64,678
803,43	69,864
803,61	67,213
803,78	63,466
803,95	65,929
804,13	67,950
804,30	68,406
804,47	66,725
804,65	65,971
804,82	61,080
804,99	62,584
805,17	63,150
805,34	68,513
805,51	70,782
805,69	61,912
805,86	62,366
806,03	71,177
806,21	69,617
806,38	66,674
806,55	66,962
806,72	67,073
806,90	68,253
807,07	68,612
807,24	66,663
807,42	64,068
807,59	69,357
807,76	61,804
807,94	67,929
808,11	68,671
808,28	69,423
808,45	65,477
808,63	69,651
808,80	69,732
808,97	65,893
809,15	59,721
809,32	65,967
809,49	62,911
809,67	63,128
809,84	68,181
810,01	67,922
810,18	74,758
810,36	68,669
810,53	68,365
810,70	66,129
810,87	69,020
811,05	67,150
811,22	64,245
811,39	60,506
811,57	68,739
811,74	68,477
811,91	63,235
812,08	64,518
812,26	68,052
812,43	61,858
812,60	68,102
812,77	66,943
812,95	71,953
813,12	66,612
813,29	63,920
813,46	68,018
813,64	68,604
813,81	68,519
813,98	64,505
814,15	68,662
814,32	69,183
814,50	70,104
814,67	68,149
814,84	68,320
815,01	65,496
815,19	60,292
815,36	65,775
815,53	67,068
815,70	64,146
815,87	71,631
816,05	60,507
816,22	66,220
816,39	73,902
816,56	71,597
816,74	72,234
816,91	71,418
817,08	72,934
817,25	68,092
817,42	66,894
817,60	70,306
817,77	65,532
817,94	68,391
818,11	63,946
818,28	68,599
818,45	67,522
818,63	65,187
818,80	65,826
818,97	69,536
819,14	72,006
819,31	67,365
819,49	69,822
819,66	62,517
819,83	66,531
820,00	70,706
820,17	67,615
820,34	67,043
820,52	70,051
820,69	67,398
820,86	61,944
821,03	64,836
821,20	70,603
821,37	71,431
821,55	60,623
821,72	66,116
821,89	69,406
822,06	70,861
822,23	65,527
822,40	60,785
822,57	74,389
822,75	75,193
822,92	65,302
823,09	70,351
823,26	68,460
823,43	74,556
823,60	61,184
823,77	69,420
823,94	75,248
824,12	74,899
824,29	65,031
824,46	65,801
824,63	74,876
824,80	76,452
824,97	64,930
825,14	66,629
825,31	71,151
825,49	67,330
825,66	62,323
825,83	66,629
826,00	68,691
826,17	72,761
826,34	65,227
826,51	67,663
826,68	65,786
826,85	71,770
827,02	66,065
827,20	61,353
827,37	67,746
827,54	74,268
827,71	68,751
827,88	69,965
828,05	72,959
828,22	66,525
828,39	72,959
828,56	74,956
828,73	67,768
828,90	71,668
829,07	64,027
829,25	70,395
829,42	75,327
829,59	74,332
829,76	65,174
829,93	68,841
830,10	71,325
830,27	66,951
830,44	70,986
830,61	65,973
830,78	74,805
830,95	72,102
831,12	67,893
831,29	65,933
831,46	67,133
831,63	67,903
831,80	66,568
831,97	68,537
832,14	72,383
832,31	76,570
832,48	76,028
832,65	70,127
832,83	65,769
833,00	74,021
833,17	70,856
833,34	70,683
833,51	71,851
833,68	77,292
833,85	75,201
834,02	71,365
834,19	66,700
834,36	71,555
834,53	59,124
834,70	67,226
834,87	79,609
835,04	67,251
835,21	71,709
835,38	68,175
835,55	76,739
835,72	81,807
835,89	65,781
836,06	68,394
836,23	80,774
836,40	60,072
836,57	68,396
836,74	74,869
836,91	71,288
837,08	74,204
837,25	69,023
837,42	64,766
837,59	67,668
837,76	64,624
837,93	67,805
838,09	60,595
838,26	73,933
838,43	79,777
838,60	60,650
838,77	59,240
838,94	76,447
839,11	66,148
839,28	66,192
839,45	68,525
839,62	71,032
839,79	68,127
839,96	74,663
840,13	70,968
840,30	63,512
840,47	65,926
840,64	60,889
840,81	71,328
840,98	73,264
841,15	85,553
841,32	69,138
841,48	74,851
841,65	77,309
841,82	71,860
841,99	74,519
842,16	65,011
842,33	68,357
842,50	71,308
842,67	71,795
842,84	71,547
843,01	70,297
843,18	77,162
843,35	72,749
843,52	60,067
843,68	77,046
843,85	69,086
844,02	74,619
844,19	70,508
844,36	84,961
844,53	69,058
844,70	69,859
844,87	77,750
845,04	74,545
845,21	57,386
845,37	95,099
845,54	64,530
845,71	68,009
845,88	87,048
846,05	60,122
846,22	67,984
846,39	79,913
846,56	92,857
846,72	62,707
846,89	68,619
847,06	91,674
847,23	84,869
847,40	58,272
847,57	61,624
847,74	77,862
847,90	85,575
848,07	68,421
848,24	72,259
848,41	78,515
848,58	87,326
848,75	68,769
848,92	63,688
849,08	73,397
849,25	67,665
849,42	63,231
849,59	76,259
849,76	72,979
849,93	80,697
850,09	76,543
850,26	60,626
850,43	87,692
850,60	66,280
850,77	72,323
850,94	67,243
851,10	77,955
851,27	78,236
851,44	72,293
851,61	69,839
851,78	82,678
851,95	81,972
852,11	69,844
852,28	70,250
852,45	79,555
852,62	73,258
852,79	70,977
852,95	68,620
853,12	75,842
853,29	71,790
853,46	69,953
853,63	70,508
853,79	58,812
853,96	69,403
854,13	78,006
854,30	69,002
854,46	95,922
854,63	74,327
854,80	73,428
854,97	63,310
855,14	91,904
855,30	79,924
855,47	68,039
855,64	67,693
855,81	79,796
855,97	88,990
856,14	71,599
856,31	64,836
856,48	96,372
856,65	89,818
856,81	65,786
856,98	59,640
857,15	69,050
857,32	87,247
857,48	70,744
857,65	74,837
857,82	95,241
857,99	84,661
858,15	70,464
858,32	79,588
858,49	66,097
858,65	105,369
858,82	97,771
858,99	74,194
859,16	81,272
859,32	89,365
859,49	83,719
859,66	76,978
859,83	83,701
859,99	61,746
860,16	72,807
860,33	78,520
860,49	76,838
860,66	81,122
860,83	62,133
861,00	78,050
861,16	87,328
861,33	82,638
861,50	54,869
861,66	70,953
861,83	98,590
862,00	78,809
862,16	75,426
862,33	69,860
862,50	98,121
862,67	90,993
862,83	75,515
863,00	82,297
863,17	106,380
863,33	85,246
863,50	50,491
863,67	74,163
863,83	88,984
864,00	90,051
864,17	60,173
864,33	76,051
864,50	73,755
864,67	78,193
864,83	61,671
865,00	66,514
865,17	68,389
865,33	75,064
865,50	71,760
865,67	67,808
865,83	103,268
866,00	128,738
866,17	95,122
866,33	101,120
866,50	100,757
866,66	90,479
866,83	95,847
867,00	72,342
867,16	104,328
867,33	125,985
867,50	48,374
867,66	67,415
867,83	89,013
868,00	86,950
868,16	76,314
868,33	60,126
868,49	76,266
868,66	86,026
868,83	71,355
868,99	83,045
869,16	91,105
869,32	101,744
869,49	65,380
869,66	66,015
869,82	120,514
869,99	110,759
870,15	58,867
870,32	99,102
870,49	109,763
870,65	131,272
870,82	87,044
870,98	75,424
871,15	112,326
871,32	84,181
871,48	41,944
871,65	71,198
871,81	93,496
871,98	76,856
872,15	58,460
872,31	62,359
872,48	142,196
872,64	123,874
872,81	59,648
872,97	62,128
873,14	122,271
873,31	75,965
873,47	85,005
873,64	78,150
873,80	149,383
873,97	139,695
874,13	54,448
874,30	86,663
874,46	118,166
874,63	86,511
874,80	61,572
874,96	57,056
875,13	109,155
875,29	81,894
875,46	94,113
875,62	76,479
875,79	114,986
875,95	66,634
876,12	52,304
876,28	36,961
876,45	120,225
876,61	94,636
876,78	84,433
876,94	57,892
877,11	134,934
877,27	107,267
877,44	74,083
877,60	80,648
877,77	116,649
877,94	120,925
878,10	106,107
878,27	96,124
878,43	118,138
878,60	76,105
878,76	74,306
878,93	77,627
879,09	129,364
879,26	131,099
879,42	87,667
879,58	81,927
879,75	139,915
879,91	128,172
880,08	35,755
880,24	79,913
880,41	107,457
880,57	165,740
880,74	59,881
880,90	65,580
881,07	72,652
881,23	198,925
881,40	88,967
881,56	99,609
881,73	107,080
881,89	89,847
882,06	86,875
882,22	153,687
882,38	165,318
882,55	187,338
882,71	132,770
882,88	69,436
883,04	280,944
883,21	174,649
883,37	89,888
883,54	94,385
883,70	262,730
883,86	153,216
884,03	101,574
884,19	42,385
884,36	27,952
884,52	202,673
884,69	59,926
884,85	69,577
885,01	292,632
885,18	138,030
885,34	85,023
885,51	41,722
885,67	93,814
>>>>> Data<<<<< Espectral Procesado Extremo
