Fichero De Datos De SpectraSuite
++++++++++++++++++++++++++++++++++++
Fecha: Wed Apr 22 11:40:25 CEST 2009
Usuario: evoflor
Presente Oscuro Del Espectro: Sí
La Referencia de Presente Del Espectro De: Sí
Muestreados de los componentes de Número de espectros: 1
Espectrómetros: USB4F02353
Tiempo de integración (usec): 500000 (USB4F02353)
Promedio de Espectros Hechos un: 5 (USB4F02353)
El Alisar Del Furgón: 0 (USB4F02353)
Párrafo de de Corregir del la del del de Eléctrica del obscuridad: Sí (USB4F02353)
Estrobo/Lámpara Permitido: No (USB4F02353)
Correct for Detector Non-linearity: No (USB4F02353)
Párrafo de de Corregir del la del del de Externa del luz: No (USB4F02353)
Procesado del espectro de Número de pixeles en: 3648
>>>>> Comienza Data<<<<< Espectral Procesado Del EL
177,79	233,315
178,00	233,315
178,22	233,315
178,44	856,264
178,66	-168,488
178,88	441,433
179,09	182,213
179,31	388,835
179,53	352,260
179,75	47,229
179,96	655,000
180,18	-560,554
180,40	207,580
180,62	621,698
180,83	-191,818
181,05	-948,537
181,27	-151580,000
181,49	-212,130
181,70	375,308
181,92	668,934
182,14	402,349
182,36	71,549
182,58	-282,800
182,79	970,000
183,01	-60,740
183,23	74,006
183,45	-131,323
183,66	117,788
183,88	261,647
184,10	-1577,818
184,32	290,545
184,53	259,364
184,75	-45,760
184,97	35,631
185,18	-147,895
185,40	-707,115
185,62	218,041
185,84	-93,493
186,05	50,684
186,27	-81,480
186,49	2749,231
186,71	24,928
186,92	139,758
187,14	-152,277
187,36	144,907
187,58	57,198
187,79	-19,726
188,01	295,487
188,23	-157,045
188,45	3,730
188,66	82,054
188,88	-1856,000
189,10	-957,800
189,31	-52,867
189,53	-25,584
189,75	242,227
189,97	-109,308
190,18	-272,618
190,40	314,588
190,62	-98,438
190,83	-179,339
191,05	77,870
191,27	247,943
191,49	455,396
191,70	-642,212
191,92	-79,492
192,14	-29,911
192,35	509,496
192,57	4253,714
192,79	16,231
193,01	11,595
193,22	163,366
193,44	-146,553
193,66	83,233
193,87	131,863
194,09	-67,987
194,31	142,107
194,53	455,804
194,74	61,581
194,96	60,332
195,18	115,942
195,39	-245,594
195,61	-41,633
195,83	-229,739
196,04	145,859
196,26	20,704
196,48	15,237
196,70	249,463
196,91	12,604
197,13	235,646
197,35	56,796
197,56	851,022
197,78	1467,015
198,00	600,559
198,21	438,738
198,43	-551,628
198,65	147,466
198,86	354,245
199,08	4,197
199,30	317,773
199,51	-300,261
199,73	225,221
199,95	381,881
200,16	541,462
200,38	290,195
200,60	69,872
200,81	320,728
201,03	111,087
201,25	-1551,800
201,46	101,346
201,68	153,893
201,90	2974,545
202,11	-248,779
202,33	171,957
202,55	319,750
202,76	-81,785
202,98	330,592
203,20	-110,000
203,41	348,526
203,63	120,929
203,85	-101180,000
204,06	90,673
204,28	-74,651
204,50	59,200
204,71	173,993
204,93	-270,560
205,15	302,048
205,36	-212,390
205,58	197,658
205,80	-34,490
206,01	86,655
206,23	89,217
206,45	229,032
206,66	118,929
206,88	58,353
207,10	236,091
207,31	246,066
207,53	255,657
207,75	11,220
207,96	540,149
208,18	-97,406
208,39	160,413
208,61	2119,429
208,83	-350,049
209,04	264,839
209,26	-408,203
209,48	242,306
209,69	245,935
209,91	448,243
210,13	58,992
210,34	64,116
210,56	99,641
210,77	-1292,756
210,99	93,327
211,21	4522,353
211,42	-49,168
211,64	29,491
211,86	326,154
212,07	170,925
212,29	222,040
212,50	108,460
212,72	174,538
212,94	173,713
213,15	120,585
213,37	115,516
213,58	-132,550
213,80	-335,000
214,02	9075,294
214,23	145,219
214,45	378,951
214,67	-816,829
214,88	-128,121
215,10	-219,331
215,31	-46,332
215,53	62,227
215,75	280,835
215,96	1349,565
216,18	-159,437
216,39	320,974
216,61	399,738
216,83	-18,393
217,04	1116,629
217,26	49,968
217,47	114,064
217,69	232,681
217,91	154,433
218,12	-95780,000
218,34	99,518
218,55	523,820
218,77	51,850
218,99	48,176
219,20	-174,973
219,42	270,854
219,63	-23,838
219,85	-137,836
220,06	309,538
220,28	122,507
220,50	39,166
220,71	32,040
220,93	2197,736
221,14	-957,800
221,36	21,644
221,58	-61,236
221,79	127,312
222,01	-345,862
222,22	659,737
222,44	-774,382
222,65	120,929
222,87	65,594
223,09	105,925
223,30	40,209
223,52	80,273
223,73	176,364
223,95	38,563
224,16	128,825
224,38	235,498
224,60	64,681
224,81	7,146
225,03	134,229
225,24	79,619
225,46	148,638
225,67	71,680
225,89	5,209
226,10	220,723
226,32	1061,440
226,54	13,557
226,75	112,936
226,97	100,340
227,18	122,300
227,40	64,479
227,61	42,801
227,83	11,812
228,04	70,523
228,26	27,079
228,47	46,947
228,69	145,200
228,91	39,702
229,12	43,529
229,34	57,465
229,55	37,001
229,77	10,471
229,98	11,376
230,20	48,550
230,41	3,825
230,63	75,003
230,84	-16,031
231,06	-23,134
231,27	18,177
231,49	49,840
231,71	14,189
231,92	28,283
232,14	20,260
232,35	90,412
232,57	51,031
232,78	9,383
233,00	18,571
233,21	41,540
233,43	10,672
233,64	3,598
233,86	25,645
234,07	23,699
234,29	24,951
234,50	-0,135
234,72	35,551
234,93	12,821
235,15	27,981
235,36	25,406
235,58	27,290
235,79	30,527
236,01	22,886
236,22	13,808
236,44	34,654
236,65	13,022
236,87	11,374
237,08	0,060
237,30	-13,733
237,51	26,463
237,73	2,380
237,94	4,196
238,16	14,761
238,37	12,590
238,59	17,398
238,80	6,560
239,02	13,220
239,23	23,291
239,45	-1,414
239,66	17,312
239,88	24,803
240,09	35,643
240,31	2,180
240,52	14,027
240,74	10,101
240,95	9,564
241,17	10,528
241,38	10,649
241,60	13,134
241,81	22,281
242,03	3,469
242,24	9,214
242,46	23,305
242,67	4,272
242,89	9,528
243,10	17,521
243,32	13,990
243,53	16,279
243,75	9,510
243,96	17,269
244,18	12,550
244,39	11,844
244,60	5,562
244,82	5,835
245,03	17,637
245,25	8,394
245,46	20,907
245,68	-1,063
245,89	13,581
246,11	10,775
246,32	17,988
246,54	10,530
246,75	8,324
246,97	9,148
247,18	17,631
247,39	1,922
247,61	4,555
247,82	0,787
248,04	3,128
248,25	11,355
248,47	14,369
248,68	15,788
248,90	1,867
249,11	8,418
249,33	12,012
249,54	12,022
249,75	10,853
249,97	2,678
250,18	10,371
250,40	19,316
250,61	-8,372
250,83	2,191
251,04	3,771
251,25	9,075
251,47	3,040
251,68	12,681
251,90	10,802
252,11	6,808
252,33	4,211
252,54	6,759
252,76	6,195
252,97	4,401
253,18	0,604
253,40	6,021
253,61	3,678
253,83	10,229
254,04	7,382
254,25	6,713
254,47	2,343
254,68	7,389
254,90	10,095
255,11	3,052
255,33	11,664
255,54	3,539
255,75	3,956
255,97	7,548
256,18	5,259
256,40	4,944
256,61	9,976
256,82	0,432
257,04	10,036
257,25	2,791
257,47	11,952
257,68	2,373
257,89	9,485
258,11	8,794
258,32	3,279
258,54	7,726
258,75	14,762
258,96	11,952
259,18	4,379
259,39	5,474
259,61	8,953
259,82	5,147
260,03	6,715
260,25	6,331
260,46	2,753
260,68	7,316
260,89	4,017
261,10	4,633
261,32	4,614
261,53	6,769
261,75	7,688
261,96	-0,980
262,17	9,531
262,39	6,772
262,60	5,021
262,81	-1,934
263,03	8,181
263,24	4,110
263,46	0,714
263,67	3,957
263,88	9,540
264,10	8,700
264,31	6,281
264,52	4,596
264,74	10,479
264,95	9,652
265,17	8,512
265,38	3,039
265,59	8,337
265,81	12,186
266,02	-0,103
266,23	3,277
266,45	7,839
266,66	8,908
266,87	7,924
267,09	1,170
267,30	7,436
267,52	9,619
267,73	5,536
267,94	5,890
268,16	7,852
268,37	7,012
268,58	7,252
268,80	7,322
269,01	3,115
269,22	8,319
269,44	5,143
269,65	3,733
269,86	-2,532
270,08	6,776
270,29	4,520
270,50	4,150
270,72	6,943
270,93	3,230
271,14	4,800
271,36	5,922
271,57	7,294
271,78	8,956
272,00	7,320
272,21	9,867
272,42	8,258
272,64	8,189
272,85	5,111
273,06	3,494
273,28	8,166
273,49	4,393
273,70	8,644
273,92	6,237
274,13	9,695
274,34	6,524
274,56	6,107
274,77	1,938
274,98	8,129
275,20	3,580
275,41	6,686
275,62	5,263
275,84	7,384
276,05	12,954
276,26	4,564
276,47	3,268
276,69	9,378
276,90	10,315
277,11	6,763
277,33	5,287
277,54	9,308
277,75	7,950
277,97	4,714
278,18	4,214
278,39	8,589
278,61	4,240
278,82	7,584
279,03	4,668
279,24	5,783
279,46	4,768
279,67	6,674
279,88	5,566
280,10	8,207
280,31	3,349
280,52	6,019
280,73	2,057
280,95	7,555
281,16	8,114
281,37	3,462
281,59	11,003
281,80	7,301
282,01	4,100
282,22	4,717
282,44	4,729
282,65	13,183
282,86	8,272
283,08	4,059
283,29	5,905
283,50	4,563
283,71	4,995
283,93	5,330
284,14	9,525
284,35	2,409
284,56	8,225
284,78	5,273
284,99	3,604
285,20	9,965
285,42	7,488
285,63	5,134
285,84	2,259
286,05	6,676
286,27	5,821
286,48	2,392
286,69	3,579
286,90	5,474
287,12	6,148
287,33	4,115
287,54	0,880
287,75	5,650
287,97	5,824
288,18	6,248
288,39	4,412
288,60	5,595
288,82	6,807
289,03	4,175
289,24	6,719
289,45	10,610
289,67	5,630
289,88	1,602
290,09	4,320
290,30	3,939
290,52	5,916
290,73	2,057
290,94	0,864
291,15	2,974
291,37	5,178
291,58	4,546
291,79	3,454
292,00	7,259
292,21	7,135
292,43	2,822
292,64	2,568
292,85	5,555
293,06	6,491
293,28	4,480
293,49	2,782
293,70	8,491
293,91	2,208
294,12	6,623
294,34	3,721
294,55	5,452
294,76	5,355
294,97	6,565
295,19	-0,445
295,40	9,667
295,61	5,531
295,82	3,671
296,03	4,016
296,25	5,728
296,46	4,689
296,67	3,059
296,88	3,909
297,09	9,814
297,31	2,729
297,52	7,206
297,73	4,011
297,94	7,199
298,15	6,397
298,37	6,048
298,58	8,198
298,79	6,079
299,00	2,153
299,21	3,617
299,43	4,338
299,64	8,176
299,85	5,766
300,06	4,680
300,27	3,177
300,49	9,476
300,70	6,198
300,91	4,202
301,12	2,969
301,33	5,896
301,54	4,751
301,76	5,258
301,97	6,033
302,18	3,170
302,39	10,518
302,60	12,744
302,82	6,592
303,03	8,852
303,24	5,558
303,45	6,765
303,66	4,451
303,87	3,447
304,09	7,951
304,30	4,458
304,51	4,692
304,72	4,025
304,93	8,134
305,14	5,635
305,36	0,815
305,57	4,548
305,78	4,333
305,99	3,347
306,20	5,279
306,41	4,697
306,62	4,886
306,84	3,851
307,05	2,384
307,26	3,680
307,47	7,720
307,68	4,335
307,89	2,404
308,11	7,981
308,32	3,856
308,53	3,435
308,74	1,192
308,95	5,979
309,16	5,664
309,37	7,939
309,59	3,260
309,80	5,701
310,01	6,547
310,22	5,876
310,43	2,578
310,64	5,954
310,85	6,847
311,06	3,918
311,28	7,141
311,49	3,883
311,70	8,666
311,91	0,852
312,12	1,811
312,33	8,041
312,54	4,663
312,75	4,114
312,97	5,353
313,18	7,999
313,39	3,370
313,60	4,280
313,81	4,470
314,02	6,056
314,23	6,873
314,44	0,468
314,65	3,684
314,87	3,496
315,08	5,295
315,29	6,573
315,50	8,466
315,71	5,695
315,92	8,772
316,13	6,114
316,34	6,022
316,55	8,099
316,77	3,215
316,98	2,719
317,19	4,626
317,40	8,234
317,61	9,344
317,82	5,210
318,03	5,883
318,24	5,597
318,45	8,314
318,66	3,728
318,87	2,991
319,09	6,168
319,30	7,676
319,51	8,145
319,72	7,019
319,93	5,497
320,14	7,642
320,35	4,215
320,56	2,866
320,77	1,958
320,98	8,151
321,19	7,345
321,40	5,160
321,62	7,191
321,83	5,592
322,04	5,812
322,25	4,092
322,46	6,927
322,67	7,436
322,88	5,950
323,09	3,359
323,30	7,175
323,51	5,991
323,72	7,019
323,93	4,245
324,14	3,812
324,35	2,131
324,56	1,224
324,77	1,870
324,99	3,635
325,20	0,972
325,41	6,204
325,62	4,777
325,83	3,706
326,04	4,077
326,25	6,040
326,46	-0,390
326,67	4,839
326,88	4,947
327,09	2,908
327,30	4,030
327,51	3,647
327,72	6,886
327,93	6,972
328,14	1,477
328,35	5,856
328,56	5,764
328,77	3,541
328,98	5,333
329,19	5,093
329,40	5,140
329,61	3,918
329,82	1,792
330,04	3,464
330,25	4,216
330,46	4,431
330,67	1,253
330,88	3,298
331,09	6,207
331,30	3,513
331,51	6,179
331,72	5,606
331,93	7,452
332,14	4,845
332,35	6,776
332,56	2,992
332,77	5,980
332,98	1,430
333,19	5,662
333,40	4,268
333,61	2,168
333,82	9,210
334,03	5,029
334,24	6,634
334,45	5,507
334,66	5,549
334,87	5,393
335,08	1,469
335,29	4,517
335,50	3,117
335,71	2,686
335,92	6,890
336,13	7,683
336,34	4,683
336,55	4,889
336,76	6,724
336,97	5,844
337,18	3,069
337,39	3,773
337,60	6,032
337,81	4,780
338,02	3,544
338,23	4,641
338,44	4,055
338,65	5,832
338,86	5,854
339,07	6,000
339,28	6,219
339,49	4,373
339,70	3,258
339,91	4,654
340,11	8,123
340,32	2,834
340,53	2,718
340,74	3,140
340,95	4,055
341,16	5,780
341,37	3,109
341,58	3,638
341,79	2,923
342,00	4,735
342,21	4,076
342,42	5,100
342,63	6,197
342,84	2,956
343,05	4,025
343,26	5,988
343,47	5,630
343,68	4,778
343,89	3,137
344,10	3,337
344,31	6,715
344,52	3,967
344,73	3,892
344,94	5,366
345,14	5,057
345,35	6,456
345,56	6,780
345,77	3,463
345,98	4,072
346,19	4,199
346,40	5,541
346,61	2,520
346,82	5,335
347,03	3,616
347,24	7,135
347,45	3,008
347,66	10,396
347,87	1,843
348,08	8,362
348,28	1,751
348,49	6,769
348,70	8,580
348,91	5,449
349,12	1,410
349,33	19,687
349,54	0,162
349,75	7,971
349,96	5,419
350,17	4,729
350,38	0,860
350,59	8,008
350,80	3,833
351,00	7,616
351,21	8,287
351,42	2,995
351,63	0,829
351,84	4,130
352,05	7,867
352,26	2,674
352,47	2,202
352,68	7,304
352,89	7,432
353,09	4,059
353,30	3,474
353,51	6,274
353,72	6,468
353,93	5,857
354,14	0,753
354,35	5,061
354,56	5,644
354,77	5,629
354,98	1,717
355,18	4,861
355,39	10,922
355,60	3,650
355,81	5,234
356,02	5,037
356,23	7,139
356,44	4,960
356,65	6,711
356,85	6,533
357,06	8,887
357,27	6,062
357,48	2,561
357,69	6,968
357,90	5,838
358,11	1,753
358,32	6,129
358,52	8,642
358,73	6,807
358,94	1,569
359,15	7,865
359,36	8,845
359,57	3,381
359,78	3,787
359,98	5,537
360,19	1,639
360,40	5,653
360,61	6,537
360,82	2,461
361,03	12,310
361,24	7,230
361,44	2,735
361,65	3,797
361,86	3,544
362,07	7,268
362,28	6,741
362,49	5,733
362,70	3,478
362,90	5,434
363,11	1,792
363,32	3,249
363,53	5,174
363,74	8,200
363,95	8,626
364,15	6,377
364,36	7,055
364,57	5,597
364,78	3,133
364,99	4,114
365,20	6,265
365,40	3,481
365,61	2,499
365,82	5,680
366,03	6,595
366,24	6,085
366,45	4,219
366,65	3,454
366,86	3,455
367,07	5,130
367,28	3,160
367,49	4,288
367,69	8,459
367,90	7,163
368,11	3,564
368,32	3,286
368,53	6,255
368,73	7,107
368,94	4,963
369,15	3,976
369,36	7,139
369,57	4,002
369,78	4,884
369,98	8,301
370,19	11,088
370,40	6,296
370,61	2,903
370,82	3,144
371,02	6,197
371,23	9,077
371,44	5,380
371,65	6,008
371,85	5,437
372,06	5,170
372,27	5,863
372,48	4,579
372,69	4,518
372,89	0,763
373,10	2,819
373,31	2,862
373,52	7,682
373,73	11,596
373,93	5,603
374,14	4,993
374,35	5,385
374,56	8,045
374,76	6,017
374,97	6,586
375,18	4,476
375,39	5,861
375,60	4,926
375,80	6,170
376,01	4,973
376,22	7,534
376,43	3,558
376,63	3,906
376,84	5,765
377,05	4,906
377,26	5,130
377,46	0,990
377,67	4,119
377,88	5,890
378,09	5,964
378,29	3,949
378,50	6,715
378,71	7,110
378,92	3,272
379,12	6,285
379,33	5,703
379,54	4,995
379,75	5,942
379,95	4,083
380,16	7,607
380,37	7,872
380,58	5,383
380,78	7,332
380,99	3,409
381,20	6,199
381,41	3,352
381,61	4,862
381,82	6,946
382,03	4,329
382,24	8,152
382,44	6,919
382,65	4,822
382,86	5,251
383,06	3,296
383,27	7,037
383,48	7,430
383,69	8,974
383,89	4,925
384,10	5,934
384,31	4,817
384,51	7,689
384,72	5,911
384,93	4,684
385,14	6,347
385,34	7,489
385,55	4,171
385,76	5,724
385,96	5,822
386,17	6,417
386,38	8,302
386,59	6,689
386,79	3,064
387,00	8,960
387,21	11,096
387,41	7,625
387,62	6,239
387,83	6,692
388,03	5,145
388,24	3,512
388,45	5,808
388,66	3,646
388,86	5,820
389,07	4,481
389,28	7,301
389,48	6,809
389,69	4,720
389,90	3,193
390,10	9,212
390,31	6,240
390,52	0,678
390,72	0,960
390,93	5,715
391,14	3,258
391,34	6,324
391,55	9,155
391,76	10,448
391,96	3,938
392,17	4,138
392,38	9,781
392,58	6,457
392,79	4,875
393,00	3,218
393,20	5,862
393,41	6,955
393,62	4,894
393,82	6,353
394,03	4,020
394,24	7,435
394,44	12,908
394,65	7,509
394,86	4,751
395,06	8,094
395,27	5,301
395,48	2,207
395,68	7,308
395,89	7,826
396,10	7,554
396,30	6,030
396,51	0,720
396,72	6,307
396,92	5,244
397,13	6,053
397,34	1,613
397,54	8,894
397,75	3,361
397,95	0,829
398,16	4,893
398,37	4,526
398,57	7,087
398,78	5,442
398,99	9,572
399,19	7,389
399,40	9,957
399,60	6,250
399,81	6,190
400,02	7,865
400,22	8,140
400,43	2,936
400,64	4,009
400,84	6,797
401,05	8,567
401,25	8,431
401,46	10,764
401,67	6,293
401,87	4,727
402,08	3,790
402,29	3,148
402,49	9,569
402,70	7,738
402,90	4,619
403,11	3,157
403,32	10,268
403,52	4,597
403,73	9,375
403,93	7,039
404,14	11,143
404,35	4,273
404,55	5,553
404,76	4,470
404,96	7,128
405,17	7,714
405,38	9,230
405,58	3,576
405,79	4,499
405,99	7,689
406,20	6,925
406,40	3,763
406,61	9,662
406,82	7,786
407,02	9,883
407,23	4,366
407,43	4,830
407,64	2,982
407,85	6,440
408,05	-0,266
408,26	14,567
408,46	8,670
408,67	3,792
408,87	6,002
409,08	8,575
409,29	9,006
409,49	9,424
409,70	7,595
409,90	8,792
410,11	3,641
410,31	11,985
410,52	7,654
410,72	3,245
410,93	8,222
411,14	5,919
411,34	2,920
411,55	9,133
411,75	12,670
411,96	8,188
412,16	8,343
412,37	8,676
412,57	7,930
412,78	6,562
412,99	5,836
413,19	4,175
413,40	8,325
413,60	5,950
413,81	5,912
414,01	5,262
414,22	2,825
414,42	4,206
414,63	4,055
414,83	10,268
415,04	8,035
415,24	8,519
415,45	5,782
415,65	6,986
415,86	10,317
416,07	5,166
416,27	6,796
416,48	10,648
416,68	11,075
416,89	3,205
417,09	3,353
417,30	11,844
417,50	10,174
417,71	10,454
417,91	8,001
418,12	3,994
418,32	10,628
418,53	6,917
418,73	4,579
418,94	7,914
419,14	9,387
419,35	2,989
419,55	5,162
419,76	6,112
419,96	4,667
420,17	6,709
420,37	5,616
420,58	12,976
420,78	10,638
420,99	7,073
421,19	8,541
421,40	6,320
421,60	10,807
421,81	4,848
422,01	7,057
422,22	5,535
422,42	9,454
422,63	7,003
422,83	6,919
423,04	9,980
423,24	8,520
423,45	5,450
423,65	9,708
423,86	10,427
424,06	11,021
424,27	5,236
424,47	4,602
424,67	5,553
424,88	7,772
425,08	9,158
425,29	15,941
425,49	6,212
425,70	2,872
425,90	9,939
426,11	8,691
426,31	8,412
426,52	9,389
426,72	4,303
426,93	4,379
427,13	11,222
427,33	7,347
427,54	11,138
427,74	11,842
427,95	12,303
428,15	3,215
428,36	6,670
428,56	8,222
428,77	11,877
428,97	9,410
429,18	9,038
429,38	8,474
429,58	8,654
429,79	10,762
429,99	5,200
430,20	0,981
430,40	10,094
430,61	6,157
430,81	5,314
431,01	10,018
431,22	10,053
431,42	12,262
431,63	3,795
431,83	7,113
432,04	8,602
432,24	11,637
432,44	4,222
432,65	5,703
432,85	9,007
433,06	9,345
433,26	8,006
433,47	7,519
433,67	4,553
433,87	9,648
434,08	3,811
434,28	9,791
434,49	5,865
434,69	12,799
434,89	7,216
435,10	7,159
435,30	11,046
435,51	8,334
435,71	7,058
435,91	4,928
436,12	8,869
436,32	9,927
436,53	8,188
436,73	9,277
436,93	7,395
437,14	6,694
437,34	7,879
437,55	6,820
437,75	9,182
437,95	9,176
438,16	8,277
438,36	8,399
438,57	4,316
438,77	5,706
438,97	6,915
439,18	12,471
439,38	6,285
439,58	7,575
439,79	7,177
439,99	6,332
440,20	9,756
440,40	7,618
440,60	12,338
440,81	9,057
441,01	7,130
441,21	12,181
441,42	9,803
441,62	10,083
441,83	9,601
442,03	7,408
442,23	9,569
442,44	8,386
442,64	8,349
442,84	7,158
443,05	8,868
443,25	9,477
443,45	9,802
443,66	10,354
443,86	5,485
444,06	5,902
444,27	6,008
444,47	11,374
444,67	5,952
444,88	10,822
445,08	6,988
445,28	10,464
445,49	3,231
445,69	4,762
445,90	8,641
446,10	13,376
446,30	12,275
446,51	10,510
446,71	11,772
446,91	14,650
447,12	11,807
447,32	8,992
447,52	10,546
447,72	11,766
447,93	9,969
448,13	5,146
448,33	17,550
448,54	15,342
448,74	1,900
448,94	12,261
449,15	12,918
449,35	10,143
449,55	10,546
449,76	14,889
449,96	11,131
450,16	11,480
450,37	10,037
450,57	11,493
450,77	9,950
450,98	9,625
451,18	13,024
451,38	12,283
451,58	13,458
451,79	11,094
451,99	11,452
452,19	12,946
452,40	11,659
452,60	8,574
452,80	7,495
453,00	11,383
453,21	14,731
453,41	14,263
453,61	7,873
453,82	14,550
454,02	7,613
454,22	13,540
454,42	15,177
454,63	9,827
454,83	15,307
455,03	13,327
455,24	12,761
455,44	11,497
455,64	13,529
455,84	11,357
456,05	4,565
456,25	8,385
456,45	16,030
456,65	9,176
456,86	14,496
457,06	12,704
457,26	16,182
457,47	16,440
457,67	14,533
457,87	14,598
458,07	12,371
458,28	16,000
458,48	17,946
458,68	10,622
458,88	17,715
459,09	17,074
459,29	15,454
459,49	11,812
459,69	14,797
459,90	16,938
460,10	11,254
460,30	14,084
460,50	12,023
460,71	17,142
460,91	11,154
461,11	15,536
461,31	13,880
461,52	17,752
461,72	11,115
461,92	15,828
462,12	21,301
462,32	10,170
462,53	14,606
462,73	13,551
462,93	15,881
463,13	13,166
463,34	12,441
463,54	17,542
463,74	18,191
463,94	16,764
464,14	12,786
464,35	15,938
464,55	21,210
464,75	22,453
464,95	19,493
465,16	15,678
465,36	15,796
465,56	14,080
465,76	14,598
465,96	16,343
466,17	18,288
466,37	14,046
466,57	19,267
466,77	19,012
466,97	15,999
467,18	20,219
467,38	19,882
467,58	18,748
467,78	20,748
467,98	16,454
468,19	19,903
468,39	20,956
468,59	21,662
468,79	19,362
468,99	15,259
469,19	15,344
469,40	20,251
469,60	13,790
469,80	17,378
470,00	25,756
470,20	21,634
470,41	20,872
470,61	21,229
470,81	22,428
471,01	15,742
471,21	19,964
471,41	19,197
471,62	19,139
471,82	17,306
472,02	19,824
472,22	19,609
472,42	17,333
472,62	23,740
472,83	18,918
473,03	25,504
473,23	19,208
473,43	25,725
473,63	22,673
473,83	24,583
474,03	23,850
474,24	23,839
474,44	21,814
474,64	22,124
474,84	22,096
475,04	23,760
475,24	23,998
475,45	22,547
475,65	22,222
475,85	27,645
476,05	18,326
476,25	23,979
476,45	24,630
476,65	27,089
476,85	23,967
477,06	26,802
477,26	20,419
477,46	22,448
477,66	24,530
477,86	25,960
478,06	24,036
478,26	29,889
478,46	25,334
478,67	26,486
478,87	23,356
479,07	24,392
479,27	28,629
479,47	25,027
479,67	20,976
479,87	24,412
480,07	26,138
480,28	25,365
480,48	23,049
480,68	25,104
480,88	29,112
481,08	25,854
481,28	28,642
481,48	29,004
481,68	24,420
481,88	23,261
482,08	26,252
482,29	29,142
482,49	26,035
482,69	27,532
482,89	25,209
483,09	31,125
483,29	27,329
483,49	28,493
483,69	29,100
483,89	28,162
484,09	23,009
484,29	25,800
484,50	28,229
484,70	25,234
484,90	27,768
485,10	27,741
485,30	31,968
485,50	31,793
485,70	30,613
485,90	28,508
486,10	25,556
486,30	26,340
486,50	29,386
486,70	27,217
486,90	28,210
487,10	31,481
487,30	29,492
487,51	28,247
487,71	26,652
487,91	27,492
488,11	31,102
488,31	27,147
488,51	31,173
488,71	29,589
488,91	31,697
489,11	30,240
489,31	29,590
489,51	31,457
489,71	30,564
489,91	31,947
490,11	30,215
490,31	30,951
490,51	34,508
490,71	30,656
490,91	31,109
491,11	33,610
491,31	36,584
491,51	30,220
491,72	30,936
491,92	32,175
492,12	34,410
492,32	34,334
492,52	36,511
492,72	33,269
492,92	33,834
493,12	36,337
493,32	33,629
493,52	30,056
493,72	34,205
493,92	36,523
494,12	33,630
494,32	34,948
494,52	33,655
494,72	34,413
494,92	32,757
495,12	33,343
495,32	40,220
495,52	35,494
495,72	36,148
495,92	37,377
496,12	39,910
496,32	33,778
496,52	36,492
496,72	35,927
496,92	38,600
497,12	35,245
497,32	37,680
497,52	39,297
497,72	38,316
497,92	38,281
498,12	35,197
498,32	38,605
498,52	35,688
498,72	36,503
498,92	38,518
499,12	41,061
499,32	37,210
499,52	39,274
499,72	40,036
499,92	40,532
500,12	40,099
500,32	40,721
500,52	39,812
500,72	42,563
500,91	41,021
501,11	41,552
501,31	34,566
501,51	39,543
501,71	41,628
501,91	41,157
502,11	39,253
502,31	40,753
502,51	44,238
502,71	38,416
502,91	38,128
503,11	40,982
503,31	39,362
503,51	39,110
503,71	37,482
503,91	43,667
504,11	42,437
504,31	42,651
504,51	42,348
504,71	45,982
504,91	44,463
505,10	40,312
505,30	42,941
505,50	42,416
505,70	40,755
505,90	40,129
506,10	38,500
506,30	43,218
506,50	42,755
506,70	45,696
506,90	43,412
507,10	43,551
507,30	44,445
507,50	44,341
507,70	43,433
507,89	45,585
508,09	42,533
508,29	41,608
508,49	43,603
508,69	43,080
508,89	41,963
509,09	40,458
509,29	44,553
509,49	45,264
509,69	48,068
509,89	44,676
510,09	43,548
510,28	44,514
510,48	43,232
510,68	43,513
510,88	42,976
511,08	42,570
511,28	42,612
511,48	42,600
511,68	43,659
511,88	41,637
512,07	43,293
512,27	46,524
512,47	45,099
512,67	44,374
512,87	42,515
513,07	43,356
513,27	42,630
513,47	44,054
513,67	41,950
513,86	45,804
514,06	43,325
514,26	43,076
514,46	46,799
514,66	42,139
514,86	43,026
515,06	47,228
515,26	47,756
515,45	46,488
515,65	43,692
515,85	44,161
516,05	47,502
516,25	44,629
516,45	48,498
516,65	43,572
516,84	46,162
517,04	47,879
517,24	44,175
517,44	47,110
517,64	45,950
517,84	48,257
518,04	46,346
518,23	48,171
518,43	49,125
518,63	42,841
518,83	43,251
519,03	44,546
519,23	46,222
519,42	46,601
519,62	46,339
519,82	42,693
520,02	46,053
520,22	45,269
520,42	43,737
520,61	44,838
520,81	48,280
521,01	48,327
521,21	44,456
521,41	46,748
521,61	49,321
521,80	46,596
522,00	48,277
522,20	49,065
522,40	48,158
522,60	44,896
522,79	46,617
522,99	48,955
523,19	43,512
523,39	45,405
523,59	44,663
523,78	48,016
523,98	46,150
524,18	45,813
524,38	43,079
524,58	46,187
524,77	47,746
524,97	46,771
525,17	45,395
525,37	46,361
525,57	50,140
525,76	44,260
525,96	47,378
526,16	46,071
526,36	43,567
526,56	43,819
526,75	43,989
526,95	47,993
527,15	46,368
527,35	45,606
527,55	45,731
527,74	48,221
527,94	47,122
528,14	44,224
528,34	44,552
528,53	47,010
528,73	48,207
528,93	47,278
529,13	43,425
529,32	47,038
529,52	47,225
529,72	44,017
529,92	45,839
530,12	46,460
530,31	44,934
530,51	47,828
530,71	49,622
530,91	49,761
531,10	42,960
531,30	45,706
531,50	45,805
531,70	50,144
531,89	45,576
532,09	46,307
532,29	45,058
532,49	47,426
532,68	48,169
532,88	45,474
533,08	45,182
533,28	46,056
533,47	45,968
533,67	46,247
533,87	43,867
534,06	51,996
534,26	44,440
534,46	44,534
534,66	47,555
534,85	46,592
535,05	42,121
535,25	43,314
535,45	42,081
535,64	47,326
535,84	43,488
536,04	45,643
536,23	48,177
536,43	46,487
536,63	45,465
536,83	48,189
537,02	43,663
537,22	44,808
537,42	43,818
537,61	44,370
537,81	46,149
538,01	44,840
538,20	43,184
538,40	43,225
538,60	44,501
538,80	41,659
538,99	41,643
539,19	39,773
539,39	40,758
539,58	42,611
539,78	38,079
539,98	38,579
540,17	36,606
540,37	38,797
540,57	37,472
540,76	37,469
540,96	33,187
541,16	35,612
541,36	34,497
541,55	31,236
541,75	32,313
541,95	32,575
542,14	33,274
542,34	30,288
542,54	29,611
542,73	32,313
542,93	34,173
543,13	31,414
543,32	32,604
543,52	31,378
543,72	29,829
543,91	30,117
544,11	31,802
544,31	31,163
544,50	30,656
544,70	32,723
544,89	32,090
545,09	33,644
545,29	33,310
545,48	34,041
545,68	31,352
545,88	33,694
546,07	35,449
546,27	33,986
546,47	35,221
546,66	37,412
546,86	37,740
547,06	35,342
547,25	36,446
547,45	40,814
547,64	39,142
547,84	43,198
548,04	38,681
548,23	42,018
548,43	41,481
548,63	44,251
548,82	40,624
549,02	41,656
549,21	40,962
549,41	43,663
549,61	42,380
549,80	43,232
550,00	43,164
550,20	38,799
550,39	43,793
550,59	41,304
550,78	46,766
550,98	40,794
551,18	45,599
551,37	44,491
551,57	45,542
551,76	43,130
551,96	44,705
552,16	44,903
552,35	42,807
552,55	43,488
552,74	45,063
552,94	45,021
553,14	44,467
553,33	45,557
553,53	45,295
553,72	47,022
553,92	47,223
554,12	45,420
554,31	45,633
554,51	46,492
554,70	46,353
554,90	46,819
555,09	46,675
555,29	46,665
555,49	46,513
555,68	48,588
555,88	46,612
556,07	47,266
556,27	49,765
556,46	44,974
556,66	42,484
556,86	50,522
557,05	46,643
557,25	44,139
557,44	43,632
557,64	47,028
557,83	49,081
558,03	45,661
558,22	45,066
558,42	48,282
558,62	49,310
558,81	47,955
559,01	46,737
559,20	45,712
559,40	48,177
559,59	45,369
559,79	46,628
559,98	48,848
560,18	48,338
560,37	47,570
560,57	45,247
560,76	46,437
560,96	47,333
561,16	48,421
561,35	46,887
561,55	50,896
561,74	48,236
561,94	50,289
562,13	46,144
562,33	48,578
562,52	48,306
562,72	48,205
562,91	45,616
563,11	47,560
563,30	48,788
563,50	45,679
563,69	44,680
563,89	46,114
564,08	46,944
564,28	47,647
564,47	45,995
564,67	46,204
564,86	47,737
565,06	45,115
565,25	48,666
565,45	47,007
565,64	52,157
565,84	47,087
566,03	46,074
566,23	50,089
566,42	47,220
566,62	48,348
566,81	48,573
567,01	48,847
567,20	48,746
567,40	44,891
567,59	45,941
567,79	50,000
567,98	50,541
568,18	48,224
568,37	48,691
568,57	49,208
568,76	47,840
568,96	46,240
569,15	46,867
569,35	48,729
569,54	51,077
569,73	48,723
569,93	46,571
570,12	46,770
570,32	50,294
570,51	46,762
570,71	49,130
570,90	49,501
571,10	45,823
571,29	45,077
571,49	46,857
571,68	48,232
571,87	48,104
572,07	45,742
572,26	45,742
572,46	47,388
572,65	48,319
572,85	43,748
573,04	47,021
573,24	47,431
573,43	49,491
573,62	47,928
573,82	47,820
574,01	47,120
574,21	47,366
574,40	44,963
574,60	46,560
574,79	48,218
574,98	45,373
575,18	46,788
575,37	45,373
575,57	47,177
575,76	46,333
575,96	46,064
576,15	45,666
576,34	46,373
576,54	45,082
576,73	46,473
576,93	46,055
577,12	46,489
577,31	47,597
577,51	45,262
577,70	46,177
577,90	44,716
578,09	44,928
578,28	45,459
578,48	45,432
578,67	47,696
578,87	46,128
579,06	44,617
579,25	44,798
579,45	46,866
579,64	44,856
579,84	43,139
580,03	44,079
580,22	47,656
580,42	42,920
580,61	46,205
580,81	43,659
581,00	45,251
581,19	46,312
581,39	44,532
581,58	45,248
581,77	45,770
581,97	47,002
582,16	44,274
582,35	45,162
582,55	43,976
582,74	45,922
582,94	44,300
583,13	43,133
583,32	45,121
583,52	45,375
583,71	43,983
583,90	45,065
584,10	45,470
584,29	45,126
584,48	44,091
584,68	44,781
584,87	44,206
585,06	43,484
585,26	42,781
585,45	42,308
585,65	45,855
585,84	43,623
586,03	43,956
586,23	42,556
586,42	44,821
586,61	45,162
586,81	44,758
587,00	45,737
587,19	42,590
587,39	45,484
587,58	45,151
587,77	45,767
587,97	43,332
588,16	43,825
588,35	44,110
588,54	44,947
588,74	44,559
588,93	49,142
589,12	44,428
589,32	44,843
589,51	46,768
589,70	45,555
589,90	43,743
590,09	44,801
590,28	48,075
590,48	44,568
590,67	45,474
590,86	46,054
591,06	44,652
591,25	48,083
591,44	46,717
591,63	45,705
591,83	46,105
592,02	44,255
592,21	44,950
592,41	44,798
592,60	44,165
592,79	45,750
592,98	45,119
593,18	45,505
593,37	43,680
593,56	48,154
593,76	45,070
593,95	44,768
594,14	43,864
594,33	48,363
594,53	45,782
594,72	45,164
594,91	48,999
595,10	46,564
595,30	45,085
595,49	45,691
595,68	48,361
595,88	47,116
596,07	47,699
596,26	46,338
596,45	46,761
596,65	41,282
596,84	44,973
597,03	46,166
597,22	48,242
597,42	48,178
597,61	46,291
597,80	44,768
597,99	46,616
598,19	48,705
598,38	46,756
598,57	45,085
598,76	46,877
598,95	47,312
599,15	46,405
599,34	46,462
599,53	47,424
599,72	46,487
599,92	45,622
600,11	47,647
600,30	45,969
600,49	47,326
600,69	46,221
600,88	47,527
601,07	46,123
601,26	46,502
601,45	46,809
601,65	45,826
601,84	47,483
602,03	46,937
602,22	48,869
602,42	48,659
602,61	47,756
602,80	48,800
602,99	47,768
603,18	46,720
603,38	47,457
603,57	46,102
603,76	46,221
603,95	46,011
604,14	47,716
604,34	46,960
604,53	46,140
604,72	46,408
604,91	46,436
605,10	47,203
605,29	47,912
605,49	44,700
605,68	47,081
605,87	46,392
606,06	47,166
606,25	45,207
606,45	47,245
606,64	47,670
606,83	46,571
607,02	46,195
607,21	47,105
607,40	46,049
607,60	43,018
607,79	43,273
607,98	42,979
608,17	42,319
608,36	42,262
608,55	43,987
608,75	43,200
608,94	42,859
609,13	38,132
609,32	38,211
609,51	37,282
609,70	38,660
609,89	39,453
610,09	37,815
610,28	39,869
610,47	38,257
610,66	37,314
610,85	35,667
611,04	38,051
611,23	37,018
611,43	36,810
611,62	36,760
611,81	36,959
612,00	36,869
612,19	36,522
612,38	37,610
612,57	38,982
612,77	38,214
612,96	39,257
613,15	40,149
613,34	41,833
613,53	41,762
613,72	41,499
613,91	42,854
614,10	41,913
614,29	43,048
614,49	41,861
614,68	40,910
614,87	43,151
615,06	45,271
615,25	41,439
615,44	45,319
615,63	43,753
615,82	43,127
616,01	44,439
616,21	42,286
616,40	44,473
616,59	47,349
616,78	44,452
616,97	45,142
617,16	45,484
617,35	46,258
617,54	44,679
617,73	46,953
617,92	45,787
618,11	47,082
618,31	44,078
618,50	45,511
618,69	44,729
618,88	44,915
619,07	44,559
619,26	43,806
619,45	45,679
619,64	45,006
619,83	43,295
620,02	44,065
620,21	48,208
620,40	45,103
620,59	45,096
620,78	44,028
620,97	46,178
621,17	45,351
621,36	45,565
621,55	45,124
621,74	44,706
621,93	45,068
622,12	44,591
622,31	42,742
622,50	44,938
622,69	47,512
622,88	46,030
623,07	46,806
623,26	46,235
623,45	48,110
623,64	46,619
623,83	45,002
624,02	46,746
624,21	45,824
624,40	44,721
624,59	43,584
624,78	46,168
624,97	48,266
625,16	43,840
625,35	43,566
625,54	44,663
625,73	46,434
625,92	45,962
626,12	46,589
626,31	49,005
626,50	45,731
626,69	46,279
626,88	44,698
627,07	47,328
627,26	47,173
627,45	44,820
627,64	44,218
627,83	47,011
628,02	44,003
628,21	44,603
628,40	44,729
628,59	47,113
628,78	45,448
628,97	44,176
629,16	44,816
629,35	46,157
629,54	46,593
629,73	45,229
629,92	44,608
630,10	46,439
630,29	45,576
630,48	44,873
630,67	44,066
630,86	46,663
631,05	46,154
631,24	46,742
631,43	45,382
631,62	45,723
631,81	47,626
632,00	45,099
632,19	43,774
632,38	46,496
632,57	47,813
632,76	46,108
632,95	47,459
633,14	49,709
633,33	47,933
633,52	47,866
633,71	47,626
633,90	47,621
634,09	46,582
634,28	47,843
634,47	46,333
634,66	46,396
634,85	46,895
635,04	48,575
635,22	47,006
635,41	47,176
635,60	49,178
635,79	48,149
635,98	45,638
636,17	46,002
636,36	45,722
636,55	46,868
636,74	45,008
636,93	47,368
637,12	48,701
637,31	46,677
637,50	45,359
637,69	50,267
637,87	48,892
638,06	48,012
638,25	48,020
638,44	47,416
638,63	47,024
638,82	46,595
639,01	47,094
639,20	48,213
639,39	48,491
639,58	47,466
639,77	47,792
639,95	47,403
640,14	47,004
640,33	46,510
640,52	47,671
640,71	48,679
640,90	45,477
641,09	48,800
641,28	46,758
641,47	49,305
641,66	47,992
641,84	48,211
642,03	47,552
642,22	48,333
642,41	48,678
642,60	47,977
642,79	48,487
642,98	47,164
643,17	47,224
643,35	48,957
643,54	47,225
643,73	47,440
643,92	47,806
644,11	47,156
644,30	47,631
644,49	50,608
644,67	47,985
644,86	46,164
645,05	48,465
645,24	46,498
645,43	47,583
645,62	46,544
645,81	49,056
645,99	50,261
646,18	48,647
646,37	48,168
646,56	47,999
646,75	48,086
646,94	49,162
647,13	45,819
647,31	46,126
647,50	48,391
647,69	50,042
647,88	48,331
648,07	47,314
648,26	48,874
648,44	48,218
648,63	47,275
648,82	47,189
649,01	49,748
649,20	47,434
649,38	45,505
649,57	48,463
649,76	46,575
649,95	47,651
650,14	46,293
650,33	45,501
650,51	46,539
650,70	48,608
650,89	46,770
651,08	46,535
651,27	47,738
651,45	46,498
651,64	45,168
651,83	47,536
652,02	47,965
652,21	48,677
652,39	49,832
652,58	46,968
652,77	48,469
652,96	47,897
653,15	48,462
653,33	48,675
653,52	47,626
653,71	47,584
653,90	47,395
654,09	46,316
654,27	48,099
654,46	48,769
654,65	47,031
654,84	46,750
655,02	49,620
655,21	47,076
655,40	48,760
655,59	47,625
655,77	48,123
655,96	46,880
656,15	47,359
656,34	50,693
656,53	46,501
656,71	47,709
656,90	46,801
657,09	48,615
657,28	48,005
657,46	46,324
657,65	48,181
657,84	46,649
658,03	47,718
658,21	48,495
658,40	47,287
658,59	47,637
658,78	47,641
658,96	46,713
659,15	48,422
659,34	46,811
659,52	48,929
659,71	47,232
659,90	46,851
660,09	46,685
660,27	48,559
660,46	49,075
660,65	47,649
660,84	46,668
661,02	47,222
661,21	46,921
661,40	48,056
661,58	46,941
661,77	47,386
661,96	44,956
662,15	48,405
662,33	46,570
662,52	46,588
662,71	48,260
662,89	46,112
663,08	46,377
663,27	49,107
663,45	47,389
663,64	47,704
663,83	45,563
664,02	47,685
664,20	48,880
664,39	46,202
664,58	47,154
664,76	47,130
664,95	46,995
665,14	48,559
665,32	46,191
665,51	48,568
665,70	48,789
665,88	46,831
666,07	48,793
666,26	50,352
666,44	49,542
666,63	46,760
666,82	46,988
667,00	48,664
667,19	46,047
667,38	46,475
667,56	47,859
667,75	47,286
667,94	48,103
668,12	46,841
668,31	47,966
668,50	47,948
668,68	48,172
668,87	47,387
669,06	48,524
669,24	49,147
669,43	46,737
669,62	45,545
669,80	46,293
669,99	47,534
670,18	47,622
670,36	46,434
670,55	48,052
670,74	48,309
670,92	45,479
671,11	47,749
671,29	46,843
671,48	47,744
671,67	47,523
671,85	48,785
672,04	45,209
672,23	46,292
672,41	46,534
672,60	47,767
672,78	46,307
672,97	48,005
673,16	46,715
673,34	46,912
673,53	47,772
673,71	47,897
673,90	49,891
674,09	47,948
674,27	46,536
674,46	46,943
674,64	48,185
674,83	46,979
675,02	45,574
675,20	46,371
675,39	46,290
675,57	47,751
675,76	43,959
675,95	49,715
676,13	49,966
676,32	49,200
676,50	46,959
676,69	46,102
676,88	46,875
677,06	47,112
677,25	47,158
677,43	50,094
677,62	47,297
677,80	47,955
677,99	46,666
678,18	49,157
678,36	49,514
678,55	45,853
678,73	47,986
678,92	48,109
679,10	47,239
679,29	47,538
679,48	45,950
679,66	46,538
679,85	48,254
680,03	47,386
680,22	46,472
680,40	45,829
680,59	46,732
680,77	47,049
680,96	46,557
681,15	46,304
681,33	47,690
681,52	46,154
681,70	46,195
681,89	48,543
682,07	47,328
682,26	47,762
682,44	47,965
682,63	47,361
682,81	47,337
683,00	48,222
683,18	45,700
683,37	48,123
683,55	46,744
683,74	47,768
683,92	53,030
684,11	46,609
684,29	48,047
684,48	46,473
684,67	47,071
684,85	47,136
685,04	48,052
685,22	47,442
685,41	47,072
685,59	47,795
685,78	47,234
685,96	46,186
686,15	46,580
686,33	47,037
686,52	46,309
686,70	48,099
686,89	46,791
687,07	49,195
687,26	48,739
687,44	47,797
687,62	46,495
687,81	47,195
687,99	46,931
688,18	47,733
688,36	47,044
688,55	49,470
688,73	47,839
688,92	44,147
689,10	47,630
689,29	47,804
689,47	48,141
689,66	47,735
689,84	47,405
690,03	49,189
690,21	46,524
690,40	46,646
690,58	46,486
690,76	46,296
690,95	48,050
691,13	45,681
691,32	48,708
691,50	47,361
691,69	48,872
691,87	46,614
692,06	46,944
692,24	44,852
692,43	47,461
692,61	45,979
692,79	47,437
692,98	46,319
693,16	49,364
693,35	44,202
693,53	47,007
693,72	48,495
693,90	48,332
694,08	46,061
694,27	45,541
694,45	49,151
694,64	49,513
694,82	46,704
695,01	45,392
695,19	47,650
695,37	48,203
695,56	44,944
695,74	47,925
695,93	47,178
696,11	45,489
696,29	47,932
696,48	47,663
696,66	48,339
696,85	46,896
697,03	44,982
697,21	47,933
697,40	47,123
697,58	49,456
697,77	47,086
697,95	48,609
698,13	48,037
698,32	46,072
698,50	45,811
698,69	45,965
698,87	48,254
699,05	47,410
699,24	46,493
699,42	47,561
699,60	44,734
699,79	46,153
699,97	46,943
700,16	46,320
700,34	49,019
700,52	47,712
700,71	48,832
700,89	46,674
701,07	47,692
701,26	48,254
701,44	46,182
701,63	46,704
701,81	47,593
701,99	48,965
702,18	47,605
702,36	45,807
702,54	47,029
702,73	46,767
702,91	46,015
703,09	46,186
703,28	45,550
703,46	47,675
703,64	47,550
703,83	45,784
704,01	47,418
704,19	47,503
704,38	44,825
704,56	46,059
704,74	48,891
704,93	47,976
705,11	46,037
705,29	45,918
705,48	50,454
705,66	47,350
705,84	46,473
706,03	44,137
706,21	47,717
706,39	46,965
706,58	44,676
706,76	46,724
706,94	49,097
707,12	47,172
707,31	45,486
707,49	44,348
707,67	46,515
707,86	46,878
708,04	46,828
708,22	45,033
708,41	46,791
708,59	46,054
708,77	45,335
708,95	48,877
709,14	49,583
709,32	46,122
709,50	44,077
709,69	46,107
709,87	46,253
710,05	46,186
710,23	44,933
710,42	44,403
710,60	46,699
710,78	46,745
710,97	45,007
711,15	46,778
711,33	47,532
711,51	45,829
711,70	44,728
711,88	45,650
712,06	48,286
712,24	47,280
712,43	46,054
712,61	46,208
712,79	45,813
712,97	45,506
713,16	46,181
713,34	45,254
713,52	48,033
713,70	45,663
713,89	46,007
714,07	45,685
714,25	45,886
714,43	48,780
714,62	45,736
714,80	46,702
714,98	43,879
715,16	46,786
715,35	45,443
715,53	45,850
715,71	47,111
715,89	47,758
716,07	45,495
716,26	50,579
716,44	49,206
716,62	46,662
716,80	47,356
716,99	46,543
717,17	48,693
717,35	48,759
717,53	44,343
717,71	45,947
717,90	46,780
718,08	45,335
718,26	44,341
718,44	46,088
718,62	48,421
718,81	46,913
718,99	45,029
719,17	45,027
719,35	46,858
719,53	45,943
719,72	44,800
719,90	46,321
720,08	47,742
720,26	47,168
720,44	45,890
720,62	45,753
720,81	47,462
720,99	48,899
721,17	46,744
721,35	48,870
721,53	46,481
721,72	48,520
721,90	47,281
722,08	44,949
722,26	48,259
722,44	47,328
722,62	46,543
722,81	46,541
722,99	45,902
723,17	46,188
723,35	47,050
723,53	47,398
723,71	49,390
723,89	49,884
724,08	44,181
724,26	45,777
724,44	48,644
724,62	45,577
724,80	46,475
724,98	46,235
725,16	47,465
725,35	47,484
725,53	46,551
725,71	45,688
725,89	47,112
726,07	49,121
726,25	49,296
726,43	47,324
726,61	48,197
726,80	47,949
726,98	46,794
727,16	45,707
727,34	48,778
727,52	47,487
727,70	43,805
727,88	46,315
728,06	44,940
728,25	47,614
728,43	47,125
728,61	45,024
728,79	44,539
728,97	47,885
729,15	46,304
729,33	46,839
729,51	47,536
729,69	49,641
729,87	47,252
730,06	46,093
730,24	44,727
730,42	48,938
730,60	44,939
730,78	46,964
730,96	45,258
731,14	48,744
731,32	45,489
731,50	46,225
731,68	47,033
731,86	47,243
732,04	47,539
732,22	45,641
732,41	49,186
732,59	45,936
732,77	47,797
732,95	49,203
733,13	48,876
733,31	46,614
733,49	45,708
733,67	46,058
733,85	48,179
734,03	48,062
734,21	47,200
734,39	46,167
734,57	49,433
734,75	46,952
734,93	47,867
735,11	46,612
735,29	46,635
735,47	49,228
735,65	47,470
735,84	45,761
736,02	47,552
736,20	48,724
736,38	47,191
736,56	46,374
736,74	48,019
736,92	45,932
737,10	44,447
737,28	47,595
737,46	46,214
737,64	45,898
737,82	46,955
738,00	46,937
738,18	46,563
738,36	47,759
738,54	46,231
738,72	46,422
738,90	46,056
739,08	47,990
739,26	45,076
739,44	47,839
739,62	47,804
739,80	47,665
739,98	48,330
740,16	47,583
740,34	46,001
740,52	48,694
740,70	45,098
740,88	45,077
741,06	47,116
741,24	49,600
741,42	46,821
741,60	44,915
741,78	50,965
741,96	47,497
742,14	46,448
742,32	44,771
742,50	46,937
742,68	48,457
742,86	47,765
743,04	44,652
743,21	48,848
743,39	49,394
743,57	46,158
743,75	46,919
743,93	45,150
744,11	44,082
744,29	45,424
744,47	48,289
744,65	46,465
744,83	46,870
745,01	47,461
745,19	47,670
745,37	48,065
745,55	48,811
745,73	47,321
745,91	46,032
746,09	47,450
746,27	45,176
746,45	43,746
746,62	45,366
746,80	47,872
746,98	46,180
747,16	47,343
747,34	47,701
747,52	46,095
747,70	46,266
747,88	47,815
748,06	45,660
748,24	45,127
748,42	49,013
748,60	45,876
748,78	45,459
748,95	47,711
749,13	50,490
749,31	47,892
749,49	45,888
749,67	48,605
749,85	47,604
750,03	47,465
750,21	45,979
750,39	47,094
750,57	51,573
750,74	46,818
750,92	46,698
751,10	47,587
751,28	46,654
751,46	46,616
751,64	47,288
751,82	47,549
752,00	47,821
752,17	45,999
752,35	45,475
752,53	49,776
752,71	45,837
752,89	47,559
753,07	44,250
753,25	49,133
753,43	46,272
753,60	47,558
753,78	44,368
753,96	47,171
754,14	46,419
754,32	47,672
754,50	45,402
754,68	48,330
754,85	46,641
755,03	47,875
755,21	47,474
755,39	49,322
755,57	46,989
755,75	46,572
755,92	45,578
756,10	49,102
756,28	49,905
756,46	44,286
756,64	46,742
756,82	47,904
756,99	47,173
757,17	45,443
757,35	47,034
757,53	48,477
757,71	47,159
757,89	46,407
758,06	46,870
758,24	48,095
758,42	46,385
758,60	45,321
758,78	45,945
758,95	47,414
759,13	47,685
759,31	47,233
759,49	45,659
759,67	45,827
759,84	48,241
760,02	48,130
760,20	46,501
760,38	48,387
760,56	46,338
760,73	48,019
760,91	48,837
761,09	49,750
761,27	46,423
761,45	46,453
761,62	45,669
761,80	46,366
761,98	46,983
762,16	45,972
762,33	47,148
762,51	49,312
762,69	46,460
762,87	46,324
763,05	46,094
763,22	45,298
763,40	46,739
763,58	45,973
763,76	46,903
763,93	46,623
764,11	47,578
764,29	43,161
764,47	47,291
764,64	46,786
764,82	49,931
765,00	45,699
765,18	44,533
765,35	45,130
765,53	46,891
765,71	45,585
765,89	44,923
766,06	45,427
766,24	46,960
766,42	47,079
766,60	45,057
766,77	47,599
766,95	45,924
767,13	47,867
767,30	46,499
767,48	46,865
767,66	47,127
767,84	45,964
768,01	46,077
768,19	48,367
768,37	48,221
768,54	47,358
768,72	46,531
768,90	48,912
769,08	50,170
769,25	47,565
769,43	45,432
769,61	44,579
769,78	45,908
769,96	46,613
770,14	48,221
770,31	46,991
770,49	47,358
770,67	47,777
770,85	46,997
771,02	46,226
771,20	45,741
771,38	49,306
771,55	47,093
771,73	45,934
771,91	48,254
772,08	48,361
772,26	48,295
772,44	45,401
772,61	46,844
772,79	45,604
772,97	46,373
773,14	45,449
773,32	46,733
773,50	46,013
773,67	48,150
773,85	47,171
774,03	49,638
774,20	46,834
774,38	47,290
774,56	48,071
774,73	44,829
774,91	47,071
775,09	45,625
775,26	46,142
775,44	47,507
775,61	47,235
775,79	44,963
775,97	48,137
776,14	47,369
776,32	45,406
776,50	45,751
776,67	47,045
776,85	46,843
777,03	46,422
777,20	47,322
777,38	47,664
777,55	48,428
777,73	44,164
777,91	46,660
778,08	47,459
778,26	47,459
778,43	50,102
778,61	43,105
778,79	45,090
778,96	45,287
779,14	46,330
779,32	47,497
779,49	47,541
779,67	49,086
779,84	47,701
780,02	48,094
780,20	46,172
780,37	47,900
780,55	43,122
780,72	49,578
780,90	48,305
781,07	45,951
781,25	47,472
781,43	47,039
781,60	46,007
781,78	49,735
781,95	47,091
782,13	46,170
782,30	49,036
782,48	47,668
782,66	48,765
782,83	44,933
783,01	52,222
783,18	47,675
783,36	47,489
783,53	47,306
783,71	46,815
783,89	49,440
784,06	48,773
784,24	49,035
784,41	47,412
784,59	44,787
784,76	48,806
784,94	45,317
785,11	47,775
785,29	47,335
785,46	47,303
785,64	48,224
785,82	46,944
785,99	47,769
786,17	47,464
786,34	46,296
786,52	47,575
786,69	49,098
786,87	46,380
787,04	46,272
787,22	45,181
787,39	50,128
787,57	48,995
787,74	47,452
787,92	46,600
788,09	48,137
788,27	46,047
788,44	47,626
788,62	47,184
788,79	48,137
788,97	47,467
789,14	46,675
789,32	46,270
789,49	47,525
789,67	46,044
789,84	45,070
790,02	49,524
790,19	47,073
790,37	48,977
790,54	46,078
790,72	52,919
790,89	51,650
791,07	46,965
791,24	44,805
791,42	50,061
791,59	49,623
791,77	45,710
791,94	47,015
792,12	46,085
792,29	47,688
792,47	48,883
792,64	51,239
792,81	50,024
792,99	46,581
793,16	48,343
793,34	46,877
793,51	47,518
793,69	48,713
793,86	48,753
794,04	48,865
794,21	52,034
794,39	46,130
794,56	45,460
794,73	46,882
794,91	51,361
795,08	49,422
795,26	48,137
795,43	47,479
795,61	50,396
795,78	50,926
795,95	49,285
796,13	48,012
796,30	52,122
796,48	48,605
796,65	46,160
796,83	48,587
797,00	51,804
797,17	47,496
797,35	46,572
797,52	48,130
797,70	52,822
797,87	49,295
798,04	48,179
798,22	46,832
798,39	48,041
798,57	49,748
798,74	48,212
798,91	44,959
799,09	49,720
799,26	49,584
799,44	46,817
799,61	50,194
799,78	47,225
799,96	53,845
800,13	49,585
800,31	49,847
800,48	51,424
800,65	53,407
800,83	49,928
801,00	47,696
801,17	49,840
801,35	50,532
801,52	45,838
801,70	48,917
801,87	48,291
802,04	50,583
802,22	48,040
802,39	47,342
802,56	52,991
802,74	48,029
802,91	47,742
803,08	46,838
803,26	51,338
803,43	50,432
803,61	50,871
803,78	51,225
803,95	50,519
804,13	52,471
804,30	47,074
804,47	48,002
804,65	53,026
804,82	47,874
804,99	50,047
805,17	47,151
805,34	53,757
805,51	50,466
805,69	47,155
805,86	46,207
806,03	52,087
806,21	49,787
806,38	49,983
806,55	52,297
806,72	52,261
806,90	53,351
807,07	51,667
807,24	48,002
807,42	49,208
807,59	50,324
807,76	43,743
807,94	46,395
808,11	50,911
808,28	53,732
808,45	49,418
808,63	52,189
808,80	55,044
808,97	50,183
809,15	44,087
809,32	53,183
809,49	48,147
809,67	48,423
809,84	49,483
810,01	54,472
810,18	54,842
810,36	51,097
810,53	50,188
810,70	50,782
810,87	52,139
811,05	49,232
811,22	53,571
811,39	48,071
811,57	55,203
811,74	52,611
811,91	44,858
812,08	48,218
812,26	52,028
812,43	49,500
812,60	49,761
812,77	49,311
812,95	53,832
813,12	55,074
813,29	44,244
813,46	50,095
813,64	53,046
813,81	55,586
813,98	48,685
814,15	51,795
814,32	53,818
814,50	49,941
814,67	52,991
814,84	52,812
815,01	51,594
815,19	46,974
815,36	47,665
815,53	49,529
815,70	45,473
815,87	52,864
816,05	45,576
816,22	48,455
816,39	51,083
816,56	56,109
816,74	51,116
816,91	48,888
817,08	58,827
817,25	54,929
817,42	50,305
817,60	49,792
817,77	51,792
817,94	49,331
818,11	50,760
818,28	48,969
818,45	58,202
818,63	54,254
818,80	51,742
818,97	46,804
819,14	53,877
819,31	60,729
819,49	54,456
819,66	47,803
819,83	51,205
820,00	60,246
820,17	52,358
820,34	48,262
820,52	52,144
820,69	51,379
820,86	50,222
821,03	54,262
821,20	54,162
821,37	52,629
821,55	46,685
821,72	50,553
821,89	55,261
822,06	55,255
822,23	46,752
822,40	51,029
822,57	56,339
822,75	59,196
822,92	47,936
823,09	49,494
823,26	55,139
823,43	53,121
823,60	50,256
823,77	52,079
823,94	61,641
824,12	60,628
824,29	54,370
824,46	47,848
824,63	55,430
824,80	48,188
824,97	55,290
825,14	53,447
825,31	55,704
825,49	51,408
825,66	51,472
825,83	52,100
826,00	53,985
826,17	61,371
826,34	52,793
826,51	45,419
826,68	48,908
826,85	50,740
827,02	48,856
827,20	45,065
827,37	53,673
827,54	58,269
827,71	52,458
827,88	53,143
828,05	56,066
828,22	53,269
828,39	58,063
828,56	57,272
828,73	52,646
828,90	50,517
829,07	55,449
829,25	54,788
829,42	53,353
829,59	46,163
829,76	56,338
829,93	47,421
830,10	53,391
830,27	48,638
830,44	55,428
830,61	52,635
830,78	68,485
830,95	51,056
831,12	51,598
831,29	49,102
831,46	56,442
831,63	50,814
831,80	52,331
831,97	50,695
832,14	57,352
832,31	58,562
832,48	51,976
832,65	52,629
832,83	51,579
833,00	50,580
833,17	51,509
833,34	58,004
833,51	60,318
833,68	57,912
833,85	57,802
834,02	48,167
834,19	48,557
834,36	60,006
834,53	46,881
834,70	49,414
834,87	58,265
835,04	45,356
835,21	54,409
835,38	53,566
835,55	50,338
835,72	65,146
835,89	55,211
836,06	54,805
836,23	65,557
836,40	48,846
836,57	50,641
836,74	54,280
836,91	55,096
837,08	59,090
837,25	60,529
837,42	50,433
837,59	51,847
837,76	51,430
837,93	58,940
838,09	44,104
838,26	58,173
838,43	63,398
838,60	50,514
838,77	50,758
838,94	62,163
839,11	58,792
839,28	53,119
839,45	44,863
839,62	54,027
839,79	50,907
839,96	58,920
840,13	63,382
840,30	53,301
840,47	40,698
840,64	48,585
840,81	57,147
840,98	50,267
841,15	67,374
841,32	48,710
841,48	61,612
841,65	59,547
841,82	54,461
841,99	58,339
842,16	47,413
842,33	61,026
842,50	59,072
842,67	52,194
842,84	52,442
843,01	62,472
843,18	48,742
843,35	57,077
843,52	48,607
843,68	55,827
843,85	64,484
844,02	54,712
844,19	51,230
844,36	57,435
844,53	56,010
844,70	57,905
844,87	60,551
845,04	59,865
845,21	47,623
845,37	57,628
845,54	52,806
845,71	50,735
845,88	71,373
846,05	47,179
846,22	56,365
846,39	58,513
846,56	58,871
846,72	41,155
846,89	50,940
847,06	58,999
847,23	70,715
847,40	49,467
847,57	44,269
847,74	66,713
847,90	65,303
848,07	57,891
848,24	54,590
848,41	61,025
848,58	66,047
848,75	55,975
848,92	56,097
849,08	54,142
849,25	58,286
849,42	51,261
849,59	63,875
849,76	56,751
849,93	60,185
850,09	60,245
850,26	41,259
850,43	64,460
850,60	48,996
850,77	49,998
850,94	55,549
851,10	61,313
851,27	52,050
851,44	52,154
851,61	53,415
851,78	74,080
851,95	65,258
852,11	34,663
852,28	46,654
852,45	62,603
852,62	62,524
852,79	53,587
852,95	50,336
853,12	66,821
853,29	59,468
853,46	53,296
853,63	60,905
853,79	54,613
853,96	58,621
854,13	65,106
854,30	40,665
854,46	84,013
854,63	59,437
854,80	63,166
854,97	52,785
855,14	64,753
855,30	63,651
855,47	55,765
855,64	50,933
855,81	59,664
855,97	67,491
856,14	56,719
856,31	57,513
856,48	67,703
856,65	86,187
856,81	62,188
856,98	57,166
857,15	52,693
857,32	62,438
857,48	56,852
857,65	64,026
857,82	61,803
857,99	63,320
858,15	56,842
858,32	63,766
858,49	70,943
858,65	69,113
858,82	70,192
858,99	51,514
859,16	76,004
859,32	83,468
859,49	66,940
859,66	45,958
859,83	54,606
859,99	42,155
860,16	70,774
860,33	51,288
860,49	74,461
860,66	66,568
860,83	57,487
861,00	59,696
861,16	66,602
861,33	76,491
861,50	53,661
861,66	58,283
861,83	73,329
862,00	56,169
862,16	67,817
862,33	64,673
862,50	99,242
862,67	67,991
862,83	47,059
863,00	63,522
863,17	93,182
863,33	65,425
863,50	31,136
863,67	54,849
863,83	63,186
864,00	76,736
864,17	51,669
864,33	65,124
864,50	60,080
864,67	55,562
864,83	63,398
865,00	39,899
865,17	53,908
865,33	87,699
865,50	47,818
865,67	47,387
865,83	75,821
866,00	92,009
866,17	71,442
866,33	67,447
866,50	85,676
866,66	75,441
866,83	58,007
867,00	77,202
867,16	79,530
867,33	98,518
867,50	43,715
867,66	51,571
867,83	73,313
868,00	75,626
868,16	42,105
868,33	58,224
868,49	76,400
868,66	66,060
868,83	58,299
868,99	75,684
869,16	79,442
869,32	70,440
869,49	57,379
869,66	69,652
869,82	83,118
869,99	97,602
870,15	44,344
870,32	61,035
870,49	84,907
870,65	124,303
870,82	74,453
870,98	43,343
871,15	98,851
871,32	58,331
871,48	33,370
871,65	30,348
871,81	87,141
871,98	51,141
872,15	40,245
872,31	48,844
872,48	131,672
872,64	78,874
872,81	58,389
872,97	74,312
873,14	88,185
873,31	92,223
873,47	50,418
873,64	79,571
873,80	108,142
873,97	102,548
874,13	53,851
874,30	57,987
874,46	109,274
874,63	53,991
874,80	49,303
874,96	25,828
875,13	138,928
875,29	70,274
875,46	101,091
875,62	36,733
875,79	108,206
875,95	71,856
876,12	29,665
876,28	15,936
876,45	115,342
876,61	64,945
876,78	44,126
876,94	68,448
877,11	90,529
877,27	72,690
877,44	92,831
877,60	48,919
877,77	116,142
877,94	99,320
878,10	56,124
878,27	81,960
878,43	123,427
878,60	52,109
878,76	53,337
878,93	48,750
879,09	149,272
879,26	136,509
879,42	88,699
879,58	71,962
879,75	103,626
879,91	128,403
880,08	24,304
880,24	82,789
880,41	84,061
880,57	85,465
880,74	22,690
880,90	157,422
881,07	89,768
881,23	118,986
881,40	76,608
881,56	103,860
881,73	97,146
881,89	99,406
882,06	21,206
882,22	156,776
882,38	172,349
882,55	160,846
882,71	96,464
882,88	53,747
883,04	271,438
883,21	183,062
883,37	59,471
883,54	71,861
883,70	225,109
883,86	113,111
884,03	74,602
884,19	18,316
884,36	-19,136
884,52	182,127
884,69	100,356
884,85	40,564
885,01	205,000
885,18	132,772
885,34	70,947
885,51	51,868
885,67	63,947
>>>>> Data<<<<< Espectral Procesado Extremo
