Fichero De Datos De SpectraSuite
++++++++++++++++++++++++++++++++++++
Fecha: Wed Apr 22 11:46:15 CEST 2009
Usuario: evoflor
Presente Oscuro Del Espectro: Sí
La Referencia de Presente Del Espectro De: Sí
Muestreados de los componentes de Número de espectros: 1
Espectrómetros: USB4F02353
Tiempo de integración (usec): 500000 (USB4F02353)
Promedio de Espectros Hechos un: 5 (USB4F02353)
El Alisar Del Furgón: 0 (USB4F02353)
Párrafo de de Corregir del la del del de Eléctrica del obscuridad: Sí (USB4F02353)
Estrobo/Lámpara Permitido: No (USB4F02353)
Correct for Detector Non-linearity: No (USB4F02353)
Párrafo de de Corregir del la del del de Externa del luz: No (USB4F02353)
Procesado del espectro de Número de pixeles en: 3648
>>>>> Comienza Data<<<<< Espectral Procesado Del EL
177,79	338,227
178,00	338,227
178,22	338,227
178,44	1510,440
178,66	-164,058
178,88	248,371
179,09	-31,702
179,31	233,652
179,53	588,700
179,75	239,307
179,96	847,845
180,18	43,538
180,40	456,529
180,62	432,759
180,83	-337,397
181,05	-826,220
181,27	-93850,000
181,49	167,717
181,70	444,038
181,92	814,467
182,14	589,006
182,36	-19,407
182,58	-506,500
182,79	852,902
183,01	22,246
183,23	117,878
183,45	-61,692
183,66	-72,788
183,88	795,588
184,10	-3817,273
184,32	-59,530
184,53	246,171
184,75	-192,039
184,97	2,975
185,18	-44,455
185,40	-645,913
185,62	126,071
185,84	-72,162
186,05	202,146
186,27	-171,208
186,49	3886,538
186,71	81,955
186,92	75,393
187,14	-262,320
187,36	161,474
187,58	84,973
187,79	-56,459
188,01	257,728
188,23	-350,994
188,45	97,990
188,66	310,491
188,88	-2230,000
189,10	-1370,500
189,31	-41,894
189,53	25,091
189,75	201,023
189,97	402,500
190,18	-280,901
190,40	896,176
190,62	-50,504
190,83	-242,121
191,05	166,375
191,27	466,143
191,49	446,163
191,70	-490,144
191,92	-604,661
192,14	-39,387
192,35	413,660
192,57	1421,429
192,79	-51,499
193,01	93,758
193,22	128,691
193,44	-230,802
193,66	77,213
193,87	77,623
194,09	-7,127
194,31	219,704
194,53	813,636
194,74	35,242
194,96	125,767
195,18	158,087
195,39	-212,005
195,61	-98,486
195,83	-180,543
196,04	197,304
196,26	-236,432
196,48	8,666
196,70	386,978
196,91	36,132
197,13	278,608
197,35	-34,486
197,56	836,687
197,78	969,030
198,00	423,427
198,21	-33,738
198,43	-1058,430
198,65	104,691
198,86	654,856
199,08	239,836
199,30	217,308
199,51	-335,016
199,73	189,087
199,95	508,540
200,16	610,192
200,38	177,669
200,60	177,532
200,81	191,328
201,03	235,462
201,25	-785,500
201,46	203,951
201,68	80,820
201,90	1253,409
202,11	-591,794
202,33	52,154
202,55	340,625
202,76	-51,773
202,98	60,453
203,20	98,317
203,41	-53,421
203,63	110,097
203,85	-55150,000
204,06	65,313
204,28	-150,241
204,50	214,488
204,71	157,862
204,93	45,200
205,15	214,910
205,36	-275,813
205,58	219,866
205,80	-166,279
206,01	65,917
206,23	145,952
206,45	234,947
206,66	121,046
206,88	28,319
207,10	192,841
207,31	270,927
207,53	147,286
207,75	76,734
207,96	989,179
208,18	-157,082
208,39	143,750
208,61	2964,286
208,83	-418,842
209,04	147,002
209,26	-502,995
209,48	240,258
209,69	251,532
209,91	721,453
210,13	41,549
210,34	111,743
210,56	119,547
210,77	-1759,449
210,99	68,173
211,21	4779,412
211,42	-240,803
211,64	-3,139
211,86	272,913
212,07	168,136
212,29	218,612
212,50	136,550
212,72	243,269
212,94	177,539
213,15	129,918
213,37	124,139
213,58	-58,426
213,80	-105,357
214,02	9067,647
214,23	282,938
214,45	534,918
214,67	1555,488
214,88	177,349
215,10	-309,419
215,31	-7,314
215,53	-32,159
215,75	210,174
215,96	1477,329
216,18	434,507
216,39	276,982
216,61	371,943
216,83	73,437
217,04	973,596
217,26	75,887
217,47	116,120
217,69	289,600
217,91	20,232
218,12	-136150,000
218,34	45,700
218,55	334,881
218,77	65,748
218,99	103,056
219,20	-117,045
219,42	369,436
219,63	-459,168
219,85	-83,981
220,06	-192,885
220,28	236,051
220,50	56,068
220,71	48,505
220,93	2653,774
221,14	-1172,500
221,36	-2,199
221,58	60,091
221,79	126,998
222,01	1103,879
222,22	422,039
222,44	275,843
222,65	114,957
222,87	423,427
223,09	133,184
223,30	29,930
223,52	9,024
223,73	87,042
223,95	-9,789
224,16	46,907
224,38	380,213
224,60	86,275
224,81	192,691
225,03	120,209
225,24	84,700
225,46	123,007
225,67	33,087
225,89	61,584
226,10	282,681
226,32	858,800
226,54	54,661
226,75	15,768
226,97	160,800
227,18	119,459
227,40	49,195
227,61	53,778
227,83	71,305
228,04	118,216
228,26	65,035
228,47	58,123
228,69	202,721
228,91	133,416
229,12	80,237
229,34	30,583
229,55	71,069
229,77	44,018
229,98	-6,665
230,20	12,236
230,41	6,717
230,63	61,235
230,84	96,021
231,06	-6,719
231,27	8,194
231,49	53,478
231,71	35,550
231,92	35,741
232,14	8,032
232,35	79,628
232,57	67,942
232,78	16,506
233,00	68,359
233,21	36,991
233,43	12,357
233,64	2,564
233,86	57,722
234,07	0,075
234,29	18,171
234,50	18,060
234,72	38,998
234,93	16,283
235,15	29,223
235,36	30,184
235,58	39,006
235,79	51,169
236,01	3,207
236,22	5,157
236,44	32,257
236,65	13,819
236,87	22,366
237,08	0,897
237,30	-6,501
237,51	15,945
237,73	0,721
237,94	9,117
238,16	14,019
238,37	18,185
238,59	6,490
238,80	4,118
239,02	10,818
239,23	21,691
239,45	12,490
239,66	27,473
239,88	24,020
240,09	30,624
240,31	-0,291
240,52	17,270
240,74	14,518
240,95	14,257
241,17	7,892
241,38	5,138
241,60	14,544
241,81	20,429
242,03	0,304
242,24	10,410
242,46	19,204
242,67	10,541
242,89	12,809
243,10	20,704
243,32	10,248
243,53	17,571
243,75	5,752
243,96	7,079
244,18	-1,581
244,39	9,926
244,60	3,101
244,82	1,590
245,03	25,213
245,25	13,720
245,46	21,171
245,68	-2,232
245,89	21,969
246,11	13,451
246,32	9,363
246,54	7,338
246,75	6,210
246,97	12,064
247,18	15,142
247,39	1,218
247,61	13,182
247,82	0,452
248,04	1,991
248,25	7,682
248,47	7,793
248,68	10,912
248,90	6,969
249,11	14,957
249,33	14,951
249,54	11,233
249,75	9,401
249,97	1,874
250,18	13,321
250,40	15,480
250,61	-3,240
250,83	2,032
251,04	3,936
251,25	11,684
251,47	3,686
251,68	4,867
251,90	8,892
252,11	7,638
252,33	6,468
252,54	5,441
252,76	6,880
252,97	4,728
253,18	-0,132
253,40	2,550
253,61	3,576
253,83	9,712
254,04	6,156
254,25	3,993
254,47	4,341
254,68	10,692
254,90	2,631
255,11	8,517
255,33	5,766
255,54	2,970
255,75	6,411
255,97	5,637
256,18	4,900
256,40	4,937
256,61	7,137
256,82	1,113
257,04	11,792
257,25	-0,175
257,47	7,049
257,68	1,778
257,89	8,176
258,11	8,911
258,32	7,244
258,54	7,511
258,75	11,638
258,96	7,913
259,18	4,415
259,39	1,558
259,61	11,787
259,82	1,263
260,03	6,591
260,25	2,278
260,46	5,483
260,68	5,433
260,89	4,691
261,10	4,546
261,32	8,883
261,53	6,647
261,75	8,242
261,96	-0,612
262,17	10,924
262,39	11,132
262,60	5,016
262,81	-2,896
263,03	10,127
263,24	4,984
263,46	2,021
263,67	5,826
263,88	1,932
264,10	8,316
264,31	1,007
264,52	5,423
264,74	7,036
264,95	3,653
265,17	7,913
265,38	3,629
265,59	9,674
265,81	8,124
266,02	2,958
266,23	4,000
266,45	7,949
266,66	8,403
266,87	4,999
267,09	1,244
267,30	7,915
267,52	8,577
267,73	4,850
267,94	5,401
268,16	5,272
268,37	6,640
268,58	8,397
268,80	4,299
269,01	5,787
269,22	5,424
269,44	7,538
269,65	3,267
269,86	4,117
270,08	9,360
270,29	4,174
270,50	6,974
270,72	5,932
270,93	5,077
271,14	0,375
271,36	1,441
271,57	5,893
271,78	2,727
272,00	5,400
272,21	5,790
272,42	6,256
272,64	6,014
272,85	0,633
273,06	4,850
273,28	6,288
273,49	7,222
273,70	8,603
273,92	3,208
274,13	4,223
274,34	2,387
274,56	4,579
274,77	4,318
274,98	7,067
275,20	2,898
275,41	7,747
275,62	1,504
275,84	4,957
276,05	8,819
276,26	5,793
276,47	1,247
276,69	7,608
276,90	3,503
277,11	3,488
277,33	6,323
277,54	5,857
277,75	3,788
277,97	1,004
278,18	-0,707
278,39	7,775
278,61	3,886
278,82	2,158
279,03	7,856
279,24	7,473
279,46	3,833
279,67	5,456
279,88	4,384
280,10	11,176
280,31	1,272
280,52	6,551
280,73	1,031
280,95	6,712
281,16	6,076
281,37	8,055
281,59	8,477
281,80	9,539
282,01	4,966
282,22	4,495
282,44	3,743
282,65	11,943
282,86	6,665
283,08	3,538
283,29	1,063
283,50	3,850
283,71	5,418
283,93	6,980
284,14	7,056
284,35	4,736
284,56	6,790
284,78	3,862
284,99	3,720
285,20	10,110
285,42	3,078
285,63	4,082
285,84	0,593
286,05	2,290
286,27	5,731
286,48	3,221
286,69	4,276
286,90	3,262
287,12	2,789
287,33	2,809
287,54	3,160
287,75	4,613
287,97	7,543
288,18	3,432
288,39	3,568
288,60	4,703
288,82	5,139
289,03	2,644
289,24	4,700
289,45	7,943
289,67	5,379
289,88	0,718
290,09	5,450
290,30	6,292
290,52	2,202
290,73	2,672
290,94	2,124
291,15	3,778
291,37	4,771
291,58	3,353
291,79	5,105
292,00	5,710
292,21	7,001
292,43	4,142
292,64	1,080
292,85	1,427
293,06	5,641
293,28	1,295
293,49	1,908
293,70	8,100
293,91	3,833
294,12	4,837
294,34	6,277
294,55	5,501
294,76	3,508
294,97	5,597
295,19	2,020
295,40	5,479
295,61	6,113
295,82	4,131
296,03	2,788
296,25	5,367
296,46	3,842
296,67	1,468
296,88	1,652
297,09	4,724
297,31	3,843
297,52	4,829
297,73	2,830
297,94	6,607
298,15	5,350
298,37	5,398
298,58	7,343
298,79	5,976
299,00	1,948
299,21	2,327
299,43	2,414
299,64	6,884
299,85	5,469
300,06	3,733
300,27	3,097
300,49	8,204
300,70	4,952
300,91	4,566
301,12	3,313
301,33	5,648
301,54	4,226
301,76	4,815
301,97	4,628
302,18	4,286
302,39	6,442
302,60	11,974
302,82	4,329
303,03	7,547
303,24	4,248
303,45	5,127
303,66	4,123
303,87	4,126
304,09	6,943
304,30	2,680
304,51	5,001
304,72	3,832
304,93	4,723
305,14	5,560
305,36	2,202
305,57	2,797
305,78	3,939
305,99	3,297
306,20	4,324
306,41	3,839
306,62	2,967
306,84	2,700
307,05	2,503
307,26	5,357
307,47	5,261
307,68	3,457
307,89	4,671
308,11	6,786
308,32	3,335
308,53	3,503
308,74	3,700
308,95	4,441
309,16	6,113
309,37	6,918
309,59	1,768
309,80	4,337
310,01	4,421
310,22	5,244
310,43	1,562
310,64	4,566
310,85	5,457
311,06	1,911
311,28	5,003
311,49	1,895
311,70	9,074
311,91	2,844
312,12	4,129
312,33	5,647
312,54	6,759
312,75	3,458
312,97	2,307
313,18	5,817
313,39	1,370
313,60	3,293
313,81	4,079
314,02	5,811
314,23	6,074
314,44	1,163
314,65	2,811
314,87	1,436
315,08	1,089
315,29	4,911
315,50	6,385
315,71	5,476
315,92	8,257
316,13	5,395
316,34	4,594
316,55	5,261
316,77	1,193
316,98	3,586
317,19	3,801
317,40	6,150
317,61	7,885
317,82	3,481
318,03	2,175
318,24	3,514
318,45	6,398
318,66	3,603
318,87	5,431
319,09	6,430
319,30	5,366
319,51	5,709
319,72	5,926
319,93	8,985
320,14	4,648
320,35	7,185
320,56	1,720
320,77	4,739
320,98	7,283
321,19	6,286
321,40	3,448
321,62	5,502
321,83	5,747
322,04	5,276
322,25	3,578
322,46	5,996
322,67	4,495
322,88	3,732
323,09	2,128
323,30	6,567
323,51	6,225
323,72	6,082
323,93	4,088
324,14	3,059
324,35	1,489
324,56	0,336
324,77	3,481
324,99	2,285
325,20	0,387
325,41	5,821
325,62	4,749
325,83	2,252
326,04	2,884
326,25	6,707
326,46	1,557
326,67	3,124
326,88	5,903
327,09	2,857
327,30	5,391
327,51	5,816
327,72	5,589
327,93	5,606
328,14	-0,662
328,35	5,399
328,56	2,858
328,77	3,408
328,98	4,974
329,19	4,438
329,40	4,752
329,61	4,645
329,82	0,085
330,04	4,409
330,25	1,926
330,46	4,099
330,67	2,827
330,88	4,808
331,09	3,317
331,30	3,986
331,51	4,216
331,72	4,353
331,93	4,440
332,14	2,579
332,35	3,873
332,56	5,624
332,77	5,687
332,98	1,715
333,19	2,530
333,40	7,279
333,61	4,743
333,82	6,629
334,03	6,359
334,24	4,274
334,45	6,308
334,66	7,538
334,87	7,033
335,08	2,975
335,29	3,718
335,50	1,132
335,71	2,498
335,92	5,351
336,13	6,606
336,34	-0,932
336,55	6,450
336,76	7,384
336,97	5,007
337,18	1,774
337,39	3,612
337,60	6,371
337,81	3,674
338,02	5,128
338,23	4,312
338,44	3,763
338,65	4,880
338,86	4,108
339,07	1,658
339,28	5,691
339,49	6,438
339,70	0,931
339,91	5,362
340,11	9,812
340,32	4,350
340,53	0,383
340,74	2,922
340,95	1,620
341,16	5,372
341,37	1,502
341,58	1,059
341,79	4,594
342,00	2,776
342,21	3,076
342,42	4,361
342,63	3,550
342,84	1,904
343,05	6,678
343,26	6,118
343,47	4,243
343,68	-0,584
343,89	3,215
344,10	6,176
344,31	5,562
344,52	5,551
344,73	4,498
344,94	6,471
345,14	6,487
345,35	4,009
345,56	5,091
345,77	6,125
345,98	4,370
346,19	3,198
346,40	5,336
346,61	3,825
346,82	3,359
347,03	1,894
347,24	7,047
347,45	2,724
347,66	9,029
347,87	-0,166
348,08	5,499
348,28	0,835
348,49	4,249
348,70	8,659
348,91	4,529
349,12	2,461
349,33	16,045
349,54	5,327
349,75	6,163
349,96	6,698
350,17	6,698
350,38	1,411
350,59	5,396
350,80	3,223
351,00	7,122
351,21	7,635
351,42	3,872
351,63	1,360
351,84	5,004
352,05	9,948
352,26	6,228
352,47	4,797
352,68	3,682
352,89	6,555
353,09	4,579
353,30	2,235
353,51	3,214
353,72	8,138
353,93	7,226
354,14	1,919
354,35	4,816
354,56	8,091
354,77	6,719
354,98	-1,427
355,18	6,650
355,39	8,197
355,60	2,635
355,81	4,760
356,02	3,649
356,23	5,570
356,44	3,367
356,65	5,331
356,85	8,546
357,06	5,845
357,27	5,830
357,48	3,457
357,69	8,379
357,90	4,924
358,11	3,694
358,32	2,216
358,52	6,965
358,73	3,583
358,94	3,240
359,15	4,311
359,36	8,306
359,57	3,710
359,78	5,121
359,98	4,332
360,19	2,087
360,40	4,386
360,61	8,574
360,82	6,129
361,03	6,925
361,24	6,013
361,44	5,483
361,65	5,519
361,86	5,351
362,07	1,792
362,28	2,628
362,49	3,020
362,70	6,880
362,90	6,310
363,11	2,915
363,32	-0,793
363,53	4,876
363,74	9,073
363,95	8,384
364,15	6,225
364,36	8,278
364,57	5,425
364,78	3,812
364,99	3,876
365,20	5,757
365,40	9,762
365,61	2,640
365,82	6,032
366,03	5,449
366,24	4,780
366,45	4,302
366,65	5,714
366,86	2,841
367,07	4,283
367,28	4,589
367,49	4,284
367,69	9,455
367,90	7,036
368,11	5,966
368,32	2,526
368,53	6,606
368,73	7,250
368,94	4,449
369,15	2,204
369,36	7,853
369,57	3,554
369,78	3,474
369,98	5,735
370,19	11,348
370,40	2,460
370,61	1,034
370,82	5,267
371,02	7,436
371,23	7,248
371,44	6,070
371,65	5,691
371,85	7,770
372,06	5,509
372,27	3,426
372,48	4,270
372,69	4,013
372,89	2,942
373,10	5,330
373,31	5,446
373,52	5,715
373,73	10,539
373,93	5,140
374,14	3,610
374,35	10,754
374,56	9,318
374,76	3,641
374,97	3,139
375,18	4,251
375,39	5,269
375,60	8,332
375,80	5,668
376,01	4,414
376,22	6,570
376,43	3,732
376,63	3,324
376,84	2,635
377,05	6,161
377,26	3,591
377,46	0,607
377,67	3,537
377,88	7,708
378,09	6,021
378,29	0,692
378,50	7,393
378,71	5,529
378,92	5,319
379,12	4,390
379,33	2,759
379,54	5,831
379,75	6,377
379,95	0,972
380,16	3,683
380,37	5,613
380,58	5,566
380,78	3,902
380,99	2,326
381,20	3,166
381,41	5,096
381,61	5,475
381,82	4,342
382,03	5,894
382,24	4,975
382,44	3,335
382,65	4,480
382,86	2,727
383,06	2,893
383,27	5,293
383,48	2,114
383,69	6,318
383,89	3,575
384,10	6,063
384,31	6,720
384,51	6,169
384,72	4,599
384,93	0,864
385,14	2,932
385,34	5,688
385,55	1,155
385,76	4,951
385,96	4,855
386,17	6,049
386,38	5,823
386,59	6,945
386,79	3,322
387,00	8,367
387,21	5,216
387,41	10,190
387,62	4,642
387,83	8,030
388,03	5,009
388,24	0,442
388,45	5,149
388,66	6,634
388,86	6,117
389,07	3,834
389,28	10,565
389,48	4,819
389,69	3,310
389,90	1,681
390,10	7,011
390,31	5,072
390,52	0,573
390,72	4,185
390,93	9,058
391,14	7,050
391,34	2,411
391,55	5,773
391,76	9,263
391,96	4,363
392,17	6,403
392,38	6,824
392,58	8,096
392,79	4,388
393,00	2,613
393,20	3,272
393,41	2,082
393,62	2,597
393,82	4,789
394,03	6,852
394,24	3,703
394,44	8,444
394,65	6,518
394,86	3,135
395,06	6,245
395,27	1,558
395,48	2,606
395,68	2,580
395,89	7,949
396,10	8,947
396,30	3,872
396,51	2,027
396,72	5,508
396,92	3,012
397,13	5,399
397,34	2,175
397,54	8,116
397,75	3,775
397,95	4,181
398,16	4,694
398,37	5,148
398,57	1,843
398,78	6,612
398,99	5,342
399,19	5,942
399,40	2,865
399,60	2,177
399,81	5,842
400,02	5,973
400,22	8,340
400,43	3,728
400,64	5,402
400,84	3,190
401,05	5,630
401,25	4,560
401,46	7,673
401,67	5,890
401,87	8,008
402,08	0,042
402,29	0,214
402,49	9,328
402,70	6,328
402,90	0,299
403,11	4,015
403,32	8,393
403,52	5,045
403,73	5,415
403,93	5,746
404,14	11,365
404,35	4,796
404,55	0,875
404,76	4,259
404,96	2,302
405,17	9,118
405,38	8,691
405,58	2,768
405,79	5,358
405,99	7,717
406,20	3,602
406,40	-0,578
406,61	8,343
406,82	0,954
407,02	6,161
407,23	5,519
407,43	4,193
407,64	2,941
407,85	1,923
408,05	0,010
408,26	11,803
408,46	12,452
408,67	2,303
408,87	3,681
409,08	3,814
409,29	5,545
409,49	6,970
409,70	5,526
409,90	5,165
410,11	4,454
410,31	13,235
410,52	5,765
410,72	1,643
410,93	7,182
411,14	4,456
411,34	4,205
411,55	5,318
411,75	9,577
411,96	9,289
412,16	5,898
412,37	5,164
412,57	5,982
412,78	5,571
412,99	4,695
413,19	5,135
413,40	1,629
413,60	2,134
413,81	2,487
414,01	5,186
414,22	4,498
414,42	2,977
414,63	3,219
414,83	9,701
415,04	7,320
415,24	5,778
415,45	3,879
415,65	2,835
415,86	3,210
416,07	6,198
416,27	4,470
416,48	6,874
416,68	7,741
416,89	3,749
417,09	4,200
417,30	5,924
417,50	7,748
417,71	9,025
417,91	8,655
418,12	6,070
418,32	2,219
418,53	5,314
418,73	3,223
418,94	3,051
419,14	3,718
419,35	1,533
419,55	4,406
419,76	7,596
419,96	0,046
420,17	4,047
420,37	2,172
420,58	9,278
420,78	2,302
420,99	4,581
421,19	9,048
421,40	5,552
421,60	7,492
421,81	2,158
422,01	2,370
422,22	6,426
422,42	4,909
422,63	5,214
422,83	3,113
423,04	7,631
423,24	7,955
423,45	3,670
423,65	8,634
423,86	10,493
424,06	8,466
424,27	0,793
424,47	0,682
424,67	1,931
424,88	6,607
425,08	4,034
425,29	8,212
425,49	2,325
425,70	-1,147
425,90	2,337
426,11	6,080
426,31	4,190
426,52	7,237
426,72	-0,138
426,93	2,519
427,13	8,900
427,33	5,981
427,54	4,067
427,74	7,261
427,95	7,902
428,15	0,835
428,36	5,119
428,56	5,689
428,77	8,028
428,97	5,451
429,18	5,146
429,38	4,486
429,58	9,746
429,79	7,209
429,99	3,812
430,20	-1,441
430,40	7,655
430,61	3,499
430,81	1,049
431,01	7,263
431,22	5,888
431,42	10,270
431,63	5,800
431,83	5,925
432,04	1,565
432,24	7,384
432,44	2,095
432,65	2,507
432,85	5,357
433,06	4,724
433,26	6,247
433,47	5,409
433,67	5,418
433,87	4,581
434,08	0,991
434,28	7,412
434,49	5,827
434,69	9,964
434,89	3,323
435,10	3,813
435,30	8,186
435,51	6,627
435,71	5,027
435,91	3,927
436,12	3,346
436,32	6,714
436,53	5,370
436,73	2,707
436,93	7,699
437,14	6,723
437,34	7,192
437,55	6,268
437,75	5,546
437,95	6,553
438,16	7,061
438,36	2,917
438,57	0,338
438,77	2,419
438,97	10,577
439,18	7,326
439,38	2,206
439,58	2,296
439,79	6,404
439,99	3,133
440,20	6,748
440,40	7,759
440,60	0,756
440,81	5,891
441,01	-1,651
441,21	8,680
441,42	5,969
441,62	4,119
441,83	4,659
442,03	4,071
442,23	3,867
442,44	5,664
442,64	1,699
442,84	1,752
443,05	5,817
443,25	3,884
443,45	5,476
443,66	7,450
443,86	4,356
444,06	2,972
444,27	6,783
444,47	6,663
444,67	0,578
444,88	5,729
445,08	6,441
445,28	5,690
445,49	2,515
445,69	3,570
445,90	8,740
446,10	7,000
446,30	5,843
446,51	5,987
446,71	8,505
446,91	9,694
447,12	11,986
447,32	3,471
447,52	7,236
447,72	4,088
447,93	4,717
448,13	3,519
448,33	8,528
448,54	8,448
448,74	2,221
448,94	7,243
449,15	9,913
449,35	3,578
449,55	5,126
449,76	9,749
449,96	7,323
450,16	3,144
450,37	3,774
450,57	4,608
450,77	-2,293
450,98	6,122
451,18	5,123
451,38	6,373
451,58	8,407
451,79	6,518
451,99	5,236
452,19	4,931
452,40	6,475
452,60	2,298
452,80	4,332
453,00	4,905
453,21	12,497
453,41	7,380
453,61	4,404
453,82	7,875
454,02	3,365
454,22	9,688
454,42	10,962
454,63	1,135
454,83	8,924
455,03	7,226
455,24	7,512
455,44	6,142
455,64	5,502
455,84	4,189
456,05	5,435
456,25	1,971
456,45	8,265
456,65	3,338
456,86	8,774
457,06	6,662
457,26	10,028
457,47	9,102
457,67	6,386
457,87	2,345
458,07	3,197
458,28	9,735
458,48	9,231
458,68	-0,997
458,88	5,382
459,09	7,046
459,29	9,385
459,49	6,967
459,69	7,440
459,90	11,640
460,10	0,344
460,30	5,439
460,50	2,749
460,71	11,514
460,91	5,250
461,11	1,249
461,31	2,654
461,52	8,341
461,72	2,333
461,92	8,254
462,12	12,218
462,32	2,683
462,53	2,138
462,73	1,993
462,93	8,286
463,13	8,361
463,34	2,541
463,54	8,368
463,74	8,178
463,94	7,697
464,14	6,340
464,35	2,280
464,55	7,533
464,75	8,513
464,95	5,807
465,16	-1,638
465,36	11,327
465,56	6,574
465,76	7,735
465,96	3,299
466,17	5,827
466,37	5,615
466,57	7,905
466,77	4,632
466,97	3,016
467,18	9,913
467,38	10,728
467,58	5,981
467,78	8,854
467,98	9,858
468,19	8,392
468,39	10,234
468,59	11,990
468,79	7,856
468,99	6,176
469,19	4,616
469,40	9,431
469,60	-1,082
469,80	2,800
470,00	6,333
470,20	12,218
470,41	9,524
470,61	10,785
470,81	6,653
471,01	3,859
471,21	11,222
471,41	3,511
471,62	5,095
471,82	4,405
472,02	4,462
472,22	6,705
472,42	3,851
472,62	10,042
472,83	4,805
473,03	12,240
473,23	5,107
473,43	10,854
473,63	9,584
473,83	10,943
474,03	8,099
474,24	11,468
474,44	6,707
474,64	7,576
474,84	4,279
475,04	6,898
475,24	11,537
475,45	9,117
475,65	8,152
475,85	11,081
476,05	2,936
476,25	8,761
476,45	9,800
476,65	12,666
476,85	9,800
477,06	6,340
477,26	7,079
477,46	7,713
477,66	6,973
477,86	11,868
478,06	6,464
478,26	13,772
478,46	5,904
478,67	10,797
478,87	9,940
479,07	7,433
479,27	10,614
479,47	8,318
479,67	3,093
479,87	6,415
480,07	11,960
480,28	8,109
480,48	7,557
480,68	13,836
480,88	15,721
481,08	10,771
481,28	11,930
481,48	12,009
481,68	9,157
481,88	8,781
482,08	8,091
482,29	11,487
482,49	8,298
482,69	11,524
482,89	14,328
483,09	16,060
483,29	11,247
483,49	10,778
483,69	13,126
483,89	11,341
484,09	9,406
484,29	8,695
484,50	10,437
484,70	11,857
484,90	11,105
485,10	12,007
485,30	15,544
485,50	15,368
485,70	13,974
485,90	12,281
486,10	10,688
486,30	11,593
486,50	11,991
486,70	13,764
486,90	11,924
487,10	16,636
487,30	14,231
487,51	13,464
487,71	12,144
487,91	12,612
488,11	17,028
488,31	11,161
488,51	15,121
488,71	12,620
488,91	15,920
489,11	13,460
489,31	15,130
489,51	14,635
489,71	15,212
489,91	14,214
490,11	14,389
490,31	17,329
490,51	17,037
490,71	15,812
490,91	16,126
491,11	17,828
491,31	19,182
491,51	14,303
491,72	18,747
491,92	19,433
492,12	20,090
492,32	18,966
492,52	19,007
492,72	19,471
492,92	18,149
493,12	21,375
493,32	17,210
493,52	16,628
493,72	20,344
493,92	20,756
494,12	20,408
494,32	22,655
494,52	21,227
494,72	21,079
494,92	20,757
495,12	22,704
495,32	26,317
495,52	19,790
495,72	21,920
495,92	24,518
496,12	26,324
496,32	20,551
496,52	20,810
496,72	23,727
496,92	25,164
497,12	24,818
497,32	25,463
497,52	25,680
497,72	28,736
497,92	27,875
498,12	24,174
498,32	26,343
498,52	27,138
498,72	24,251
498,92	26,769
499,12	34,105
499,32	27,667
499,52	28,312
499,72	28,942
499,92	30,290
500,12	29,359
500,32	31,369
500,52	31,156
500,72	34,906
500,91	30,356
501,11	30,604
501,31	30,163
501,51	33,906
501,71	36,163
501,91	34,348
502,11	33,604
502,31	34,304
502,51	33,723
502,71	33,494
502,91	33,114
503,11	35,216
503,31	31,942
503,51	29,444
503,71	32,991
503,91	35,601
504,11	36,536
504,31	35,820
504,51	37,130
504,71	41,904
504,91	37,643
505,10	37,875
505,30	37,732
505,50	39,293
505,70	38,627
505,90	39,324
506,10	36,891
506,30	39,466
506,50	38,474
506,70	43,916
506,90	38,631
507,10	41,732
507,30	39,481
507,50	42,568
507,70	41,193
507,89	44,103
508,09	38,612
508,29	40,460
508,49	44,966
508,69	43,865
508,89	40,927
509,09	45,285
509,29	42,775
509,49	47,038
509,69	46,296
509,89	42,314
510,09	43,021
510,28	45,772
510,48	45,013
510,68	44,595
510,88	42,243
511,08	45,363
511,28	44,972
511,48	47,076
511,68	43,537
511,88	44,854
512,07	47,036
512,27	49,407
512,47	47,844
512,67	45,033
512,87	45,942
513,07	47,822
513,27	44,296
513,47	45,763
513,67	48,106
513,86	50,105
514,06	51,178
514,26	50,443
514,46	52,717
514,66	48,282
514,86	50,891
515,06	53,305
515,26	55,483
515,45	50,827
515,65	50,539
515,85	51,272
516,05	53,127
516,25	53,464
516,45	53,999
516,65	50,789
516,84	51,765
517,04	55,861
517,24	52,732
517,44	52,257
517,64	54,848
517,84	55,990
518,04	55,042
518,23	57,214
518,43	56,434
518,63	53,451
518,83	52,565
519,03	55,768
519,23	55,475
519,42	56,350
519,62	56,205
519,82	54,737
520,02	56,842
520,22	56,978
520,42	55,369
520,61	57,060
520,81	59,707
521,01	59,330
521,21	53,966
521,41	59,084
521,61	59,422
521,80	55,347
522,00	57,683
522,20	60,650
522,40	58,758
522,60	58,401
522,79	58,601
522,99	60,552
523,19	58,693
523,39	57,670
523,59	60,630
523,78	60,993
523,98	58,776
524,18	59,592
524,38	58,489
524,58	59,696
524,77	62,585
524,97	60,226
525,17	59,095
525,37	59,845
525,57	64,058
525,76	59,723
525,96	62,683
526,16	57,779
526,36	61,021
526,56	61,227
526,75	56,739
526,95	64,889
527,15	62,185
527,35	61,140
527,55	63,106
527,74	62,347
527,94	60,790
528,14	63,808
528,34	60,219
528,53	65,400
528,73	61,497
528,93	61,782
529,13	61,025
529,32	64,751
529,52	65,719
529,72	60,219
529,92	61,599
530,12	64,414
530,31	60,042
530,51	64,500
530,71	65,284
530,91	63,500
531,10	57,794
531,30	61,910
531,50	62,700
531,70	65,146
531,89	60,901
532,09	62,737
532,29	64,280
532,49	65,359
532,68	62,620
532,88	60,836
533,08	61,025
533,28	63,201
533,47	61,569
533,67	61,833
533,87	64,330
534,06	67,403
534,26	62,566
534,46	62,804
534,66	64,286
534,85	64,549
535,05	61,124
535,25	60,938
535,45	65,156
535,64	66,473
535,84	62,511
536,04	60,684
536,23	62,891
536,43	68,051
536,63	64,619
536,83	65,482
537,02	61,703
537,22	62,541
537,42	64,007
537,61	63,154
537,81	61,505
538,01	61,988
538,20	64,445
538,40	58,788
538,60	60,983
538,80	58,477
538,99	59,487
539,19	58,690
539,39	56,000
539,58	54,304
539,78	54,894
539,98	55,420
540,17	53,261
540,37	54,552
540,57	51,968
540,76	50,485
540,96	48,076
541,16	52,872
541,36	47,241
541,55	47,126
541,75	46,556
541,95	46,162
542,14	45,162
542,34	45,058
542,54	45,677
542,73	45,245
542,93	46,203
543,13	44,610
543,32	44,696
543,52	44,915
543,72	44,752
543,91	44,533
544,11	45,769
544,31	47,410
544,50	45,256
544,70	48,562
544,89	47,850
545,09	47,840
545,29	48,079
545,48	49,406
545,68	48,810
545,88	48,334
546,07	49,112
546,27	50,030
546,47	52,387
546,66	53,718
546,86	54,961
547,06	54,740
547,25	52,934
547,45	56,831
547,64	57,924
547,84	60,446
548,04	59,285
548,23	62,031
548,43	60,130
548,63	63,054
548,82	61,655
549,02	58,687
549,21	58,740
549,41	61,967
549,61	62,413
549,80	62,380
550,00	60,766
550,20	60,277
550,39	61,698
550,59	62,837
550,78	66,026
550,98	61,690
551,18	65,334
551,37	64,080
551,57	63,682
551,76	61,869
551,96	64,329
552,16	64,016
552,35	63,638
552,55	64,263
552,74	64,941
552,94	67,090
553,14	63,956
553,33	64,293
553,53	66,319
553,72	65,046
553,92	70,149
554,12	66,378
554,31	68,105
554,51	68,891
554,70	65,214
554,90	65,756
555,09	70,090
555,29	70,774
555,49	68,034
555,68	67,894
555,88	66,723
556,07	66,695
556,27	71,424
556,46	66,548
556,66	66,326
556,86	69,133
557,05	68,550
557,25	63,901
557,44	68,580
557,64	67,009
557,83	69,679
558,03	68,984
558,22	68,650
558,42	70,274
558,62	68,450
558,81	68,050
559,01	66,775
559,20	69,216
559,40	68,727
559,59	69,413
559,79	69,397
559,98	71,348
560,18	72,344
560,37	67,227
560,57	64,670
560,76	66,027
560,96	67,358
561,16	69,536
561,35	68,642
561,55	69,995
561,74	70,397
561,94	70,566
562,13	68,533
562,33	68,955
562,52	68,945
562,72	68,406
562,91	70,624
563,11	69,330
563,30	73,092
563,50	69,230
563,69	67,555
563,89	67,912
564,08	69,242
564,28	68,959
564,47	71,918
564,67	68,707
564,86	70,165
565,06	69,028
565,25	66,435
565,45	68,681
565,64	71,950
565,84	66,603
566,03	68,090
566,23	71,316
566,42	69,798
566,62	73,154
566,81	69,417
567,01	69,999
567,20	69,758
567,40	69,413
567,59	69,142
567,79	72,577
567,98	71,979
568,18	71,626
568,37	72,318
568,57	70,056
568,76	72,346
568,96	69,037
569,15	69,872
569,35	71,992
569,54	71,638
569,73	73,422
569,93	69,784
570,12	69,416
570,32	72,464
570,51	70,830
570,71	71,862
570,90	72,703
571,10	71,053
571,29	69,389
571,49	68,177
571,68	71,534
571,87	70,530
572,07	68,984
572,26	70,042
572,46	70,398
572,65	72,782
572,85	66,706
573,04	68,614
573,24	70,977
573,43	74,583
573,62	72,846
573,82	70,934
574,01	71,915
574,21	71,297
574,40	68,486
574,60	68,003
574,79	72,300
574,98	69,092
575,18	70,115
575,37	68,669
575,57	69,976
575,76	70,394
575,96	70,772
576,15	69,493
576,34	69,098
576,54	71,668
576,73	69,692
576,93	69,417
577,12	70,769
577,31	71,027
577,51	67,286
577,70	67,133
577,90	69,475
578,09	68,283
578,28	67,910
578,48	69,263
578,67	69,632
578,87	68,503
579,06	68,580
579,25	68,339
579,45	69,316
579,64	66,912
579,84	69,041
580,03	68,151
580,22	71,333
580,42	66,091
580,61	68,970
580,81	67,774
581,00	68,689
581,19	69,108
581,39	68,289
581,58	67,470
581,77	68,301
581,97	69,462
582,16	66,338
582,35	67,390
582,55	67,629
582,74	69,276
582,94	69,124
583,13	65,724
583,32	68,493
583,52	68,241
583,71	66,705
583,90	69,120
584,10	69,121
584,29	67,960
584,48	66,214
584,68	68,157
584,87	67,880
585,06	66,406
585,26	66,489
585,45	65,901
585,65	67,082
585,84	65,627
586,03	67,321
586,23	65,975
586,42	65,392
586,61	68,403
586,81	67,892
587,00	66,935
587,19	67,036
587,39	69,251
587,58	66,778
587,77	65,731
587,97	64,966
588,16	67,282
588,35	66,439
588,54	67,437
588,74	66,335
588,93	69,271
589,12	67,572
589,32	66,534
589,51	68,311
589,70	67,337
589,90	65,870
590,09	65,764
590,28	71,355
590,48	66,783
590,67	66,552
590,86	67,834
591,06	67,655
591,25	68,930
591,44	69,303
591,63	66,873
591,83	67,481
592,02	67,833
592,21	67,289
592,41	67,138
592,60	67,033
592,79	69,175
592,98	69,126
593,18	68,702
593,37	68,889
593,56	69,358
593,76	69,559
593,95	68,180
594,14	68,684
594,33	70,868
594,53	68,517
594,72	68,117
594,91	71,608
595,10	69,716
595,30	69,621
595,49	68,827
595,68	72,790
595,88	68,917
596,07	72,030
596,26	70,263
596,45	68,849
596,65	65,844
596,84	68,424
597,03	69,380
597,22	74,014
597,42	71,836
597,61	69,087
597,80	69,783
597,99	69,886
598,19	70,635
598,38	70,634
598,57	69,861
598,76	70,186
598,95	69,927
599,15	69,549
599,34	71,539
599,53	69,668
599,72	71,741
599,92	71,409
600,11	67,823
600,30	69,008
600,49	70,789
600,69	71,071
600,88	68,338
601,07	70,133
601,26	68,944
601,45	69,792
601,65	72,104
601,84	70,917
602,03	71,907
602,22	72,550
602,42	71,288
602,61	69,469
602,80	71,129
602,99	69,661
603,18	68,908
603,38	70,520
603,57	68,738
603,76	68,892
603,95	68,381
604,14	71,018
604,34	70,269
604,53	70,429
604,72	70,949
604,91	70,472
605,10	72,102
605,29	70,749
605,49	69,015
605,68	69,822
605,87	72,582
606,06	70,001
606,25	67,662
606,45	68,499
606,64	68,429
606,83	70,597
607,02	67,958
607,21	66,333
607,40	69,698
607,60	66,783
607,79	67,191
607,98	65,907
608,17	63,798
608,36	63,676
608,55	62,748
608,75	62,146
608,94	62,067
609,13	57,700
609,32	55,645
609,51	56,366
609,70	57,176
609,89	55,779
610,09	55,269
610,28	58,163
610,47	55,110
610,66	55,170
610,85	53,497
611,04	56,748
611,23	56,049
611,43	54,724
611,62	54,206
611,81	54,360
612,00	54,895
612,19	53,721
612,38	57,035
612,57	58,059
612,77	57,328
612,96	57,872
613,15	59,616
613,34	60,107
613,53	60,467
613,72	62,785
613,91	62,440
614,10	61,202
614,29	63,789
614,49	62,725
614,68	63,506
614,87	64,766
615,06	66,760
615,25	62,885
615,44	65,914
615,63	64,807
615,82	65,214
616,01	63,368
616,21	62,165
616,40	66,347
616,59	67,347
616,78	64,838
616,97	65,344
617,16	67,062
617,35	66,341
617,54	66,084
617,73	67,737
617,92	65,004
618,11	66,753
618,31	65,066
618,50	65,044
618,69	65,981
618,88	65,265
619,07	64,637
619,26	64,839
619,45	64,797
619,64	64,566
619,83	63,160
620,02	63,369
620,21	66,955
620,40	66,094
620,59	65,381
620,78	65,252
620,97	65,469
621,17	66,597
621,36	66,025
621,55	65,509
621,74	67,250
621,93	65,294
622,12	68,177
622,31	65,705
622,50	66,300
622,69	67,560
622,88	67,305
623,07	69,788
623,26	65,867
623,45	68,173
623,64	67,027
623,83	64,867
624,02	67,495
624,21	66,275
624,40	68,206
624,59	66,313
624,78	65,113
624,97	70,006
625,16	63,951
625,35	64,380
625,54	63,663
625,73	65,582
625,92	67,893
626,12	67,108
626,31	68,241
626,50	68,171
626,69	68,917
626,88	66,820
627,07	67,117
627,26	66,188
627,45	63,346
627,64	67,342
627,83	66,281
628,02	64,954
628,21	66,484
628,40	64,851
628,59	66,007
628,78	64,838
628,97	65,020
629,16	65,688
629,35	64,740
629,54	68,106
629,73	64,772
629,92	65,498
630,10	66,620
630,29	64,857
630,48	66,541
630,67	63,213
630,86	65,695
631,05	65,721
631,24	67,727
631,43	64,125
631,62	65,661
631,81	66,572
632,00	66,275
632,19	63,845
632,38	66,609
632,57	61,763
632,76	67,131
632,95	66,241
633,14	70,627
633,33	66,975
633,52	67,951
633,71	67,709
633,90	65,506
634,09	67,391
634,28	67,765
634,47	66,213
634,66	67,607
634,85	65,958
635,04	69,301
635,22	67,474
635,41	67,259
635,60	69,786
635,79	66,320
635,98	66,856
636,17	68,387
636,36	66,935
636,55	67,822
636,74	65,678
636,93	68,264
637,12	68,782
637,31	66,566
637,50	65,834
637,69	68,461
637,87	68,486
638,06	68,530
638,25	68,352
638,44	66,908
638,63	65,699
638,82	66,329
639,01	68,431
639,20	67,496
639,39	68,880
639,58	67,690
639,77	69,291
639,95	66,677
640,14	68,238
640,33	66,040
640,52	67,421
640,71	70,782
640,90	67,417
641,09	69,339
641,28	66,926
641,47	68,529
641,66	66,589
641,84	66,361
642,03	69,442
642,22	67,013
642,41	70,398
642,60	65,488
642,79	67,758
642,98	67,720
643,17	65,794
643,35	66,403
643,54	66,888
643,73	69,027
643,92	68,226
644,11	68,335
644,30	67,757
644,49	67,957
644,67	67,131
644,86	66,484
645,05	67,958
645,24	67,392
645,43	67,487
645,62	66,219
645,81	68,887
645,99	69,386
646,18	68,827
646,37	65,489
646,56	65,690
646,75	70,480
646,94	68,929
647,13	65,834
647,31	66,820
647,50	67,615
647,69	69,332
647,88	67,849
648,07	69,048
648,26	69,243
648,44	67,371
648,63	65,438
648,82	68,164
649,01	69,953
649,20	65,081
649,38	67,656
649,57	68,285
649,76	64,855
649,95	68,718
650,14	66,477
650,33	66,511
650,51	64,849
650,70	68,471
650,89	66,077
651,08	68,958
651,27	67,605
651,45	65,459
651,64	65,321
651,83	67,257
652,02	66,444
652,21	66,792
652,39	66,649
652,58	67,593
652,77	66,030
652,96	67,211
653,15	68,869
653,33	68,783
653,52	68,316
653,71	69,469
653,90	69,687
654,09	68,396
654,27	69,064
654,46	68,242
654,65	67,898
654,84	67,643
655,02	69,860
655,21	70,643
655,40	70,253
655,59	70,432
655,77	70,722
655,96	70,188
656,15	69,247
656,34	69,936
656,53	67,910
656,71	69,395
656,90	67,878
657,09	69,534
657,28	68,477
657,46	66,428
657,65	67,750
657,84	67,192
658,03	66,758
658,21	67,292
658,40	67,694
658,59	67,317
658,78	68,335
658,96	66,598
659,15	65,805
659,34	65,886
659,52	66,855
659,71	66,700
659,90	65,017
660,09	65,628
660,27	65,177
660,46	68,308
660,65	64,678
660,84	63,109
661,02	66,159
661,21	67,409
661,40	64,721
661,58	65,263
661,77	66,949
661,96	62,614
662,15	64,909
662,33	62,442
662,52	62,443
662,71	64,357
662,89	62,287
663,08	65,018
663,27	64,473
663,45	64,118
663,64	63,634
663,83	62,701
664,02	64,408
664,20	64,323
664,39	62,030
664,58	64,170
664,76	64,264
664,95	64,743
665,14	65,335
665,32	63,366
665,51	65,096
665,70	63,284
665,88	62,034
666,07	63,962
666,26	64,709
666,44	64,025
666,63	63,175
666,82	63,103
667,00	63,865
667,19	62,595
667,38	63,423
667,56	63,353
667,75	63,691
667,94	62,549
668,12	61,536
668,31	62,899
668,50	64,252
668,68	65,181
668,87	63,513
669,06	62,254
669,24	63,300
669,43	63,043
669,62	62,836
669,80	60,569
669,99	63,095
670,18	60,747
670,36	61,646
670,55	62,285
670,74	61,873
670,92	59,741
671,11	62,935
671,29	61,063
671,48	64,426
671,67	63,916
671,85	64,150
672,04	61,585
672,23	61,970
672,41	61,134
672,60	62,568
672,78	62,587
672,97	62,945
673,16	63,294
673,34	62,478
673,53	62,079
673,71	63,989
673,90	62,672
674,09	63,702
674,27	60,111
674,46	61,696
674,64	61,392
674,83	63,077
675,02	61,735
675,20	62,314
675,39	60,524
675,57	62,098
675,76	60,234
675,95	65,088
676,13	64,218
676,32	63,286
676,50	62,210
676,69	59,486
676,88	59,901
677,06	62,425
677,25	61,149
677,43	64,891
677,62	64,225
677,80	62,798
677,99	61,111
678,18	63,115
678,36	63,188
678,55	61,781
678,73	61,373
678,92	62,322
679,10	62,954
679,29	62,230
679,48	61,782
679,66	61,070
679,85	61,301
680,03	62,849
680,22	62,186
680,40	60,973
680,59	61,589
680,77	61,935
680,96	64,260
681,15	62,486
681,33	63,859
681,52	59,725
681,70	61,491
681,89	64,819
682,07	63,767
682,26	59,870
682,44	63,211
682,63	63,809
682,81	64,343
683,00	64,592
683,18	61,885
683,37	63,808
683,55	62,770
683,74	65,785
683,92	67,379
684,11	63,706
684,29	63,559
684,48	62,232
684,67	62,673
684,85	65,274
685,04	63,464
685,22	63,513
685,41	63,858
685,59	66,094
685,78	63,427
685,96	62,995
686,15	63,410
686,33	61,804
686,52	64,600
686,70	62,913
686,89	64,049
687,07	66,069
687,26	65,485
687,44	65,670
687,62	64,397
687,81	65,484
687,99	65,923
688,18	66,510
688,36	66,015
688,55	66,092
688,73	65,124
688,92	62,774
689,10	65,301
689,29	66,790
689,47	67,751
689,66	64,909
689,84	66,033
690,03	69,951
690,21	66,622
690,40	66,604
690,58	64,559
690,76	64,211
690,95	68,170
691,13	64,588
691,32	65,304
691,50	67,919
691,69	68,184
691,87	65,501
692,06	65,913
692,24	64,126
692,43	68,373
692,61	64,470
692,79	65,683
692,98	64,970
693,16	70,032
693,35	66,093
693,53	67,768
693,72	67,180
693,90	67,378
694,08	66,864
694,27	66,103
694,45	69,865
694,64	67,865
694,82	68,298
695,01	66,463
695,19	67,165
695,37	67,954
695,56	67,417
695,74	68,130
695,93	67,986
696,11	65,364
696,29	69,080
696,48	67,897
696,66	68,958
696,85	68,480
697,03	65,959
697,21	68,347
697,40	69,753
697,58	69,854
697,77	65,826
697,95	69,501
698,13	71,115
698,32	66,297
698,50	68,292
698,69	68,745
698,87	70,230
699,05	67,093
699,24	67,200
699,42	67,230
699,60	65,044
699,79	68,043
699,97	68,534
700,16	65,815
700,34	70,191
700,52	67,988
700,71	67,673
700,89	66,612
701,07	69,379
701,26	69,844
701,44	68,550
701,63	67,887
701,81	68,740
701,99	69,016
702,18	68,091
702,36	70,050
702,54	65,829
702,73	68,952
702,91	67,864
703,09	68,163
703,28	66,850
703,46	66,880
703,64	68,346
703,83	68,019
704,01	68,979
704,19	67,684
704,38	66,247
704,56	67,983
704,74	67,356
704,93	69,084
705,11	69,949
705,29	68,169
705,48	71,470
705,66	69,090
705,84	69,203
706,03	66,753
706,21	67,765
706,39	67,864
706,58	67,050
706,76	67,151
706,94	68,934
707,12	67,912
707,31	66,947
707,49	66,578
707,67	67,435
707,86	69,139
708,04	68,260
708,22	67,442
708,41	68,043
708,59	69,891
708,77	66,857
708,95	68,003
709,14	70,750
709,32	69,200
709,50	67,626
709,69	66,074
709,87	67,661
710,05	68,898
710,23	67,233
710,42	66,325
710,60	68,264
710,78	69,041
710,97	67,826
711,15	67,953
711,33	71,496
711,51	65,975
711,70	67,635
711,88	67,293
712,06	68,788
712,24	68,727
712,43	68,840
712,61	69,185
712,79	68,708
712,97	67,140
713,16	69,387
713,34	68,090
713,52	69,705
713,70	69,009
713,89	69,516
714,07	67,662
714,25	68,566
714,43	69,491
714,62	67,964
714,80	69,460
714,98	66,529
715,16	68,470
715,35	67,393
715,53	67,770
715,71	70,051
715,89	68,582
716,07	68,449
716,26	71,338
716,44	68,861
716,62	68,735
716,80	70,991
716,99	67,774
717,17	68,784
717,35	69,419
717,53	67,162
717,71	67,584
717,90	68,063
718,08	69,843
718,26	66,581
718,44	68,914
718,62	70,923
718,81	71,145
718,99	68,311
719,17	67,984
719,35	67,367
719,53	69,682
719,72	67,041
719,90	69,161
720,08	70,099
720,26	70,946
720,44	68,566
720,62	68,403
720,81	69,462
720,99	73,544
721,17	67,935
721,35	71,608
721,53	69,963
721,72	69,737
721,90	68,715
722,08	69,637
722,26	72,055
722,44	66,996
722,62	68,122
722,81	67,432
722,99	70,471
723,17	69,070
723,35	68,770
723,53	69,592
723,71	69,077
723,89	71,879
724,08	65,979
724,26	71,613
724,44	69,022
724,62	68,432
724,80	69,994
724,98	69,444
725,16	70,622
725,35	70,898
725,53	69,415
725,71	69,595
725,89	71,196
726,07	72,415
726,25	71,100
726,43	67,235
726,61	69,065
726,80	70,865
726,98	68,543
727,16	70,097
727,34	69,701
727,52	68,673
727,70	67,903
727,88	68,602
728,06	68,532
728,25	68,537
728,43	69,036
728,61	68,971
728,79	68,148
728,97	70,874
729,15	69,168
729,33	68,607
729,51	71,446
729,69	70,571
729,87	70,484
730,06	68,639
730,24	69,912
730,42	71,497
730,60	67,572
730,78	68,914
730,96	68,197
731,14	71,132
731,32	71,341
731,50	68,197
731,68	69,977
731,86	70,812
732,04	69,445
732,22	69,557
732,41	70,585
732,59	70,283
732,77	70,833
732,95	73,563
733,13	70,841
733,31	68,929
733,49	68,331
733,67	68,557
733,85	69,827
734,03	71,349
734,21	69,280
734,39	69,910
734,57	71,101
734,75	72,669
734,93	69,310
735,11	67,622
735,29	67,976
735,47	73,480
735,65	70,683
735,84	67,170
736,02	70,735
736,20	71,821
736,38	69,196
736,56	69,547
736,74	68,544
736,92	69,148
737,10	69,879
737,28	70,342
737,46	70,402
737,64	70,386
737,82	70,098
738,00	69,089
738,18	71,718
738,36	69,519
738,54	70,141
738,72	67,717
738,90	70,206
739,08	71,430
739,26	66,746
739,44	69,941
739,62	69,504
739,80	71,819
739,98	69,176
740,16	70,435
740,34	69,705
740,52	72,078
740,70	69,206
740,88	67,694
741,06	70,031
741,24	70,696
741,42	69,238
741,60	69,775
741,78	69,867
741,96	68,267
742,14	68,560
742,32	67,526
742,50	69,929
742,68	67,599
742,86	67,333
743,04	69,010
743,21	70,642
743,39	69,396
743,57	69,239
743,75	69,541
743,93	67,242
744,11	66,887
744,29	67,293
744,47	68,879
744,65	69,046
744,83	68,991
745,01	67,922
745,19	70,867
745,37	71,547
745,55	69,832
745,73	71,088
745,91	69,408
746,09	69,061
746,27	68,783
746,45	65,688
746,62	68,978
746,80	69,211
746,98	70,019
747,16	68,328
747,34	69,871
747,52	68,382
747,70	71,066
747,88	68,443
748,06	68,116
748,24	68,264
748,42	69,558
748,60	67,839
748,78	68,071
748,95	69,980
749,13	72,789
749,31	67,975
749,49	70,784
749,67	70,446
749,85	68,988
750,03	68,474
750,21	71,518
750,39	68,879
750,57	70,761
750,74	68,831
750,92	69,367
751,10	71,103
751,28	67,944
751,46	69,910
751,64	69,127
751,82	70,681
752,00	69,202
752,17	67,290
752,35	67,759
752,53	69,032
752,71	69,545
752,89	69,899
753,07	68,102
753,25	71,451
753,43	68,653
753,60	71,462
753,78	67,968
753,96	71,208
754,14	69,279
754,32	70,950
754,50	71,301
754,68	70,038
754,85	71,371
755,03	70,297
755,21	69,214
755,39	74,448
755,57	71,618
755,75	68,115
755,92	68,883
756,10	68,835
756,28	72,614
756,46	69,245
756,64	70,228
756,82	71,890
756,99	70,642
757,17	69,465
757,35	67,308
757,53	73,165
757,71	68,676
757,89	69,527
758,06	68,805
758,24	71,267
758,42	70,793
758,60	68,519
758,78	69,678
758,95	70,237
759,13	69,833
759,31	69,412
759,49	69,862
759,67	69,565
759,84	71,213
760,02	67,558
760,20	68,410
760,38	68,865
760,56	68,242
760,73	70,574
760,91	70,514
761,09	69,561
761,27	70,739
761,45	70,503
761,62	67,344
761,80	69,025
761,98	71,392
762,16	68,839
762,33	67,920
762,51	71,392
762,69	68,286
762,87	71,661
763,05	69,304
763,22	68,294
763,40	69,630
763,58	68,580
763,76	70,661
763,93	71,609
764,11	70,598
764,29	70,363
764,47	70,092
764,64	70,216
764,82	71,842
765,00	67,897
765,18	67,189
765,35	67,954
765,53	73,109
765,71	70,112
765,89	66,673
766,06	68,473
766,24	69,060
766,42	69,009
766,60	68,643
766,77	68,239
766,95	69,325
767,13	69,208
767,30	69,725
767,48	68,343
767,66	69,944
767,84	67,490
768,01	71,672
768,19	68,631
768,37	70,969
768,54	67,545
768,72	69,870
768,90	72,643
769,08	68,474
769,25	70,385
769,43	68,636
769,61	69,745
769,78	70,205
769,96	67,324
770,14	70,145
770,31	70,085
770,49	70,584
770,67	70,908
770,85	70,270
771,02	69,544
771,20	70,920
771,38	70,182
771,55	69,734
771,73	71,701
771,91	71,052
772,08	69,182
772,26	68,656
772,44	70,825
772,61	67,383
772,79	70,673
772,97	69,723
773,14	70,467
773,32	71,803
773,50	69,968
773,67	67,543
773,85	73,198
774,03	72,839
774,20	69,933
774,38	69,439
774,56	69,885
774,73	69,087
774,91	67,432
775,09	68,372
775,26	72,316
775,44	69,227
775,61	69,934
775,79	67,804
775,97	72,743
776,14	68,112
776,32	68,686
776,50	69,017
776,67	69,289
776,85	69,422
777,03	69,676
777,20	72,096
777,38	70,101
777,55	69,021
777,73	67,792
777,91	67,089
778,08	69,322
778,26	68,138
778,43	71,524
778,61	65,384
778,79	64,232
778,96	71,293
779,14	66,555
779,32	69,525
779,49	68,644
779,67	74,483
779,84	68,647
780,02	70,411
780,20	66,343
780,37	72,543
780,55	63,700
780,72	73,410
780,90	69,499
781,07	71,530
781,25	68,387
781,43	69,172
781,60	67,619
781,78	70,206
781,95	69,934
782,13	69,373
782,30	72,432
782,48	70,663
782,66	68,498
782,83	69,607
783,01	75,528
783,18	70,487
783,36	70,221
783,53	70,324
783,71	66,667
783,89	72,192
784,06	68,951
784,24	72,321
784,41	71,332
784,59	71,449
784,76	72,682
784,94	69,521
785,11	70,262
785,29	70,121
785,46	68,351
785,64	70,242
785,82	72,134
785,99	71,083
786,17	68,260
786,34	69,931
786,52	71,884
786,69	73,193
786,87	69,340
787,04	69,504
787,22	69,107
787,39	72,171
787,57	72,275
787,74	70,009
787,92	71,795
788,09	71,129
788,27	70,801
788,44	68,727
788,62	69,401
788,79	72,460
788,97	72,061
789,14	72,095
789,32	69,214
789,49	71,462
789,67	68,666
789,84	69,937
790,02	68,641
790,19	69,999
790,37	70,125
790,54	73,265
790,72	74,210
790,89	74,303
791,07	72,041
791,24	68,333
791,42	71,257
791,59	70,387
791,77	73,082
791,94	68,862
792,12	72,310
792,29	72,667
792,47	71,378
792,64	74,990
792,81	70,908
792,99	69,228
793,16	70,824
793,34	70,418
793,51	69,090
793,69	72,811
793,86	68,971
794,04	69,708
794,21	71,252
794,39	71,219
794,56	70,152
794,73	71,589
794,91	74,245
795,08	71,397
795,26	73,993
795,43	73,112
795,61	71,740
795,78	71,907
795,95	74,039
796,13	72,241
796,30	73,401
796,48	69,137
796,65	67,767
796,83	72,857
797,00	74,683
797,17	69,746
797,35	69,932
797,52	71,965
797,70	76,880
797,87	70,901
798,04	69,141
798,22	71,765
798,39	72,052
798,57	71,315
798,74	68,187
798,91	68,151
799,09	68,811
799,26	70,698
799,44	70,355
799,61	71,036
799,78	71,539
799,96	70,004
800,13	70,410
800,31	71,405
800,48	79,117
800,65	71,936
800,83	70,073
801,00	71,504
801,17	68,829
801,35	74,494
801,52	72,117
801,70	71,650
801,87	68,605
802,04	73,125
802,22	69,984
802,39	68,538
802,56	77,786
802,74	70,689
802,91	71,272
803,08	70,308
803,26	73,294
803,43	75,003
803,61	75,598
803,78	71,816
803,95	70,855
804,13	74,406
804,30	72,965
804,47	72,668
804,65	72,466
804,82	73,972
804,99	73,654
805,17	73,831
805,34	76,463
805,51	73,403
805,69	71,211
805,86	73,156
806,03	74,893
806,21	75,257
806,38	75,159
806,55	74,656
806,72	75,779
806,90	74,778
807,07	74,475
807,24	72,091
807,42	66,963
807,59	72,878
807,76	65,881
807,94	68,402
808,11	72,626
808,28	76,158
808,45	71,104
808,63	72,198
808,80	77,861
808,97	71,230
809,15	69,881
809,32	76,143
809,49	69,173
809,67	80,343
809,84	74,675
810,01	76,207
810,18	76,330
810,36	73,181
810,53	72,014
810,70	72,442
810,87	75,932
811,05	71,442
811,22	72,284
811,39	68,413
811,57	76,277
811,74	74,406
811,91	70,450
812,08	73,150
812,26	72,784
812,43	74,034
812,60	74,117
812,77	74,679
812,95	79,560
813,12	75,405
813,29	68,650
813,46	71,064
813,64	73,674
813,81	72,693
813,98	70,844
814,15	76,257
814,32	74,393
814,50	75,691
814,67	72,143
814,84	77,124
815,01	72,865
815,19	68,804
815,36	64,751
815,53	71,476
815,70	74,362
815,87	77,579
816,05	69,628
816,22	76,480
816,39	74,121
816,56	81,750
816,74	75,356
816,91	75,539
817,08	77,196
817,25	73,401
817,42	76,341
817,60	73,431
817,77	70,253
817,94	74,528
818,11	75,612
818,28	76,694
818,45	74,265
818,63	73,673
818,80	72,901
818,97	72,226
819,14	82,555
819,31	81,044
819,49	75,016
819,66	76,451
819,83	71,375
820,00	71,593
820,17	68,457
820,34	73,205
820,52	79,509
820,69	74,930
820,86	76,563
821,03	73,249
821,20	80,652
821,37	75,513
821,55	65,283
821,72	72,469
821,89	80,887
822,06	79,536
822,23	73,404
822,40	72,474
822,57	75,204
822,75	78,512
822,92	72,966
823,09	78,121
823,26	75,133
823,43	80,961
823,60	69,024
823,77	72,914
823,94	79,513
824,12	81,592
824,29	70,170
824,46	74,473
824,63	84,372
824,80	78,873
824,97	75,871
825,14	75,151
825,31	77,834
825,49	72,176
825,66	70,231
825,83	69,973
826,00	75,283
826,17	82,937
826,34	73,608
826,51	70,989
826,68	70,072
826,85	74,264
827,02	75,030
827,20	67,286
827,37	77,779
827,54	76,078
827,71	74,938
827,88	68,831
828,05	79,157
828,22	76,155
828,39	77,002
828,56	75,499
828,73	76,666
828,90	75,627
829,07	72,554
829,25	76,968
829,42	79,621
829,59	75,316
829,76	70,857
829,93	70,530
830,10	73,363
830,27	75,197
830,44	74,463
830,61	74,748
830,78	90,303
830,95	77,062
831,12	74,261
831,29	69,768
831,46	74,621
831,63	75,618
831,80	79,920
831,97	71,234
832,14	83,216
832,31	91,316
832,48	74,718
832,65	75,657
832,83	72,727
833,00	80,323
833,17	77,367
833,34	79,186
833,51	80,761
833,68	88,337
833,85	81,353
834,02	70,596
834,19	73,492
834,36	79,762
834,53	74,456
834,70	74,041
834,87	84,983
835,04	73,082
835,21	77,759
835,38	71,045
835,55	76,567
835,72	86,243
835,89	70,040
836,06	79,353
836,23	86,248
836,40	68,798
836,57	78,983
836,74	79,960
836,91	79,434
837,08	84,099
837,25	80,686
837,42	69,208
837,59	69,849
837,76	76,104
837,93	73,728
838,09	64,276
838,26	81,010
838,43	87,135
838,60	77,358
838,77	66,998
838,94	87,899
839,11	76,508
839,28	65,452
839,45	72,703
839,62	78,054
839,79	76,475
839,96	78,808
840,13	79,051
840,30	69,096
840,47	64,557
840,64	68,162
840,81	82,465
840,98	71,533
841,15	85,357
841,32	75,726
841,48	87,100
841,65	80,069
841,82	76,932
841,99	78,951
842,16	70,293
842,33	83,830
842,50	81,408
842,67	76,838
842,84	74,628
843,01	83,621
843,18	74,000
843,35	81,347
843,52	72,659
843,68	85,585
843,85	78,417
844,02	77,012
844,19	67,772
844,36	91,992
844,53	80,120
844,70	79,914
844,87	86,898
845,04	95,302
845,21	67,996
845,37	85,352
845,54	74,951
845,71	86,394
845,88	102,640
846,05	74,458
846,22	75,629
846,39	81,636
846,56	90,200
846,72	75,238
846,89	72,499
847,06	87,630
847,23	92,152
847,40	68,588
847,57	63,086
847,74	79,015
847,90	88,143
848,07	82,028
848,24	71,107
848,41	84,887
848,58	90,226
848,75	81,835
848,92	74,091
849,08	79,815
849,25	80,070
849,42	72,069
849,59	92,189
849,76	79,537
849,93	86,912
850,09	84,273
850,26	62,078
850,43	84,636
850,60	75,206
850,77	65,283
850,94	84,123
851,10	75,925
851,27	85,055
851,44	78,816
851,61	78,429
851,78	90,386
851,95	85,628
852,11	70,515
852,28	76,583
852,45	90,703
852,62	85,284
852,79	79,099
852,95	70,594
853,12	82,907
853,29	73,607
853,46	76,839
853,63	85,495
853,79	78,130
853,96	78,781
854,13	84,258
854,30	77,977
854,46	99,231
854,63	84,133
854,80	68,826
854,97	78,859
855,14	103,212
855,30	85,787
855,47	77,781
855,64	89,449
855,81	79,413
855,97	78,368
856,14	82,893
856,31	76,165
856,48	89,975
856,65	108,138
856,81	77,440
856,98	76,458
857,15	75,271
857,32	97,377
857,48	72,762
857,65	86,019
857,82	96,660
857,99	87,029
858,15	75,267
858,32	90,410
858,49	84,531
858,65	109,215
858,82	91,328
858,99	84,465
859,16	102,058
859,32	99,520
859,49	79,756
859,66	76,421
859,83	74,540
859,99	84,921
860,16	84,019
860,33	86,736
860,49	80,149
860,66	95,682
860,83	75,161
861,00	74,832
861,16	96,045
861,33	89,454
861,50	74,339
861,66	86,125
861,83	95,861
862,00	91,358
862,16	73,412
862,33	87,947
862,50	119,764
862,67	86,713
862,83	64,331
863,00	89,968
863,17	116,305
863,33	88,659
863,50	61,834
863,67	80,026
863,83	100,387
864,00	98,326
864,17	71,713
864,33	89,630
864,50	96,129
864,67	84,756
864,83	66,070
865,00	76,399
865,17	62,477
865,33	92,536
865,50	83,166
865,67	62,669
865,83	90,062
866,00	126,400
866,17	86,013
866,33	82,935
866,50	100,459
866,66	105,175
866,83	112,507
867,00	87,214
867,16	91,770
867,33	121,114
867,50	60,353
867,66	63,939
867,83	110,633
868,00	102,391
868,16	72,361
868,33	92,391
868,49	102,101
868,66	85,157
868,83	94,157
868,99	88,957
869,16	107,026
869,32	126,905
869,49	69,898
869,66	89,406
869,82	107,723
869,99	111,231
870,15	68,354
870,32	109,801
870,49	83,136
870,65	124,506
870,82	103,595
870,98	92,425
871,15	127,871
871,32	105,497
871,48	79,115
871,65	66,250
871,81	102,325
871,98	72,575
872,15	67,742
872,31	77,805
872,48	159,466
872,64	90,388
872,81	84,702
872,97	78,036
873,14	118,318
873,31	108,548
873,47	74,113
873,64	89,436
873,80	155,046
873,97	149,983
874,13	61,280
874,30	93,555
874,46	126,740
874,63	69,487
874,80	66,672
874,96	67,011
875,13	135,038
875,29	88,048
875,46	113,396
875,62	58,504
875,79	102,887
875,95	131,580
876,12	56,532
876,28	44,860
876,45	126,017
876,61	97,290
876,78	76,939
876,94	54,944
877,11	138,822
877,27	142,979
877,44	70,895
877,60	74,957
877,77	140,737
877,94	122,152
878,10	90,566
878,27	114,161
878,43	136,761
878,60	98,909
878,76	67,474
878,93	95,171
879,09	129,599
879,26	122,746
879,42	101,742
879,58	113,884
879,75	154,544
879,91	159,249
880,08	68,103
880,24	61,780
880,41	116,696
880,57	122,077
880,74	76,856
880,90	112,517
881,07	106,183
881,23	163,439
881,40	107,767
881,56	117,366
881,73	156,396
881,89	115,954
882,06	71,475
882,22	175,485
882,38	160,115
882,55	169,703
882,71	84,903
882,88	65,892
883,04	127,697
883,21	224,295
883,37	119,520
883,54	130,429
883,70	302,920
883,86	116,054
884,03	119,364
884,19	55,254
884,36	67,880
884,52	225,024
884,69	81,579
884,85	87,452
885,01	245,754
885,18	124,477
885,34	82,932
885,51	42,406
885,67	122,614
>>>>> Data<<<<< Espectral Procesado Extremo
