Fichero De Datos De SpectraSuite
++++++++++++++++++++++++++++++++++++
Fecha: Wed Apr 22 11:49:33 CEST 2009
Usuario: evoflor
Presente Oscuro Del Espectro: Sí
La Referencia de Presente Del Espectro De: Sí
Muestreados de los componentes de Número de espectros: 1
Espectrómetros: USB4F02353
Tiempo de integración (usec): 500000 (USB4F02353)
Promedio de Espectros Hechos un: 5 (USB4F02353)
El Alisar Del Furgón: 0 (USB4F02353)
Párrafo de de Corregir del la del del de Eléctrica del obscuridad: Sí (USB4F02353)
Estrobo/Lámpara Permitido: No (USB4F02353)
Correct for Detector Non-linearity: No (USB4F02353)
Párrafo de de Corregir del la del del de Externa del luz: No (USB4F02353)
Procesado del espectro de Número de pixeles en: 3648
>>>>> Comienza Data<<<<< Espectral Procesado Del EL
177,79	190,731
178,00	190,731
178,22	190,731
178,44	1341,209
178,66	-149,469
178,88	344,788
179,09	-258,085
179,31	108,609
179,53	555,573
179,75	150,151
179,96	825,431
180,18	-250,308
180,40	537,102
180,62	380,504
180,83	-210,537
181,05	-1420,122
181,27	-136250,000
181,49	-41,848
181,70	271,346
181,92	787,563
182,14	437,500
182,36	162,811
182,58	-12,500
182,79	732,813
183,01	23,709
183,23	214,169
183,45	-86,923
183,66	-13,496
183,88	314,412
184,10	-2428,182
184,32	203,589
184,53	153,974
184,75	-124,597
184,97	26,066
185,18	-142,763
185,40	-706,971
185,62	147,296
185,84	51,856
186,05	74,960
186,27	-177,990
186,49	4548,077
186,71	6,280
186,92	-25,695
187,14	-244,308
187,36	131,377
187,58	133,209
187,79	-15,578
188,01	232,844
188,23	-310,369
188,45	29,823
188,66	367,187
188,88	-1740,909
189,10	-1443,500
189,31	-15,956
189,53	58,120
189,75	291,250
189,97	-130,192
190,18	-64,163
190,40	891,471
190,62	-59,824
190,83	-209,047
191,05	180,843
191,27	343,000
191,49	412,995
191,70	-611,779
191,92	-841,949
192,14	-78,641
192,35	573,873
192,57	4098,571
192,79	-1,178
193,01	50,494
193,22	131,447
193,44	-160,324
193,66	105,596
193,87	185,760
194,09	78,945
194,31	155,917
194,53	247,902
194,74	99,274
194,96	98,274
195,18	126,318
195,39	-155,277
195,61	-136,560
195,83	-421,413
196,04	127,863
196,26	-119,347
196,48	7,419
196,70	163,519
196,91	155,189
197,13	185,443
197,35	53,710
197,56	717,183
197,78	1319,030
198,00	550,000
198,21	-24,515
198,43	-896,802
198,65	116,973
198,86	357,374
199,08	160,492
199,30	208,401
199,51	-575,733
199,73	176,391
199,95	341,708
200,16	828,654
200,38	227,895
200,60	175,107
200,81	334,154
201,03	35,190
201,25	-1830,500
201,46	160,146
201,68	48,680
201,90	4180,682
202,11	-176,527
202,33	76,571
202,55	353,125
202,76	-42,620
202,98	211,324
203,20	-57,933
203,41	-617,632
203,63	36,339
203,85	-87650,000
204,06	73,898
204,28	-102,771
204,50	192,634
204,71	262,986
204,93	118,000
205,15	20,030
205,36	-136,616
205,58	149,232
205,80	-185,778
206,01	57,598
206,23	93,194
206,45	262,656
206,66	143,369
206,88	58,403
207,10	152,159
207,31	255,563
207,53	168,143
207,75	15,490
207,96	781,716
208,18	-108,106
208,39	58,200
208,61	3635,714
208,83	-278,059
209,04	241,649
209,26	2,535
209,48	215,408
209,69	176,210
209,91	575,845
210,13	73,647
210,34	-73,245
210,56	192,772
210,77	-1150,787
210,99	66,485
211,21	8120,588
211,42	-167,372
211,64	30,106
211,86	143,453
212,07	245,014
212,29	227,803
212,50	117,541
212,72	74,038
212,94	176,051
213,15	144,789
213,37	77,361
213,58	-106,541
213,80	-1780,357
214,02	12091,176
214,23	504,836
214,45	349,344
214,67	-2517,683
214,88	-191,443
215,10	-170,158
215,31	-185,917
215,53	135,795
215,75	121,130
215,96	1477,950
216,18	448,592
216,39	178,234
216,61	456,659
216,83	463,616
217,04	1348,876
217,26	-105,403
217,47	170,200
217,69	221,635
217,91	57,088
218,12	-143450,000
218,34	126,319
218,55	294,562
218,77	82,692
218,99	142,836
219,20	-232,687
219,42	340,777
219,63	-52,559
219,85	69,417
220,06	112,115
220,28	179,312
220,50	88,053
220,71	123,811
220,93	2316,038
221,14	-1929,500
221,36	57,839
221,58	43,545
221,79	327,724
222,01	1647,845
222,22	677,303
222,44	-451,124
222,65	150,054
222,87	581,469
223,09	108,391
223,30	57,385
223,52	184,732
223,73	208,073
223,95	-14,718
224,16	145,464
224,38	344,194
224,60	59,759
224,81	128,190
225,03	81,663
225,24	181,040
225,46	33,472
225,67	87,753
225,89	-6,610
226,10	377,861
226,32	708,400
226,54	-32,093
226,75	59,232
226,97	171,069
227,18	132,559
227,40	87,232
227,61	-6,419
227,83	9,479
228,04	70,498
228,26	77,800
228,47	41,165
228,69	140,810
228,91	80,785
229,12	86,119
229,34	28,177
229,55	66,846
229,77	1,294
229,98	22,531
230,20	73,259
230,41	32,396
230,63	56,027
230,84	62,464
231,06	51,585
231,27	7,499
231,49	50,750
231,71	22,250
231,92	10,439
232,14	31,946
232,35	60,471
232,57	44,096
232,78	9,074
233,00	31,561
233,21	55,620
233,43	4,519
233,64	7,580
233,86	56,435
234,07	39,142
234,29	16,542
234,50	20,190
234,72	53,647
234,93	13,841
235,15	26,163
235,36	25,235
235,58	25,718
235,79	55,434
236,01	29,899
236,22	16,039
236,44	44,312
236,65	31,053
236,87	41,583
237,08	21,488
237,30	-12,323
237,51	13,578
237,73	3,332
237,94	3,657
238,16	18,503
238,37	20,811
238,59	9,731
238,80	15,230
239,02	2,012
239,23	21,096
239,45	-5,692
239,66	18,233
239,88	28,414
240,09	23,741
240,31	1,429
240,52	9,713
240,74	24,802
240,95	7,154
241,17	16,092
241,38	16,626
241,60	18,540
241,81	24,467
242,03	8,841
242,24	11,385
242,46	15,123
242,67	13,689
242,89	15,575
243,10	17,736
243,32	19,448
243,53	13,211
243,75	6,128
243,96	10,431
244,18	11,092
244,39	11,181
244,60	9,762
244,82	7,541
245,03	19,792
245,25	13,079
245,46	25,217
245,68	5,143
245,89	18,378
246,11	14,869
246,32	11,690
246,54	9,892
246,75	13,152
246,97	13,942
247,18	19,444
247,39	6,468
247,61	12,887
247,82	7,991
248,04	9,786
248,25	8,478
248,47	14,251
248,68	13,241
248,90	5,312
249,11	12,112
249,33	18,884
249,54	4,542
249,75	9,768
249,97	5,544
250,18	15,069
250,40	20,408
250,61	-4,718
250,83	1,735
251,04	7,400
251,25	8,582
251,47	3,038
251,68	9,304
251,90	7,775
252,11	7,178
252,33	7,678
252,54	6,804
252,76	8,774
252,97	2,066
253,18	-0,564
253,40	4,556
253,61	0,636
253,83	11,573
254,04	12,755
254,25	6,486
254,47	4,255
254,68	4,033
254,90	8,939
255,11	9,761
255,33	11,388
255,54	5,462
255,75	6,103
255,97	5,421
256,18	5,125
256,40	9,176
256,61	8,257
256,82	1,439
257,04	15,796
257,25	3,447
257,47	2,156
257,68	5,736
257,89	11,177
258,11	12,328
258,32	7,793
258,54	9,778
258,75	14,255
258,96	10,840
259,18	5,182
259,39	1,821
259,61	11,165
259,82	7,690
260,03	8,379
260,25	7,624
260,46	5,131
260,68	8,315
260,89	4,976
261,10	6,818
261,32	6,226
261,53	5,792
261,75	10,084
261,96	4,341
262,17	12,326
262,39	10,025
262,60	2,701
262,81	4,086
263,03	11,486
263,24	9,770
263,46	2,394
263,67	5,486
263,88	5,819
264,10	10,330
264,31	2,712
264,52	9,251
264,74	8,148
264,95	7,564
265,17	9,182
265,38	6,576
265,59	9,103
265,81	10,940
266,02	1,170
266,23	2,969
266,45	12,077
266,66	10,300
266,87	9,586
267,09	5,505
267,30	10,194
267,52	14,518
267,73	5,648
267,94	9,792
268,16	6,283
268,37	5,985
268,58	6,991
268,80	6,407
269,01	7,934
269,22	10,512
269,44	9,215
269,65	8,023
269,86	5,262
270,08	7,422
270,29	5,163
270,50	4,040
270,72	12,715
270,93	8,181
271,14	3,521
271,36	7,241
271,57	5,935
271,78	7,182
272,00	9,447
272,21	7,575
272,42	7,785
272,64	9,562
272,85	3,350
273,06	6,707
273,28	9,518
273,49	9,415
273,70	8,607
273,92	6,446
274,13	6,420
274,34	5,682
274,56	4,909
274,77	4,535
274,98	9,826
275,20	7,251
275,41	12,325
275,62	8,599
275,84	6,189
276,05	13,882
276,26	5,867
276,47	3,373
276,69	8,297
276,90	5,681
277,11	5,649
277,33	4,384
277,54	7,637
277,75	6,506
277,97	5,159
278,18	3,204
278,39	9,852
278,61	6,997
278,82	5,469
279,03	6,128
279,24	6,499
279,46	4,534
279,67	9,921
279,88	5,700
280,10	12,567
280,31	0,887
280,52	7,282
280,73	2,946
280,95	13,184
281,16	9,860
281,37	7,516
281,59	9,741
281,80	11,504
282,01	6,812
282,22	4,405
282,44	3,842
282,65	12,643
282,86	10,367
283,08	6,857
283,29	8,198
283,50	7,133
283,71	8,936
283,93	6,718
284,14	7,958
284,35	2,534
284,56	6,980
284,78	2,825
284,99	8,823
285,20	9,845
285,42	4,722
285,63	4,983
285,84	1,304
286,05	6,462
286,27	6,220
286,48	6,853
286,69	6,179
286,90	6,345
287,12	7,494
287,33	3,576
287,54	5,014
287,75	5,472
287,97	6,685
288,18	4,187
288,39	2,848
288,60	6,968
288,82	7,905
289,03	6,700
289,24	6,488
289,45	9,594
289,67	8,260
289,88	5,720
290,09	5,623
290,30	8,732
290,52	6,159
290,73	7,063
290,94	5,012
291,15	7,040
291,37	7,707
291,58	6,315
291,79	3,907
292,00	7,738
292,21	6,087
292,43	6,090
292,64	4,244
292,85	3,921
293,06	7,257
293,28	2,639
293,49	0,802
293,70	8,593
293,91	4,042
294,12	7,862
294,34	5,157
294,55	6,645
294,76	7,907
294,97	6,178
295,19	3,983
295,40	4,714
295,61	5,378
295,82	1,814
296,03	4,296
296,25	8,024
296,46	3,026
296,67	3,361
296,88	0,769
297,09	7,282
297,31	7,402
297,52	5,539
297,73	2,611
297,94	7,713
298,15	6,720
298,37	6,146
298,58	5,743
298,79	8,199
299,00	4,522
299,21	4,272
299,43	4,897
299,64	8,467
299,85	7,308
300,06	3,594
300,27	4,300
300,49	8,939
300,70	7,957
300,91	3,220
301,12	2,943
301,33	7,678
301,54	4,080
301,76	6,868
301,97	3,574
302,18	4,761
302,39	8,505
302,60	12,049
302,82	5,388
303,03	9,044
303,24	6,173
303,45	6,187
303,66	5,073
303,87	4,670
304,09	6,993
304,30	5,453
304,51	3,851
304,72	3,953
304,93	7,886
305,14	5,872
305,36	4,718
305,57	2,921
305,78	5,382
305,99	2,712
306,20	6,327
306,41	1,620
306,62	4,985
306,84	2,304
307,05	4,904
307,26	5,478
307,47	9,757
307,68	5,039
307,89	5,577
308,11	7,606
308,32	2,943
308,53	6,644
308,74	4,367
308,95	4,979
309,16	8,603
309,37	8,199
309,59	3,581
309,80	5,156
310,01	4,279
310,22	8,087
310,43	1,258
310,64	6,527
310,85	6,822
311,06	4,337
311,28	6,601
311,49	6,449
311,70	7,360
311,91	5,708
312,12	2,781
312,33	5,507
312,54	8,122
312,75	6,068
312,97	4,957
313,18	8,264
313,39	3,296
313,60	5,526
313,81	5,705
314,02	6,488
314,23	6,698
314,44	3,937
314,65	5,980
314,87	3,596
315,08	5,445
315,29	8,062
315,50	4,880
315,71	7,757
315,92	8,625
316,13	5,422
316,34	6,142
316,55	7,488
316,77	2,028
316,98	2,967
317,19	3,924
317,40	6,838
317,61	8,715
317,82	2,813
318,03	3,372
318,24	4,945
318,45	10,080
318,66	6,328
318,87	3,283
319,09	7,254
319,30	7,154
319,51	6,694
319,72	6,523
319,93	5,970
320,14	8,079
320,35	9,700
320,56	4,727
320,77	4,012
320,98	10,491
321,19	6,495
321,40	5,625
321,62	6,646
321,83	3,872
322,04	6,743
322,25	4,252
322,46	11,616
322,67	6,647
322,88	4,699
323,09	2,996
323,30	8,906
323,51	8,256
323,72	8,455
323,93	4,881
324,14	4,458
324,35	4,020
324,56	0,844
324,77	5,564
324,99	4,565
325,20	0,010
325,41	5,467
325,62	5,623
325,83	4,033
326,04	4,789
326,25	5,920
326,46	5,225
326,67	5,494
326,88	4,268
327,09	4,704
327,30	5,920
327,51	4,159
327,72	6,454
327,93	7,191
328,14	1,296
328,35	3,336
328,56	6,938
328,77	5,086
328,98	5,383
329,19	7,829
329,40	6,884
329,61	5,480
329,82	2,101
330,04	7,364
330,25	5,135
330,46	5,921
330,67	2,287
330,88	6,298
331,09	5,968
331,30	6,111
331,51	5,384
331,72	5,633
331,93	6,686
332,14	4,536
332,35	8,759
332,56	6,718
332,77	9,740
332,98	2,847
333,19	3,506
333,40	7,440
333,61	3,878
333,82	5,756
334,03	5,482
334,24	4,853
334,45	7,437
334,66	7,205
334,87	5,843
335,08	2,713
335,29	2,502
335,50	2,126
335,71	5,307
335,92	6,862
336,13	8,075
336,34	1,165
336,55	5,896
336,76	8,474
336,97	6,052
337,18	3,095
337,39	6,202
337,60	6,850
337,81	6,543
338,02	4,775
338,23	3,151
338,44	6,891
338,65	3,645
338,86	7,569
339,07	2,566
339,28	5,065
339,49	6,413
339,70	3,453
339,91	6,025
340,11	7,639
340,32	3,837
340,53	2,690
340,74	2,711
340,95	1,568
341,16	6,345
341,37	6,096
341,58	3,443
341,79	4,597
342,00	6,498
342,21	3,734
342,42	3,766
342,63	7,041
342,84	0,973
343,05	4,674
343,26	6,707
343,47	7,606
343,68	3,282
343,89	3,766
344,10	5,964
344,31	6,741
344,52	4,440
344,73	5,443
344,94	7,057
345,14	5,277
345,35	3,934
345,56	5,536
345,77	4,080
345,98	4,153
346,19	5,337
346,40	5,053
346,61	3,940
346,82	5,418
347,03	5,051
347,24	8,003
347,45	6,508
347,66	9,714
347,87	3,004
348,08	6,238
348,28	3,461
348,49	5,015
348,70	8,358
348,91	8,051
349,12	3,577
349,33	19,046
349,54	7,362
349,75	9,316
349,96	7,493
350,17	5,243
350,38	1,327
350,59	8,586
350,80	5,925
351,00	8,162
351,21	7,610
351,42	4,528
351,63	4,377
351,84	5,310
352,05	8,666
352,26	3,878
352,47	2,756
352,68	9,581
352,89	6,092
353,09	6,212
353,30	3,322
353,51	4,835
353,72	8,470
353,93	6,733
354,14	2,169
354,35	4,729
354,56	9,378
354,77	2,431
354,98	0,400
355,18	8,357
355,39	8,881
355,60	3,216
355,81	6,142
356,02	5,487
356,23	5,776
356,44	4,600
356,65	7,159
356,85	12,292
357,06	6,921
357,27	7,745
357,48	3,280
357,69	8,176
357,90	5,625
358,11	1,782
358,32	6,456
358,52	7,966
358,73	4,916
358,94	4,351
359,15	4,645
359,36	7,775
359,57	2,196
359,78	4,333
359,98	3,945
360,19	2,994
360,40	5,916
360,61	6,852
360,82	5,765
361,03	9,205
361,24	8,678
361,44	0,526
361,65	6,097
361,86	3,297
362,07	5,699
362,28	3,644
362,49	5,214
362,70	2,885
362,90	6,256
363,11	7,013
363,32	2,847
363,53	7,108
363,74	7,760
363,95	6,546
364,15	7,584
364,36	9,509
364,57	4,249
364,78	5,004
364,99	4,641
365,20	7,715
365,40	7,246
365,61	5,159
365,82	7,786
366,03	7,226
366,24	9,063
366,45	5,523
366,65	4,482
366,86	6,348
367,07	6,213
367,28	6,560
367,49	5,119
367,69	10,430
367,90	7,620
368,11	4,566
368,32	6,054
368,53	6,521
368,73	8,572
368,94	4,152
369,15	4,067
369,36	11,030
369,57	5,964
369,78	5,382
369,98	7,878
370,19	8,186
370,40	5,314
370,61	3,648
370,82	4,389
371,02	8,527
371,23	10,350
371,44	7,209
371,65	7,849
371,85	9,811
372,06	3,669
372,27	6,570
372,48	4,974
372,69	5,611
372,89	-0,052
373,10	6,527
373,31	5,223
373,52	5,990
373,73	10,821
373,93	6,610
374,14	6,809
374,35	6,056
374,56	9,656
374,76	5,416
374,97	4,707
375,18	7,963
375,39	7,840
375,60	8,022
375,80	4,241
376,01	6,574
376,22	7,317
376,43	6,327
376,63	5,669
376,84	5,983
377,05	7,278
377,26	4,298
377,46	5,241
377,67	4,342
377,88	5,066
378,09	5,840
378,29	1,021
378,50	7,337
378,71	8,141
378,92	4,417
379,12	5,150
379,33	6,049
379,54	6,581
379,75	5,063
379,95	3,864
380,16	8,187
380,37	8,837
380,58	7,006
380,78	8,078
380,99	5,884
381,20	4,491
381,41	7,962
381,61	6,312
381,82	9,769
382,03	7,663
382,24	9,144
382,44	7,805
382,65	4,943
382,86	5,316
383,06	6,311
383,27	7,102
383,48	4,514
383,69	8,268
383,89	8,422
384,10	7,973
384,31	6,362
384,51	5,777
384,72	8,237
384,93	3,696
385,14	7,093
385,34	8,097
385,55	6,625
385,76	6,424
385,96	12,522
386,17	8,363
386,38	11,031
386,59	4,116
386,79	6,802
387,00	10,852
387,21	12,497
387,41	9,192
387,62	6,980
387,83	11,389
388,03	7,791
388,24	3,378
388,45	7,707
388,66	8,991
388,86	8,503
389,07	3,973
389,28	12,612
389,48	9,062
389,69	7,039
389,90	7,453
390,10	11,470
390,31	11,459
390,52	4,228
390,72	6,440
390,93	7,438
391,14	7,865
391,34	8,117
391,55	9,588
391,76	10,957
391,96	10,255
392,17	7,494
392,38	9,372
392,58	11,482
392,79	9,672
393,00	6,121
393,20	6,604
393,41	8,763
393,62	8,071
393,82	9,041
394,03	7,857
394,24	7,859
394,44	12,078
394,65	10,763
394,86	8,972
395,06	14,060
395,27	7,656
395,48	8,648
395,68	10,360
395,89	11,684
396,10	8,300
396,30	9,101
396,51	6,234
396,72	15,970
396,92	7,132
397,13	11,669
397,34	6,942
397,54	9,331
397,75	10,505
397,95	7,216
398,16	11,515
398,37	7,565
398,57	9,018
398,78	10,648
398,99	11,918
399,19	11,157
399,40	13,349
399,60	7,216
399,81	11,952
400,02	11,065
400,22	12,066
400,43	11,800
400,64	8,369
400,84	8,614
401,05	11,117
401,25	15,580
401,46	14,595
401,67	15,528
401,87	10,800
402,08	11,772
402,29	9,857
402,49	12,640
402,70	15,627
402,90	10,544
403,11	12,307
403,32	17,716
403,52	10,730
403,73	13,659
403,93	13,935
404,14	16,966
404,35	16,256
404,55	10,606
404,76	11,837
404,96	13,028
405,17	16,298
405,38	14,738
405,58	10,908
405,79	14,366
405,99	11,977
406,20	11,338
406,40	9,897
406,61	17,061
406,82	7,422
407,02	14,816
407,23	12,084
407,43	11,192
407,64	9,747
407,85	14,505
408,05	9,322
408,26	21,738
408,46	17,613
408,67	10,840
408,87	12,630
409,08	17,838
409,29	18,329
409,49	15,929
409,70	15,614
409,90	18,231
410,11	14,590
410,31	17,681
410,52	15,605
410,72	12,025
410,93	15,186
411,14	15,977
411,34	11,703
411,55	19,306
411,75	18,577
411,96	16,574
412,16	20,363
412,37	16,564
412,57	17,824
412,78	16,593
412,99	14,826
413,19	18,285
413,40	18,864
413,60	14,145
413,81	14,704
414,01	16,176
414,22	16,797
414,42	16,330
414,63	12,095
414,83	20,801
415,04	23,116
415,24	16,281
415,45	15,161
415,65	16,853
415,86	22,607
416,07	15,787
416,27	13,539
416,48	23,272
416,68	20,702
416,89	17,317
417,09	17,850
417,30	21,926
417,50	18,314
417,71	19,395
417,91	21,444
418,12	14,327
418,32	18,776
418,53	18,103
418,73	16,773
418,94	19,029
419,14	18,254
419,35	15,968
419,55	18,599
419,76	21,248
419,96	16,621
420,17	17,233
420,37	16,037
420,58	22,009
420,78	16,421
420,99	18,299
421,19	20,239
421,40	22,184
421,60	23,001
421,81	15,623
422,01	21,104
422,22	19,011
422,42	21,160
422,63	18,647
422,83	19,296
423,04	22,118
423,24	25,752
423,45	16,899
423,65	20,401
423,86	23,092
424,06	21,852
424,27	18,621
424,47	18,658
424,67	16,061
424,88	19,732
425,08	18,899
425,29	24,804
425,49	20,732
425,70	15,222
425,90	21,716
426,11	19,630
426,31	20,736
426,52	20,551
426,72	18,086
426,93	17,615
427,13	24,089
427,33	21,488
427,54	22,575
427,74	21,767
427,95	25,698
428,15	22,106
428,36	21,325
428,56	23,323
428,77	22,214
428,97	19,548
429,18	21,769
429,38	17,426
429,58	22,469
429,79	22,327
429,99	20,477
430,20	17,970
430,40	26,651
430,61	17,820
430,81	18,234
431,01	20,605
431,22	23,390
431,42	25,160
431,63	19,496
431,83	19,569
432,04	23,478
432,24	27,227
432,44	20,623
432,65	19,820
432,85	21,097
433,06	21,774
433,26	23,470
433,47	19,131
433,67	21,745
433,87	20,915
434,08	19,621
434,28	17,841
434,49	19,706
434,69	26,949
434,89	17,891
435,10	19,167
435,30	22,596
435,51	20,122
435,71	20,856
435,91	19,702
436,12	22,342
436,32	21,925
436,53	22,879
436,73	19,922
436,93	20,199
437,14	24,095
437,34	20,625
437,55	19,371
437,75	20,144
437,95	24,806
438,16	17,358
438,36	24,010
438,57	17,580
438,77	21,977
438,97	23,617
439,18	24,640
439,38	22,190
439,58	20,812
439,79	22,302
439,99	19,816
440,20	23,743
440,40	26,425
440,60	20,114
440,81	23,867
441,01	26,631
441,21	24,168
441,42	25,223
441,62	24,294
441,83	21,853
442,03	25,485
442,23	23,375
442,44	20,793
442,64	23,767
442,84	19,805
443,05	22,394
443,25	21,235
443,45	24,794
443,66	23,382
443,86	20,696
444,06	24,915
444,27	20,724
444,47	22,343
444,67	21,944
444,88	25,043
445,08	23,389
445,28	25,085
445,49	19,866
445,69	21,062
445,90	22,449
446,10	25,461
446,30	24,429
446,51	23,565
446,71	27,737
446,91	26,553
447,12	25,955
447,32	24,240
447,52	23,726
447,72	26,442
447,93	22,796
448,13	18,763
448,33	31,341
448,54	24,823
448,74	22,161
448,94	25,221
449,15	28,530
449,35	27,749
449,55	24,922
449,76	29,457
449,96	25,719
450,16	23,975
450,37	21,442
450,57	25,359
450,77	19,563
450,98	24,574
451,18	22,534
451,38	23,330
451,58	29,270
451,79	22,673
451,99	24,779
452,19	22,975
452,40	30,527
452,60	20,403
452,80	21,962
453,00	26,417
453,21	25,342
453,41	25,396
453,61	23,497
453,82	25,575
454,02	21,269
454,22	30,867
454,42	24,061
454,63	24,987
454,83	27,369
455,03	27,678
455,24	24,624
455,44	22,507
455,64	24,744
455,84	24,101
456,05	18,624
456,25	26,017
456,45	27,251
456,65	25,684
456,86	29,613
457,06	23,315
457,26	33,242
457,47	28,897
457,67	24,440
457,87	22,404
458,07	25,618
458,28	27,288
458,48	23,922
458,68	22,920
458,88	28,536
459,09	29,592
459,29	30,930
459,49	25,838
459,69	27,925
459,90	28,365
460,10	22,989
460,30	28,112
460,50	25,828
460,71	24,786
460,91	27,335
461,11	26,912
461,31	22,049
461,52	30,803
461,72	23,393
461,92	25,306
462,12	31,511
462,32	25,541
462,53	25,700
462,73	24,849
462,93	31,349
463,13	28,967
463,34	27,659
463,54	26,635
463,74	30,994
463,94	27,448
464,14	29,726
464,35	24,078
464,55	29,491
464,75	31,669
464,95	28,470
465,16	21,821
465,36	28,795
465,56	25,439
465,76	27,521
465,96	28,134
466,17	25,247
466,37	24,506
466,57	27,369
466,77	24,397
466,97	22,559
467,18	31,027
467,38	27,424
467,58	30,314
467,78	30,207
467,98	28,637
468,19	28,130
468,39	28,793
468,59	30,494
468,79	29,452
468,99	25,091
469,19	26,655
469,40	29,854
469,60	19,876
469,80	25,390
470,00	26,465
470,20	30,666
470,41	28,995
470,61	30,132
470,81	30,294
471,01	26,958
471,21	29,075
471,41	27,576
471,62	28,866
471,82	27,404
472,02	29,615
472,22	24,901
472,42	26,523
472,62	29,159
472,83	28,714
473,03	30,539
473,23	27,315
473,43	30,082
473,63	31,633
473,83	32,132
474,03	27,810
474,24	29,853
474,44	26,278
474,64	27,855
474,84	24,964
475,04	30,839
475,24	29,120
475,45	24,799
475,65	28,498
475,85	34,267
476,05	24,336
476,25	28,771
476,45	25,550
476,65	33,080
476,85	29,693
477,06	29,267
477,26	25,335
477,46	28,272
477,66	28,245
477,86	31,109
478,06	27,946
478,26	36,398
478,46	27,746
478,67	30,443
478,87	28,915
479,07	28,513
479,27	31,659
479,47	27,217
479,67	22,907
479,87	26,614
480,07	32,183
480,28	28,156
480,48	28,821
480,68	28,832
480,88	31,274
481,08	27,985
481,28	32,689
481,48	29,141
481,68	28,059
481,88	24,692
482,08	28,265
482,29	32,644
482,49	28,465
482,69	29,093
482,89	29,569
483,09	32,117
483,29	28,514
483,49	27,224
483,69	29,305
483,89	29,110
484,09	25,955
484,29	23,886
484,50	26,529
484,70	28,482
484,90	27,723
485,10	27,521
485,30	28,678
485,50	32,069
485,70	29,255
485,90	27,213
486,10	24,555
486,30	28,193
486,50	28,394
486,70	25,939
486,90	28,594
487,10	27,434
487,30	26,417
487,51	27,365
487,71	25,170
487,91	24,288
488,11	31,376
488,31	23,224
488,51	28,393
488,71	26,447
488,91	28,982
489,11	25,709
489,31	28,233
489,51	27,257
489,71	28,442
489,91	29,183
490,11	28,413
490,31	27,914
490,51	29,129
490,71	28,013
490,91	27,073
491,11	28,397
491,31	29,504
491,51	26,271
491,72	26,065
491,92	28,642
492,12	32,324
492,32	29,865
492,52	29,867
492,72	29,831
492,92	29,971
493,12	29,948
493,32	26,805
493,52	24,331
493,72	27,494
493,92	28,502
494,12	29,597
494,32	30,178
494,52	28,088
494,72	29,029
494,92	26,272
495,12	29,724
495,32	32,210
495,52	27,372
495,72	28,300
495,92	31,315
496,12	30,862
496,32	28,037
496,52	24,438
496,72	26,672
496,92	30,243
497,12	28,761
497,32	30,346
497,52	28,164
497,72	33,527
497,92	29,062
498,12	27,936
498,32	30,401
498,52	29,500
498,72	27,597
498,92	27,117
499,12	29,852
499,32	27,295
499,52	29,504
499,72	31,729
499,92	31,561
500,12	31,174
500,32	31,789
500,52	27,721
500,72	35,871
500,91	30,054
501,11	28,190
501,31	26,362
501,51	29,877
501,71	31,980
501,91	32,313
502,11	27,984
502,31	29,905
502,51	31,912
502,71	28,302
502,91	30,894
503,11	28,163
503,31	29,882
503,51	28,951
503,71	26,456
503,91	33,335
504,11	29,499
504,31	29,175
504,51	28,875
504,71	35,297
504,91	28,195
505,10	30,415
505,30	29,720
505,50	28,920
505,70	27,695
505,90	30,776
506,10	26,649
506,30	32,086
506,50	32,915
506,70	33,835
506,90	28,960
507,10	30,127
507,30	30,587
507,50	30,800
507,70	30,346
507,89	29,892
508,09	30,128
508,29	29,626
508,49	28,923
508,69	28,834
508,89	28,048
509,09	28,466
509,29	28,894
509,49	30,927
509,69	35,337
509,89	29,732
510,09	27,503
510,28	30,353
510,48	29,244
510,68	27,927
510,88	27,323
511,08	27,004
511,28	27,740
511,48	28,551
511,68	28,341
511,88	25,555
512,07	28,865
512,27	29,495
512,47	28,172
512,67	26,652
512,87	27,643
513,07	28,770
513,27	28,616
513,47	28,711
513,67	27,618
513,86	29,947
514,06	30,359
514,26	28,768
514,46	32,153
514,66	29,774
514,86	29,839
515,06	33,406
515,26	31,686
515,45	30,581
515,65	28,474
515,85	29,979
516,05	29,028
516,25	26,876
516,45	30,108
516,65	27,474
516,84	28,764
517,04	33,778
517,24	27,126
517,44	29,338
517,64	31,580
517,84	31,424
518,04	29,287
518,23	30,783
518,43	31,842
518,63	28,642
518,83	28,452
519,03	29,357
519,23	29,633
519,42	26,665
519,62	26,997
519,82	27,626
520,02	27,015
520,22	29,482
520,42	27,752
520,61	30,314
520,81	31,975
521,01	34,561
521,21	28,194
521,41	28,274
521,61	33,109
521,80	27,655
522,00	28,511
522,20	31,291
522,40	33,253
522,60	29,471
522,79	27,566
522,99	31,138
523,19	28,505
523,39	28,754
523,59	28,468
523,78	29,400
523,98	29,822
524,18	32,054
524,38	29,142
524,58	30,090
524,77	32,364
524,97	29,229
525,17	31,056
525,37	30,140
525,57	31,755
525,76	27,995
525,96	28,937
526,16	28,834
526,36	28,480
526,56	28,738
526,75	26,641
526,95	29,372
527,15	29,708
527,35	31,036
527,55	28,149
527,74	29,687
527,94	28,082
528,14	28,396
528,34	27,392
528,53	28,108
528,73	30,755
528,93	28,662
529,13	27,758
529,32	29,844
529,52	30,980
529,72	25,899
529,92	28,097
530,12	26,577
530,31	24,548
530,51	27,430
530,71	29,505
530,91	28,374
531,10	24,518
531,30	27,965
531,50	27,491
531,70	28,702
531,89	27,931
532,09	25,842
532,29	26,700
532,49	29,280
532,68	27,100
532,88	28,588
533,08	26,334
533,28	27,035
533,47	27,660
533,67	28,942
533,87	26,513
534,06	30,219
534,26	30,720
534,46	24,124
534,66	27,507
534,85	29,759
535,05	22,290
535,25	27,051
535,45	24,962
535,64	26,900
535,84	26,747
536,04	26,785
536,23	28,671
536,43	29,251
536,63	25,310
536,83	27,000
537,02	26,463
537,22	22,946
537,42	25,740
537,61	27,764
537,81	26,674
538,01	28,544
538,20	28,928
538,40	24,536
538,60	25,899
538,80	26,217
538,99	25,653
539,19	25,568
539,39	23,592
539,58	24,771
539,78	23,072
539,98	21,517
540,17	22,149
540,37	24,855
540,57	21,738
540,76	22,669
540,96	18,330
541,16	22,469
541,36	19,952
541,55	17,873
541,75	18,547
541,95	20,629
542,14	19,470
542,34	17,739
542,54	18,254
542,73	20,821
542,93	19,461
543,13	19,841
543,32	18,052
543,52	19,547
543,72	17,689
543,91	18,651
544,11	17,164
544,31	18,594
544,50	18,130
544,70	20,185
544,89	20,094
545,09	22,192
545,29	19,437
545,48	20,731
545,68	18,935
545,88	20,352
546,07	21,183
546,27	19,700
546,47	21,619
546,66	21,601
546,86	21,962
547,06	23,180
547,25	21,901
547,45	23,098
547,64	22,869
547,84	25,636
548,04	24,016
548,23	22,963
548,43	22,998
548,63	25,677
548,82	25,414
549,02	23,079
549,21	23,474
549,41	24,841
549,61	26,040
549,80	24,319
550,00	26,719
550,20	22,272
550,39	24,755
550,59	23,301
550,78	25,479
550,98	22,242
551,18	27,037
551,37	25,713
551,57	25,271
551,76	26,215
551,96	25,686
552,16	23,282
552,35	24,850
552,55	27,037
552,74	25,861
552,94	27,180
553,14	27,032
553,33	25,869
553,53	27,356
553,72	25,797
553,92	27,008
554,12	24,459
554,31	27,268
554,51	26,737
554,70	22,335
554,90	24,963
555,09	28,677
555,29	27,740
555,49	28,568
555,68	27,315
555,88	24,914
556,07	26,180
556,27	27,439
556,46	26,157
556,66	23,875
556,86	29,817
557,05	27,797
557,25	25,718
557,44	26,368
557,64	25,495
557,83	27,182
558,03	24,520
558,22	24,956
558,42	27,135
558,62	28,744
558,81	26,392
559,01	25,564
559,20	27,874
559,40	26,470
559,59	27,550
559,79	24,786
559,98	28,545
560,18	28,441
560,37	29,098
560,57	28,203
560,76	26,567
560,96	25,862
561,16	27,106
561,35	27,911
561,55	29,480
561,74	26,757
561,94	27,254
562,13	26,804
562,33	28,604
562,52	26,969
562,72	26,116
562,91	25,119
563,11	26,396
563,30	29,885
563,50	27,892
563,69	24,347
563,89	24,452
564,08	28,574
564,28	27,517
564,47	27,713
564,67	26,974
564,86	27,657
565,06	27,247
565,25	26,993
565,45	26,441
565,64	30,291
565,84	26,899
566,03	23,680
566,23	26,305
566,42	27,169
566,62	27,625
566,81	26,291
567,01	27,691
567,20	27,901
567,40	26,381
567,59	26,896
567,79	28,622
567,98	28,793
568,18	26,585
568,37	28,124
568,57	26,500
568,76	28,974
568,96	26,146
569,15	27,124
569,35	29,067
569,54	28,557
569,73	28,876
569,93	25,126
570,12	28,631
570,32	27,549
570,51	27,735
570,71	27,940
570,90	26,935
571,10	26,871
571,29	26,625
571,49	25,488
571,68	26,283
571,87	26,933
572,07	26,484
572,26	25,173
572,46	27,778
572,65	28,325
572,85	23,708
573,04	25,872
573,24	26,555
573,43	29,379
573,62	27,986
573,82	26,404
574,01	27,781
574,21	25,415
574,40	26,680
574,60	24,797
574,79	28,616
574,98	24,462
575,18	27,506
575,37	26,306
575,57	26,854
575,76	27,186
575,96	27,424
576,15	26,809
576,34	27,681
576,54	28,095
576,73	26,982
576,93	28,274
577,12	27,069
577,31	27,324
577,51	26,311
577,70	26,511
577,90	25,922
578,09	25,430
578,28	26,646
578,48	26,520
578,67	29,111
578,87	27,540
579,06	24,494
579,25	26,765
579,45	27,158
579,64	26,227
579,84	26,786
580,03	26,748
580,22	26,949
580,42	24,670
580,61	26,127
580,81	26,271
581,00	26,974
581,19	27,596
581,39	26,627
581,58	25,239
581,77	25,434
581,97	28,387
582,16	26,263
582,35	25,606
582,55	27,324
582,74	28,651
582,94	27,297
583,13	24,706
583,32	27,607
583,52	27,780
583,71	26,796
583,90	27,038
584,10	27,559
584,29	27,581
584,48	24,628
584,68	27,006
584,87	28,386
585,06	26,799
585,26	26,907
585,45	25,973
585,65	28,353
585,84	26,842
586,03	26,511
586,23	25,751
586,42	26,148
586,61	28,847
586,81	26,314
587,00	26,170
587,19	25,862
587,39	28,568
587,58	28,992
587,77	26,742
587,97	26,992
588,16	27,002
588,35	27,787
588,54	27,317
588,74	27,071
588,93	28,898
589,12	28,499
589,32	28,285
589,51	27,986
589,70	26,256
589,90	28,018
590,09	27,887
590,28	29,239
590,48	27,033
590,67	27,895
590,86	27,843
591,06	28,662
591,25	28,534
591,44	28,469
591,63	28,388
591,83	27,223
592,02	28,981
592,21	26,601
592,41	26,639
592,60	28,294
592,79	29,008
592,98	26,867
593,18	28,942
593,37	28,067
593,56	29,091
593,76	28,540
593,95	28,396
594,14	26,732
594,33	29,888
594,53	27,004
594,72	26,647
594,91	30,637
595,10	30,280
595,30	29,178
595,49	28,023
595,68	29,976
595,88	28,160
596,07	28,796
596,26	29,481
596,45	28,795
596,65	28,966
596,84	28,158
597,03	29,995
597,22	32,565
597,42	32,385
597,61	29,581
597,80	28,864
597,99	28,494
598,19	29,979
598,38	28,983
598,57	27,820
598,76	31,209
598,95	30,550
599,15	31,415
599,34	29,286
599,53	29,029
599,72	29,795
599,92	30,125
600,11	29,808
600,30	29,387
600,49	30,905
600,69	28,719
600,88	30,453
601,07	31,077
601,26	29,199
601,45	30,082
601,65	28,206
601,84	30,471
602,03	30,241
602,22	30,287
602,42	31,334
602,61	29,306
602,80	30,457
602,99	30,755
603,18	28,303
603,38	32,299
603,57	29,552
603,76	28,754
603,95	29,025
604,14	29,935
604,34	31,109
604,53	29,621
604,72	29,863
604,91	30,255
605,10	30,090
605,29	31,756
605,49	29,138
605,68	32,173
605,87	30,676
606,06	27,999
606,25	29,598
606,45	30,414
606,64	29,618
606,83	30,060
607,02	27,614
607,21	30,634
607,40	30,692
607,60	27,417
607,79	27,911
607,98	27,250
608,17	28,011
608,36	28,147
608,55	28,279
608,75	29,131
608,94	27,132
609,13	24,399
609,32	25,790
609,51	26,231
609,70	25,010
609,89	25,817
610,09	24,385
610,28	26,934
610,47	25,130
610,66	24,701
610,85	23,855
611,04	26,020
611,23	25,233
611,43	25,090
611,62	25,330
611,81	25,016
612,00	26,333
612,19	25,007
612,38	24,938
612,57	26,941
612,77	25,961
612,96	25,764
613,15	26,508
613,34	28,424
613,53	28,352
613,72	28,472
613,91	28,050
614,10	27,548
614,29	29,855
614,49	26,108
614,68	26,653
614,87	29,820
615,06	30,075
615,25	26,777
615,44	30,927
615,63	29,570
615,82	28,472
616,01	29,552
616,21	30,105
616,40	30,904
616,59	31,376
616,78	30,842
616,97	32,035
617,16	30,938
617,35	32,805
617,54	30,528
617,73	33,378
617,92	30,143
618,11	31,376
618,31	28,800
618,50	30,691
618,69	30,473
618,88	30,369
619,07	27,944
619,26	29,421
619,45	28,950
619,64	29,498
619,83	29,686
620,02	29,162
620,21	32,567
620,40	31,203
620,59	28,878
620,78	29,219
620,97	31,556
621,17	30,831
621,36	29,893
621,55	29,304
621,74	30,576
621,93	31,155
622,12	30,262
622,31	28,589
622,50	31,271
622,69	34,146
622,88	30,735
623,07	34,185
623,26	32,535
623,45	32,131
623,64	30,698
623,83	28,661
624,02	33,772
624,21	32,994
624,40	30,187
624,59	29,095
624,78	31,799
624,97	32,250
625,16	30,887
625,35	29,414
625,54	31,102
625,73	32,411
625,92	29,869
626,12	32,759
626,31	34,334
626,50	33,097
626,69	32,519
626,88	30,240
627,07	30,151
627,26	32,371
627,45	30,800
627,64	31,367
627,83	31,147
628,02	30,556
628,21	30,881
628,40	31,914
628,59	32,412
628,78	31,641
628,97	30,384
629,16	30,392
629,35	31,159
629,54	34,372
629,73	32,585
629,92	31,401
630,10	32,265
630,29	31,510
630,48	31,565
630,67	31,340
630,86	33,601
631,05	30,814
631,24	32,500
631,43	30,055
631,62	33,306
631,81	31,710
632,00	33,005
632,19	30,304
632,38	32,193
632,57	32,296
632,76	30,529
632,95	30,833
633,14	33,694
633,33	33,686
633,52	32,135
633,71	32,755
633,90	31,053
634,09	31,997
634,28	31,139
634,47	31,406
634,66	31,600
634,85	33,142
635,04	33,430
635,22	31,856
635,41	32,360
635,60	33,589
635,79	33,170
635,98	29,994
636,17	31,915
636,36	31,514
636,55	33,171
636,74	30,415
636,93	32,063
637,12	33,974
637,31	31,651
637,50	31,264
637,69	32,410
637,87	32,904
638,06	33,170
638,25	32,221
638,44	32,886
638,63	31,351
638,82	30,874
639,01	32,347
639,20	30,692
639,39	34,824
639,58	31,117
639,77	32,523
639,95	32,499
640,14	34,253
640,33	31,235
640,52	32,384
640,71	33,897
640,90	33,431
641,09	33,510
641,28	31,373
641,47	33,965
641,66	32,692
641,84	31,996
642,03	30,265
642,22	31,975
642,41	35,073
642,60	34,254
642,79	32,283
642,98	33,741
643,17	31,083
643,35	33,154
643,54	33,153
643,73	33,868
643,92	33,200
644,11	32,532
644,30	34,551
644,49	35,074
644,67	32,119
644,86	31,472
645,05	32,785
645,24	34,031
645,43	33,668
645,62	34,168
645,81	32,681
645,99	34,103
646,18	33,991
646,37	32,243
646,56	32,048
646,75	34,152
646,94	33,378
647,13	32,047
647,31	32,231
647,50	32,975
647,69	34,670
647,88	33,983
648,07	33,704
648,26	35,779
648,44	33,440
648,63	32,214
648,82	31,680
649,01	34,365
649,20	32,274
649,38	32,881
649,57	33,733
649,76	31,038
649,95	34,548
650,14	29,702
650,33	32,114
650,51	32,942
650,70	33,930
650,89	32,024
651,08	32,341
651,27	32,504
651,45	31,875
651,64	31,372
651,83	32,795
652,02	32,073
652,21	33,967
652,39	34,260
652,58	32,874
652,77	32,676
652,96	35,036
653,15	33,798
653,33	33,595
653,52	33,820
653,71	34,755
653,90	34,172
654,09	33,828
654,27	32,743
654,46	34,935
654,65	32,761
654,84	34,318
655,02	35,100
655,21	34,544
655,40	34,924
655,59	33,703
655,77	35,496
655,96	34,432
656,15	33,899
656,34	35,105
656,53	34,019
656,71	33,058
656,90	33,843
657,09	35,028
657,28	34,331
657,46	32,508
657,65	33,703
657,84	33,284
658,03	34,199
658,21	34,945
658,40	32,998
658,59	33,641
658,78	33,857
658,96	33,027
659,15	33,455
659,34	32,960
659,52	33,987
659,71	33,975
659,90	32,923
660,09	34,256
660,27	33,216
660,46	35,667
660,65	33,870
660,84	32,753
661,02	33,699
661,21	33,943
661,40	34,653
661,58	34,512
661,77	34,615
661,96	31,199
662,15	33,563
662,33	33,311
662,52	32,131
662,71	33,567
662,89	31,565
663,08	32,471
663,27	33,767
663,45	32,070
663,64	33,628
663,83	31,292
664,02	32,572
664,20	35,090
664,39	32,237
664,58	33,724
664,76	33,344
664,95	34,627
665,14	33,095
665,32	31,576
665,51	33,775
665,70	33,588
665,88	34,346
666,07	33,438
666,26	34,915
666,44	34,719
666,63	32,135
666,82	32,907
667,00	34,817
667,19	32,856
667,38	32,681
667,56	35,769
667,75	33,466
667,94	34,722
668,12	31,228
668,31	32,895
668,50	33,118
668,68	33,505
668,87	31,575
669,06	33,822
669,24	35,469
669,43	33,097
669,62	32,232
669,80	31,345
669,99	34,099
670,18	34,387
670,36	33,108
670,55	32,357
670,74	34,504
670,92	32,533
671,11	34,895
671,29	33,286
671,48	33,176
671,67	33,203
671,85	35,148
672,04	31,602
672,23	31,513
672,41	33,848
672,60	32,226
672,78	32,636
672,97	34,656
673,16	34,644
673,34	33,073
673,53	32,697
673,71	32,757
673,90	33,100
674,09	32,245
674,27	32,878
674,46	32,320
674,64	34,669
674,83	32,560
675,02	32,170
675,20	32,054
675,39	32,428
675,57	34,952
675,76	32,319
675,95	35,275
676,13	32,603
676,32	32,887
676,50	33,092
676,69	31,440
676,88	32,760
677,06	31,688
677,25	32,531
677,43	35,214
677,62	34,661
677,80	34,277
677,99	33,644
678,18	33,645
678,36	35,229
678,55	31,379
678,73	32,503
678,92	33,236
679,10	33,447
679,29	33,751
679,48	34,098
679,66	32,306
679,85	32,909
680,03	32,520
680,22	32,309
680,40	32,671
680,59	33,899
680,77	33,254
680,96	35,589
681,15	33,249
681,33	33,964
681,52	33,099
681,70	32,432
681,89	35,124
682,07	32,526
682,26	32,869
682,44	33,569
682,63	33,067
682,81	34,972
683,00	34,493
683,18	31,906
683,37	35,053
683,55	33,642
683,74	33,832
683,92	38,332
684,11	34,595
684,29	35,044
684,48	31,707
684,67	32,451
684,85	34,008
685,04	34,402
685,22	32,729
685,41	31,985
685,59	33,370
685,78	32,196
685,96	34,189
686,15	35,232
686,33	32,332
686,52	33,505
686,70	33,571
686,89	32,865
687,07	34,323
687,26	35,281
687,44	32,514
687,62	33,259
687,81	33,365
687,99	33,438
688,18	33,862
688,36	34,036
688,55	34,122
688,73	34,166
688,92	32,363
689,10	32,503
689,29	33,247
689,47	34,941
689,66	32,498
689,84	32,461
690,03	35,689
690,21	33,456
690,40	34,441
690,58	31,534
690,76	32,855
690,95	33,479
691,13	33,365
691,32	33,888
691,50	32,013
691,69	35,397
691,87	31,592
692,06	33,542
692,24	33,040
692,43	34,223
692,61	31,413
692,79	32,852
692,98	32,103
693,16	36,070
693,35	31,877
693,53	33,820
693,72	32,655
693,90	34,379
694,08	33,948
694,27	32,509
694,45	36,436
694,64	35,924
694,82	33,221
695,01	31,090
695,19	32,886
695,37	31,760
695,56	31,609
695,74	33,975
695,93	34,271
696,11	31,180
696,29	35,567
696,48	34,587
696,66	33,072
696,85	32,459
697,03	32,515
697,21	34,597
697,40	33,974
697,58	34,625
697,77	34,144
697,95	34,319
698,13	33,963
698,32	32,672
698,50	32,669
698,69	31,252
698,87	31,641
699,05	32,864
699,24	34,037
699,42	31,146
699,60	31,461
699,79	32,378
699,97	32,583
700,16	31,249
700,34	34,741
700,52	33,233
700,71	33,256
700,89	31,881
701,07	32,683
701,26	33,840
701,44	31,214
701,63	30,923
701,81	33,413
701,99	33,284
702,18	31,920
702,36	32,257
702,54	32,238
702,73	33,684
702,91	32,216
703,09	33,390
703,28	32,996
703,46	33,008
703,64	32,576
703,83	32,589
704,01	34,246
704,19	32,889
704,38	32,162
704,56	32,109
704,74	35,347
704,93	32,889
705,11	33,822
705,29	32,320
705,48	35,057
705,66	34,209
705,84	31,418
706,03	29,385
706,21	33,599
706,39	32,786
706,58	33,188
706,76	31,775
706,94	34,161
707,12	32,354
707,31	30,524
707,49	31,709
707,67	32,150
707,86	34,957
708,04	31,092
708,22	31,337
708,41	33,754
708,59	32,202
708,77	30,790
708,95	32,290
709,14	35,160
709,32	33,851
709,50	31,823
709,69	32,858
709,87	33,265
710,05	33,344
710,23	33,438
710,42	32,027
710,60	33,372
710,78	34,350
710,97	33,012
711,15	32,897
711,33	33,176
711,51	32,114
711,70	30,384
711,88	31,906
712,06	33,600
712,24	33,661
712,43	32,729
712,61	31,935
712,79	33,153
712,97	31,468
713,16	32,607
713,34	32,618
713,52	33,683
713,70	34,321
713,89	32,196
714,07	32,534
714,25	34,224
714,43	34,479
714,62	32,207
714,80	32,392
714,98	31,437
715,16	32,190
715,35	32,927
715,53	33,162
715,71	34,769
715,89	33,107
716,07	33,826
716,26	37,070
716,44	34,368
716,62	34,504
716,80	33,814
716,99	32,402
717,17	35,657
717,35	33,570
717,53	31,543
717,71	31,495
717,90	33,810
718,08	32,620
718,26	31,330
718,44	33,020
718,62	33,606
718,81	33,294
718,99	32,390
719,17	32,307
719,35	32,585
719,53	31,967
719,72	30,617
719,90	33,140
720,08	31,897
720,26	35,408
720,44	30,952
720,62	31,930
720,81	34,341
720,99	36,591
721,17	33,048
721,35	32,908
721,53	33,011
721,72	34,754
721,90	33,780
722,08	33,753
722,26	33,548
722,44	32,731
722,62	32,962
722,81	32,090
722,99	33,001
723,17	31,468
723,35	35,154
723,53	32,345
723,71	34,751
723,89	34,856
724,08	28,183
724,26	33,639
724,44	33,622
724,62	33,760
724,80	32,193
724,98	34,579
725,16	35,426
725,35	33,663
725,53	31,863
725,71	31,156
725,89	34,235
726,07	34,363
726,25	35,636
726,43	33,099
726,61	34,947
726,80	35,195
726,98	30,921
727,16	32,756
727,34	33,161
727,52	32,946
727,70	33,403
727,88	31,843
728,06	31,529
728,25	30,392
728,43	33,269
728,61	31,746
728,79	31,897
728,97	33,721
729,15	33,383
729,33	33,868
729,51	34,796
729,69	35,110
729,87	31,839
730,06	33,415
730,24	32,093
730,42	34,821
730,60	31,987
730,78	32,752
730,96	33,256
731,14	33,171
731,32	32,038
731,50	29,592
731,68	31,107
731,86	32,677
732,04	32,980
732,22	32,000
732,41	36,094
732,59	33,171
732,77	34,075
732,95	33,732
733,13	33,731
733,31	33,650
733,49	32,667
733,67	33,504
733,85	33,318
734,03	33,675
734,21	32,643
734,39	33,384
734,57	34,830
734,75	35,075
734,93	33,262
735,11	32,784
735,29	30,678
735,47	35,099
735,65	33,191
735,84	31,068
736,02	33,905
736,20	36,315
736,38	33,010
736,56	31,279
736,74	36,478
736,92	32,928
737,10	32,489
737,28	33,136
737,46	33,482
737,64	31,130
737,82	32,216
738,00	33,460
738,18	36,811
738,36	31,791
738,54	32,156
738,72	31,927
738,90	33,912
739,08	33,444
739,26	29,771
739,44	32,464
739,62	33,836
739,80	33,743
739,98	34,058
740,16	32,404
740,34	32,294
740,52	34,371
740,70	34,281
740,88	32,286
741,06	31,695
741,24	33,057
741,42	34,211
741,60	31,206
741,78	36,040
741,96	34,009
742,14	32,020
742,32	30,423
742,50	33,934
742,68	32,602
742,86	31,453
743,04	32,107
743,21	34,799
743,39	32,562
743,57	33,028
743,75	30,897
743,93	30,091
744,11	28,605
744,29	32,517
744,47	33,495
744,65	31,219
744,83	32,413
745,01	30,984
745,19	35,724
745,37	35,116
745,55	33,996
745,73	34,403
745,91	31,150
746,09	32,235
746,27	30,730
746,45	31,156
746,62	32,789
746,80	33,808
746,98	33,870
747,16	30,692
747,34	32,374
747,52	33,189
747,70	33,638
747,88	33,962
748,06	32,338
748,24	34,079
748,42	35,632
748,60	32,585
748,78	31,477
748,95	36,289
749,13	36,407
749,31	32,735
749,49	33,373
749,67	33,808
749,85	34,160
750,03	33,298
750,21	31,376
750,39	32,380
750,57	35,853
750,74	31,712
750,92	30,370
751,10	34,693
751,28	31,362
751,46	32,753
751,64	32,875
751,82	33,694
752,00	31,791
752,17	33,689
752,35	31,933
752,53	32,403
752,71	33,762
752,89	31,756
753,07	32,104
753,25	34,539
753,43	30,060
753,60	33,661
753,78	32,607
753,96	34,991
754,14	33,131
754,32	33,191
754,50	34,238
754,68	35,055
754,85	33,351
755,03	34,468
755,21	33,372
755,39	36,211
755,57	33,501
755,75	32,394
755,92	31,208
756,10	33,256
756,28	34,089
756,46	31,623
756,64	32,435
756,82	33,846
756,99	32,578
757,17	31,782
757,35	31,225
757,53	35,981
757,71	34,334
757,89	31,488
758,06	33,037
758,24	33,788
758,42	34,794
758,60	31,541
758,78	32,281
758,95	33,478
759,13	33,129
759,31	31,070
759,49	32,942
759,67	32,186
759,84	31,390
760,02	32,783
760,20	32,729
760,38	33,157
760,56	30,300
760,73	35,050
760,91	33,011
761,09	33,399
761,27	32,344
761,45	32,875
761,62	32,120
761,80	32,995
761,98	32,659
762,16	34,577
762,33	31,979
762,51	33,810
762,69	33,143
762,87	32,382
763,05	32,940
763,22	31,669
763,40	31,508
763,58	30,683
763,76	30,985
763,93	35,205
764,11	34,673
764,29	30,122
764,47	33,645
764,64	36,000
764,82	33,893
765,00	31,726
765,18	30,251
765,35	31,205
765,53	31,402
765,71	32,602
765,89	31,297
766,06	32,573
766,24	32,070
766,42	33,027
766,60	31,353
766,77	32,253
766,95	32,754
767,13	33,009
767,30	34,107
767,48	34,504
767,66	32,657
767,84	31,678
768,01	32,228
768,19	34,240
768,37	33,280
768,54	31,544
768,72	33,317
768,90	33,673
769,08	32,617
769,25	32,919
769,43	32,788
769,61	30,926
769,78	32,757
769,96	32,296
770,14	34,393
770,31	35,173
770,49	33,293
770,67	33,462
770,85	31,527
771,02	32,766
771,20	32,498
771,38	33,538
771,55	32,076
771,73	32,128
771,91	33,360
772,08	33,519
772,26	33,712
772,44	32,391
772,61	33,232
772,79	33,398
772,97	33,929
773,14	30,341
773,32	34,592
773,50	33,010
773,67	33,955
773,85	34,655
774,03	36,200
774,20	33,609
774,38	34,636
774,56	34,968
774,73	30,228
774,91	31,673
775,09	30,744
775,26	32,086
775,44	31,661
775,61	33,472
775,79	33,877
775,97	35,257
776,14	33,578
776,32	33,111
776,50	32,873
776,67	32,239
776,85	32,187
777,03	30,360
777,20	34,801
777,38	36,183
777,55	32,770
777,73	28,498
777,91	29,546
778,08	32,502
778,26	30,558
778,43	33,370
778,61	28,807
778,79	32,002
778,96	29,805
779,14	32,221
779,32	31,414
779,49	35,573
779,67	33,993
779,84	31,878
780,02	35,038
780,20	31,390
780,37	35,619
780,55	27,996
780,72	36,520
780,90	34,826
781,07	34,153
781,25	32,893
781,43	31,749
781,60	33,171
781,78	33,300
781,95	32,949
782,13	35,160
782,30	35,464
782,48	34,932
782,66	32,562
782,83	27,569
783,01	37,626
783,18	35,249
783,36	34,283
783,53	33,155
783,71	31,227
783,89	33,246
784,06	32,613
784,24	34,270
784,41	35,394
784,59	33,291
784,76	33,215
784,94	33,849
785,11	34,424
785,29	34,101
785,46	30,301
785,64	30,853
785,82	35,062
785,99	31,931
786,17	33,777
786,34	31,834
786,52	33,997
786,69	36,989
786,87	34,108
787,04	32,143
787,22	32,556
787,39	34,386
787,57	33,450
787,74	32,068
787,92	34,998
788,09	33,992
788,27	33,459
788,44	32,912
788,62	31,428
788,79	34,577
788,97	33,311
789,14	31,283
789,32	32,588
789,49	33,409
789,67	35,665
789,84	29,760
790,02	34,374
790,19	34,933
790,37	33,050
790,54	35,290
790,72	37,791
790,89	36,251
791,07	35,577
791,24	29,881
791,42	35,746
791,59	33,950
791,77	34,745
791,94	31,305
792,12	32,471
792,29	36,499
792,47	35,462
792,64	36,014
792,81	35,560
792,99	32,706
793,16	34,203
793,34	34,187
793,51	35,260
793,69	36,249
793,86	33,593
794,04	32,911
794,21	35,124
794,39	28,696
794,56	35,160
794,73	34,074
794,91	35,576
795,08	35,836
795,26	32,816
795,43	33,157
795,61	35,044
795,78	30,707
795,95	34,397
796,13	33,263
796,30	31,785
796,48	30,337
796,65	36,265
796,83	33,912
797,00	37,590
797,17	30,415
797,35	35,462
797,52	35,178
797,70	35,799
797,87	34,610
798,04	30,232
798,22	31,995
798,39	34,421
798,57	37,257
798,74	37,212
798,91	29,897
799,09	31,603
799,26	36,918
799,44	34,364
799,61	32,196
799,78	34,091
799,96	38,323
800,13	34,041
800,31	28,985
800,48	38,524
800,65	34,380
800,83	34,099
801,00	32,945
801,17	33,394
801,35	35,262
801,52	33,247
801,70	32,524
801,87	34,085
802,04	38,097
802,22	31,849
802,39	32,821
802,56	41,303
802,74	37,063
802,91	31,731
803,08	30,342
803,26	36,560
803,43	36,413
803,61	33,146
803,78	33,816
803,95	36,128
804,13	36,780
804,30	33,347
804,47	35,374
804,65	36,546
804,82	36,128
804,99	33,656
805,17	36,200
805,34	38,304
805,51	39,782
805,69	34,535
805,86	33,608
806,03	38,008
806,21	36,803
806,38	34,317
806,55	39,125
806,72	38,075
806,90	36,688
807,07	32,978
807,24	31,268
807,42	30,814
807,59	37,632
807,76	30,770
807,94	35,669
808,11	33,977
808,28	40,497
808,45	34,876
808,63	34,123
808,80	38,181
808,97	35,557
809,15	34,546
809,32	34,810
809,49	31,631
809,67	31,151
809,84	39,304
810,01	36,117
810,18	40,100
810,36	39,060
810,53	35,279
810,70	33,598
810,87	38,417
811,05	33,081
811,22	37,415
811,39	32,322
811,57	38,110
811,74	40,531
811,91	34,132
812,08	35,348
812,26	36,565
812,43	34,014
812,60	37,580
812,77	34,063
812,95	38,229
813,12	35,117
813,29	34,354
813,46	35,024
813,64	37,965
813,81	35,020
813,98	36,574
814,15	37,152
814,32	34,495
814,50	41,703
814,67	34,595
814,84	33,388
815,01	35,139
815,19	31,107
815,36	31,035
815,53	32,906
815,70	31,954
815,87	37,998
816,05	31,326
816,22	34,731
816,39	36,549
816,56	37,549
816,74	35,640
816,91	35,131
817,08	39,329
817,25	38,254
817,42	39,895
817,60	38,403
817,77	36,447
817,94	37,578
818,11	34,874
818,28	35,494
818,45	36,974
818,63	33,796
818,80	29,087
818,97	32,754
819,14	42,523
819,31	43,147
819,49	38,019
819,66	34,323
819,83	38,572
820,00	34,941
820,17	36,772
820,34	34,453
820,52	39,272
820,69	40,511
820,86	33,530
821,03	33,809
821,20	40,314
821,37	36,706
821,55	27,327
821,72	31,064
821,89	36,222
822,06	40,754
822,23	32,808
822,40	33,866
822,57	40,438
822,75	43,727
822,92	34,947
823,09	36,017
823,26	39,322
823,43	41,926
823,60	29,467
823,77	35,577
823,94	43,456
824,12	45,319
824,29	34,847
824,46	32,854
824,63	42,940
824,80	35,655
824,97	36,480
825,14	37,952
825,31	40,031
825,49	37,938
825,66	30,614
825,83	33,094
826,00	37,847
826,17	46,675
826,34	36,470
826,51	28,249
826,68	32,148
826,85	39,715
827,02	38,919
827,20	34,266
827,37	33,453
827,54	38,205
827,71	35,861
827,88	34,981
828,05	37,862
828,22	38,908
828,39	39,271
828,56	38,412
828,73	39,047
828,90	41,245
829,07	36,536
829,25	34,385
829,42	38,051
829,59	35,219
829,76	37,401
829,93	32,396
830,10	40,829
830,27	32,358
830,44	40,280
830,61	36,491
830,78	46,224
830,95	41,012
831,12	28,209
831,29	36,663
831,46	33,072
831,63	32,640
831,80	37,448
831,97	36,067
832,14	47,986
832,31	47,563
832,48	32,386
832,65	33,520
832,83	31,272
833,00	40,874
833,17	39,927
833,34	40,167
833,51	42,116
833,68	44,579
833,85	37,540
834,02	35,248
834,19	40,261
834,36	42,716
834,53	28,805
834,70	40,868
834,87	52,731
835,04	36,984
835,21	45,465
835,38	35,696
835,55	37,724
835,72	51,548
835,89	34,300
836,06	44,927
836,23	48,484
836,40	37,775
836,57	30,746
836,74	40,152
836,91	38,594
837,08	45,870
837,25	38,089
837,42	28,905
837,59	39,948
837,76	44,048
837,93	35,654
838,09	33,211
838,26	39,975
838,43	45,891
838,60	38,470
838,77	33,251
838,94	43,932
839,11	36,387
839,28	34,813
839,45	35,841
839,62	39,110
839,79	40,911
839,96	41,221
840,13	42,545
840,30	39,101
840,47	28,895
840,64	44,237
840,81	43,791
840,98	29,218
841,15	44,049
841,32	28,234
841,48	43,426
841,65	42,458
841,82	35,588
841,99	41,655
842,16	39,805
842,33	45,128
842,50	35,533
842,67	36,782
842,84	36,893
843,01	45,764
843,18	38,846
843,35	43,410
843,52	28,528
843,68	47,613
843,85	39,848
844,02	32,162
844,19	30,595
844,36	52,608
844,53	41,917
844,70	39,440
844,87	51,440
845,04	43,343
845,21	39,037
845,37	44,572
845,54	39,341
845,71	36,261
845,88	60,943
846,05	36,882
846,22	29,392
846,39	48,068
846,56	50,959
846,72	28,571
846,89	45,603
847,06	51,316
847,23	41,011
847,40	32,544
847,57	34,940
847,74	40,411
847,90	58,554
848,07	39,201
848,24	36,036
848,41	40,885
848,58	53,376
848,75	42,858
848,92	37,118
849,08	41,752
849,25	37,952
849,42	32,528
849,59	36,788
849,76	51,671
849,93	42,256
850,09	44,378
850,26	27,839
850,43	53,563
850,60	41,588
850,77	43,006
850,94	43,981
851,10	40,063
851,27	51,569
851,44	37,733
851,61	39,440
851,78	56,164
851,95	48,473
852,11	34,972
852,28	31,280
852,45	43,821
852,62	47,172
852,79	39,026
852,95	35,370
853,12	46,898
853,29	36,569
853,46	41,041
853,63	38,888
853,79	44,365
853,96	39,743
854,13	48,077
854,30	31,505
854,46	70,519
854,63	47,555
854,80	47,950
854,97	31,485
855,14	56,115
855,30	45,772
855,47	30,037
855,64	49,931
855,81	39,788
855,97	56,375
856,14	56,715
856,31	39,446
856,48	57,291
856,65	63,174
856,81	46,206
856,98	31,378
857,15	36,127
857,32	49,083
857,48	33,345
857,65	42,979
857,82	48,907
857,99	50,662
858,15	49,937
858,32	35,848
858,49	55,543
858,65	72,016
858,82	40,153
858,99	23,230
859,16	50,594
859,32	54,509
859,49	38,423
859,66	37,384
859,83	45,510
859,99	36,785
860,16	45,131
860,33	26,416
860,49	37,412
860,66	59,134
860,83	44,273
861,00	42,235
861,16	41,529
861,33	45,886
861,50	39,901
861,66	40,093
861,83	56,058
862,00	54,200
862,16	50,633
862,33	43,236
862,50	83,274
862,67	42,494
862,83	37,427
863,00	65,272
863,17	56,036
863,33	46,116
863,50	26,693
863,67	24,478
863,83	56,707
864,00	89,036
864,17	33,348
864,33	41,033
864,50	57,451
864,67	53,856
864,83	45,763
865,00	39,756
865,17	46,693
865,33	56,340
865,50	40,319
865,67	19,724
865,83	68,601
866,00	92,205
866,17	62,966
866,33	59,039
866,50	76,053
866,66	59,059
866,83	44,041
867,00	63,285
867,16	55,745
867,33	80,254
867,50	17,673
867,66	37,275
867,83	67,186
868,00	50,258
868,16	39,947
868,33	41,396
868,49	38,128
868,66	70,453
868,83	38,823
868,99	54,909
869,16	72,678
869,32	60,979
869,49	51,499
869,66	15,082
869,82	70,050
869,99	73,937
870,15	15,242
870,32	74,497
870,49	83,854
870,65	100,593
870,82	46,588
870,98	39,241
871,15	87,529
871,32	58,540
871,48	4,488
871,65	15,001
871,81	42,603
871,98	54,260
872,15	32,666
872,31	48,262
872,48	78,127
872,64	48,673
872,81	39,495
872,97	34,944
873,14	59,635
873,31	63,710
873,47	54,364
873,64	73,470
873,80	104,143
873,97	81,038
874,13	26,472
874,30	60,885
874,46	78,275
874,63	51,015
874,80	62,834
874,96	19,395
875,13	133,295
875,29	76,294
875,46	77,925
875,62	21,279
875,79	82,356
875,95	49,825
876,12	56,857
876,28	17,268
876,45	117,416
876,61	48,556
876,78	87,533
876,94	39,460
877,11	80,475
877,27	47,463
877,44	57,157
877,60	36,635
877,77	88,582
877,94	119,703
878,10	27,364
878,27	96,831
878,43	107,168
878,60	29,433
878,76	49,049
878,93	40,934
879,09	121,920
879,26	106,114
879,42	95,831
879,58	59,002
879,75	98,288
879,91	85,515
880,08	-6,748
880,24	40,849
880,41	61,991
880,57	71,900
880,74	35,278
880,90	30,321
881,07	59,219
881,23	120,067
881,40	33,158
881,56	81,494
881,73	102,632
881,89	73,065
882,06	13,990
882,22	150,037
882,38	109,690
882,55	157,072
882,71	42,861
882,88	68,293
883,04	153,090
883,21	135,173
883,37	50,179
883,54	44,390
883,70	267,523
883,86	89,480
884,03	57,381
884,19	41,647
884,36	139,960
884,52	166,293
884,69	52,298
884,85	45,169
885,01	83,313
885,18	112,751
885,34	108,797
885,51	13,805
885,67	87,857
>>>>> Data<<<<< Espectral Procesado Extremo
