Fichero De Datos De SpectraSuite
++++++++++++++++++++++++++++++++++++
Fecha: Wed Apr 22 11:49:10 CEST 2009
Usuario: evoflor
Presente Oscuro Del Espectro: Sí
La Referencia de Presente Del Espectro De: Sí
Muestreados de los componentes de Número de espectros: 1
Espectrómetros: USB4F02353
Tiempo de integración (usec): 500000 (USB4F02353)
Promedio de Espectros Hechos un: 5 (USB4F02353)
El Alisar Del Furgón: 0 (USB4F02353)
Párrafo de de Corregir del la del del de Eléctrica del obscuridad: Sí (USB4F02353)
Estrobo/Lámpara Permitido: No (USB4F02353)
Correct for Detector Non-linearity: No (USB4F02353)
Párrafo de de Corregir del la del del de Externa del luz: No (USB4F02353)
Procesado del espectro de Número de pixeles en: 3648
>>>>> Comienza Data<<<<< Espectral Procesado Del EL
177,79	191,982
178,00	191,982
178,22	191,982
178,44	1371,154
178,66	-299,934
178,88	48,779
179,09	-257,979
179,31	310,478
179,53	438,467
179,75	204,292
179,96	895,043
180,18	-175,462
180,40	287,659
180,62	566,645
180,83	-385,434
181,05	-1452,744
181,27	-89425,000
181,49	-18,315
181,70	326,635
181,92	801,142
182,14	480,798
182,36	102,629
182,58	-57,250
182,79	668,415
183,01	-71,536
183,23	159,384
183,45	-228,077
183,66	18,473
183,88	277,206
184,10	-2002,273
184,32	272,587
184,53	191,655
184,75	-169,633
184,97	16,496
185,18	-110,573
185,40	-641,947
185,62	179,413
185,84	89,138
186,05	150,755
186,27	-71,424
186,49	3750,962
186,71	-5,207
186,92	136,427
187,14	-270,209
187,36	113,879
187,58	212,112
187,79	-81,193
188,01	312,094
188,23	-213,139
188,45	53,014
188,66	584,040
188,88	-1347,727
189,10	-1371,250
189,31	47,056
189,53	3,878
189,75	305,511
189,97	22,019
190,18	-307,618
190,40	817,206
190,62	-62,028
190,83	-207,247
191,05	207,989
191,27	121,786
191,49	459,715
191,70	-590,024
191,92	-384,110
192,14	-24,267
192,35	621,552
192,57	2400,714
192,79	-5,086
193,01	76,051
193,22	119,906
193,44	-100,384
193,66	128,621
193,87	231,959
194,09	-17,982
194,31	244,290
194,53	1172,902
194,74	77,460
194,96	101,694
195,18	93,159
195,39	-330,937
195,61	-158,830
195,83	-339,185
196,04	104,477
196,26	43,593
196,48	-20,605
196,70	254,722
196,91	32,877
197,13	46,392
197,35	96,164
197,56	580,573
197,78	1332,276
198,00	757,517
198,21	595,752
198,43	-1048,401
198,65	123,912
198,86	95,054
199,08	263,689
199,30	213,816
199,51	-282,492
199,73	193,046
199,95	248,082
200,16	499,712
200,38	309,060
200,60	181,491
200,81	455,514
201,03	167,187
201,25	-966,250
201,46	198,756
201,68	172,502
201,90	2093,750
202,11	26,240
202,33	97,531
202,55	82,812
202,76	-7,580
202,98	145,383
203,20	115,264
203,41	-380,658
203,63	161,690
203,85	-59725,000
204,06	44,606
204,28	-37,651
204,50	149,585
204,71	280,433
204,93	132,200
205,15	391,340
205,36	-241,539
205,58	228,647
205,80	-114,893
206,01	89,665
206,23	109,186
206,45	233,293
206,66	82,558
206,88	-9,622
207,10	166,420
207,31	300,828
207,53	263,214
207,75	133,882
207,96	506,157
208,18	-226,323
208,39	83,974
208,61	2220,714
208,83	-395,473
209,04	314,829
209,26	-125,922
209,48	140,209
209,69	225,524
209,91	621,368
210,13	66,290
210,34	0,787
210,56	219,696
210,77	-1448,228
210,99	180,859
211,21	3619,118
211,42	-138,431
211,64	22,389
211,86	295,131
212,07	217,666
212,29	238,534
212,50	146,114
212,72	22,019
212,94	204,400
213,15	159,514
213,37	114,673
213,58	-130,432
213,80	1916,964
214,02	7907,353
214,23	273,221
214,45	390,574
214,67	-1782,012
214,88	-263,842
215,10	-262,016
215,31	77,347
215,53	33,466
215,75	266,652
215,96	1455,435
216,18	182,042
216,39	328,408
216,61	501,801
216,83	346,987
217,04	1500,281
217,26	9,234
217,47	190,340
217,69	248,637
217,91	-123,776
218,12	-23725,000
218,34	137,643
218,55	358,952
218,77	19,984
218,99	119,364
219,20	-197,761
219,42	366,806
219,63	-154,211
219,85	-12,933
220,06	191,635
220,28	232,729
220,50	57,301
220,71	140,357
220,93	2943,868
221,14	-1209,250
221,36	109,512
221,58	-2,227
221,79	92,312
222,01	964,871
222,22	582,401
222,44	-330,056
222,65	95,599
222,87	335,839
223,09	102,780
223,30	62,837
223,52	170,659
223,73	44,403
223,95	-21,092
224,16	206,649
224,38	403,851
224,60	95,432
224,81	174,072
225,03	143,089
225,24	179,685
225,46	-0,955
225,67	39,444
225,89	1,603
226,10	502,485
226,32	672,200
226,54	-34,321
226,75	-42,976
226,97	181,250
227,18	84,558
227,40	116,890
227,61	11,809
227,83	11,777
228,04	107,822
228,26	68,618
228,47	37,309
228,69	197,370
228,91	60,204
229,12	35,097
229,34	68,426
229,55	82,346
229,77	15,412
229,98	-10,024
230,20	35,288
230,41	28,210
230,63	40,214
230,84	32,239
231,06	42,333
231,27	-7,223
231,49	40,615
231,71	29,612
231,92	23,614
232,14	15,766
232,35	85,471
232,57	61,048
232,78	26,684
233,00	26,495
233,21	11,936
233,43	-1,140
233,64	26,781
233,86	26,682
234,07	18,803
234,29	22,304
234,50	11,770
234,72	48,705
234,93	26,569
235,15	21,265
235,36	21,090
235,58	10,053
235,79	50,261
236,01	19,190
236,22	10,762
236,44	44,307
236,65	19,735
236,87	29,969
237,08	1,195
237,30	3,250
237,51	16,277
237,73	-8,149
237,94	-1,020
238,16	26,281
238,37	5,923
238,59	12,013
238,80	14,589
239,02	2,009
239,23	16,348
239,45	0,288
239,66	23,884
239,88	23,810
240,09	29,782
240,31	9,431
240,52	13,829
240,74	10,851
240,95	10,918
241,17	9,538
241,38	1,674
241,60	11,705
241,81	26,041
242,03	3,556
242,24	17,583
242,46	21,516
242,67	9,762
242,89	10,212
243,10	14,686
243,32	15,023
243,53	16,504
243,75	3,407
243,96	4,188
244,18	5,194
244,39	14,554
244,60	6,959
244,82	2,006
245,03	19,581
245,25	16,610
245,46	23,230
245,68	3,231
245,89	21,410
246,11	11,778
246,32	18,514
246,54	7,280
246,75	4,852
246,97	12,829
247,18	24,161
247,39	6,467
247,61	6,604
247,82	5,697
248,04	5,946
248,25	3,346
248,47	14,884
248,68	13,738
248,90	4,716
249,11	11,530
249,33	17,074
249,54	8,893
249,75	10,489
249,97	1,506
250,18	17,021
250,40	18,318
250,61	-7,004
250,83	6,527
251,04	6,477
251,25	7,436
251,47	1,779
251,68	10,252
251,90	8,799
252,11	13,546
252,33	9,074
252,54	6,568
252,76	2,044
252,97	3,351
253,18	2,885
253,40	4,359
253,61	4,150
253,83	13,753
254,04	11,896
254,25	5,942
254,47	0,062
254,68	8,887
254,90	4,277
255,11	6,640
255,33	8,327
255,54	7,103
255,75	7,041
255,97	6,039
256,18	7,370
256,40	9,267
256,61	7,269
256,82	1,162
257,04	11,452
257,25	1,003
257,47	6,558
257,68	5,608
257,89	9,482
258,11	10,539
258,32	6,704
258,54	7,012
258,75	12,063
258,96	10,550
259,18	5,265
259,39	2,292
259,61	8,575
259,82	4,978
260,03	5,484
260,25	6,409
260,46	7,152
260,68	4,436
260,89	2,775
261,10	5,683
261,32	9,047
261,53	2,512
261,75	8,325
261,96	1,554
262,17	11,937
262,39	8,500
262,60	6,036
262,81	2,756
263,03	11,365
263,24	8,010
263,46	0,876
263,67	5,523
263,88	5,900
264,10	6,271
264,31	6,112
264,52	5,654
264,74	5,741
264,95	1,190
265,17	8,154
265,38	5,700
265,59	8,718
265,81	13,429
266,02	1,010
266,23	5,499
266,45	8,608
266,66	10,763
266,87	8,033
267,09	5,981
267,30	8,627
267,52	7,146
267,73	3,341
267,94	5,850
268,16	8,559
268,37	8,402
268,58	9,290
268,80	4,540
269,01	8,086
269,22	9,267
269,44	7,613
269,65	4,650
269,86	2,790
270,08	9,075
270,29	3,912
270,50	5,962
270,72	8,654
270,93	4,551
271,14	4,031
271,36	4,232
271,57	9,743
271,78	10,538
272,00	5,793
272,21	8,629
272,42	9,382
272,64	9,272
272,85	4,156
273,06	4,967
273,28	12,396
273,49	5,180
273,70	7,353
273,92	7,816
274,13	5,445
274,34	2,280
274,56	6,032
274,77	2,291
274,98	10,203
275,20	6,573
275,41	7,165
275,62	3,697
275,84	4,925
276,05	11,059
276,26	4,632
276,47	1,286
276,69	11,105
276,90	6,856
277,11	4,848
277,33	4,626
277,54	9,341
277,75	5,337
277,97	1,316
278,18	1,542
278,39	9,149
278,61	2,946
278,82	7,241
279,03	4,292
279,24	8,258
279,46	6,063
279,67	7,591
279,88	5,194
280,10	9,229
280,31	1,631
280,52	5,922
280,73	3,704
280,95	5,843
281,16	9,319
281,37	5,376
281,59	8,706
281,80	11,472
282,01	7,414
282,22	5,962
282,44	2,733
282,65	14,447
282,86	6,853
283,08	4,422
283,29	5,562
283,50	6,187
283,71	7,805
283,93	8,578
284,14	9,088
284,35	4,424
284,56	7,756
284,78	4,476
284,99	6,680
285,20	10,202
285,42	3,992
285,63	6,540
285,84	3,180
286,05	2,871
286,27	4,989
286,48	1,736
286,69	2,992
286,90	3,613
287,12	4,884
287,33	5,924
287,54	4,291
287,75	8,069
287,97	6,576
288,18	4,854
288,39	2,210
288,60	7,368
288,82	6,777
289,03	4,035
289,24	6,199
289,45	9,867
289,67	3,901
289,88	2,822
290,09	8,627
290,30	7,188
290,52	4,127
290,73	4,801
290,94	1,027
291,15	5,100
291,37	6,468
291,58	2,277
291,79	4,573
292,00	8,696
292,21	5,117
292,43	6,873
292,64	3,144
292,85	4,804
293,06	9,690
293,28	4,373
293,49	3,546
293,70	7,793
293,91	3,111
294,12	4,994
294,34	5,208
294,55	4,946
294,76	6,643
294,97	7,888
295,19	2,264
295,40	5,827
295,61	7,183
295,82	3,411
296,03	8,785
296,25	6,492
296,46	3,077
296,67	2,755
296,88	1,249
297,09	7,257
297,31	6,690
297,52	4,705
297,73	2,660
297,94	7,001
298,15	7,290
298,37	5,872
298,58	7,621
298,79	7,804
299,00	4,244
299,21	3,288
299,43	2,732
299,64	9,632
299,85	9,806
300,06	3,287
300,27	6,036
300,49	8,523
300,70	6,688
300,91	6,038
301,12	3,066
301,33	8,019
301,54	4,998
301,76	5,818
301,97	3,008
302,18	3,541
302,39	6,491
302,60	12,551
302,82	3,619
303,03	8,079
303,24	6,617
303,45	8,711
303,66	6,719
303,87	5,211
304,09	10,294
304,30	4,480
304,51	4,186
304,72	3,359
304,93	7,268
305,14	5,681
305,36	3,107
305,57	1,513
305,78	8,434
305,99	6,049
306,20	4,472
306,41	0,448
306,62	2,944
306,84	3,966
307,05	1,649
307,26	6,306
307,47	10,910
307,68	6,350
307,89	5,357
308,11	7,255
308,32	3,411
308,53	6,549
308,74	1,978
308,95	7,074
309,16	6,919
309,37	8,908
309,59	4,052
309,80	5,971
310,01	6,521
310,22	7,760
310,43	3,543
310,64	6,836
310,85	5,532
311,06	5,795
311,28	6,225
311,49	4,705
311,70	9,197
311,91	4,385
312,12	4,700
312,33	6,175
312,54	7,740
312,75	3,991
312,97	4,338
313,18	7,126
313,39	4,999
313,60	4,422
313,81	6,456
314,02	5,572
314,23	9,035
314,44	4,105
314,65	4,964
314,87	4,222
315,08	5,520
315,29	7,605
315,50	7,030
315,71	6,701
315,92	8,503
316,13	5,922
316,34	6,455
316,55	8,391
316,77	2,153
316,98	6,719
317,19	4,818
317,40	4,439
317,61	9,217
317,82	3,531
318,03	4,176
318,24	4,543
318,45	8,748
318,66	6,400
318,87	3,918
319,09	6,384
319,30	7,278
319,51	7,849
319,72	7,463
319,93	5,795
320,14	6,970
320,35	4,137
320,56	2,417
320,77	3,173
320,98	11,737
321,19	6,649
321,40	4,356
321,62	8,382
321,83	3,977
322,04	7,248
322,25	5,755
322,46	7,614
322,67	8,223
322,88	6,522
323,09	3,134
323,30	8,433
323,51	7,070
323,72	7,622
323,93	5,391
324,14	2,725
324,35	2,257
324,56	2,815
324,77	5,392
324,99	4,785
325,20	0,085
325,41	4,304
325,62	6,082
325,83	1,389
326,04	2,601
326,25	4,842
326,46	2,805
326,67	7,768
326,88	6,279
327,09	4,703
327,30	1,947
327,51	4,158
327,72	6,549
327,93	5,243
328,14	1,013
328,35	2,705
328,56	8,789
328,77	4,519
328,98	6,598
329,19	5,795
329,40	6,139
329,61	5,454
329,82	2,100
330,04	6,994
330,25	4,188
330,46	4,808
330,67	4,667
330,88	6,010
331,09	7,582
331,30	3,272
331,51	6,203
331,72	5,415
331,93	6,896
332,14	2,992
332,35	9,140
332,56	5,493
332,77	5,558
332,98	3,818
333,19	4,819
333,40	6,646
333,61	5,613
333,82	6,271
334,03	4,093
334,24	5,664
334,45	6,551
334,66	9,378
334,87	4,013
335,08	6,104
335,29	4,992
335,50	4,829
335,71	3,418
335,92	7,602
336,13	6,870
336,34	4,144
336,55	5,047
336,76	8,951
336,97	4,671
337,18	2,672
337,39	5,051
337,60	5,265
337,81	4,861
338,02	4,227
338,23	4,152
338,44	6,207
338,65	6,541
338,86	6,764
339,07	2,033
339,28	6,400
339,49	3,002
339,70	3,508
339,91	6,393
340,11	8,981
340,32	3,728
340,53	0,304
340,74	4,395
340,95	5,584
341,16	7,638
341,37	6,883
341,58	4,660
341,79	3,745
342,00	3,430
342,21	5,176
342,42	8,064
342,63	7,558
342,84	4,567
343,05	5,894
343,26	5,853
343,47	7,012
343,68	4,043
343,89	6,233
344,10	5,990
344,31	6,412
344,52	6,361
344,73	5,553
344,94	5,697
345,14	10,267
345,35	5,155
345,56	4,955
345,77	6,127
345,98	5,113
346,19	4,254
346,40	6,083
346,61	5,806
346,82	7,276
347,03	8,710
347,24	8,900
347,45	5,387
347,66	6,715
347,87	5,095
348,08	8,615
348,28	1,750
348,49	8,153
348,70	7,611
348,91	4,932
349,12	1,037
349,33	20,064
349,54	5,807
349,75	5,879
349,96	5,472
350,17	7,529
350,38	1,297
350,59	9,078
350,80	6,348
351,00	6,894
351,21	10,396
351,42	4,130
351,63	3,334
351,84	6,914
352,05	8,580
352,26	4,605
352,47	6,230
352,68	8,441
352,89	10,107
353,09	7,318
353,30	2,298
353,51	6,782
353,72	6,078
353,93	6,206
354,14	2,970
354,35	4,037
354,56	8,823
354,77	5,195
354,98	1,357
355,18	6,799
355,39	7,803
355,60	6,650
355,81	4,352
356,02	6,569
356,23	6,442
356,44	3,039
356,65	5,454
356,85	11,970
357,06	9,421
357,27	8,315
357,48	1,300
357,69	4,343
357,90	7,869
358,11	3,638
358,32	2,159
358,52	11,869
358,73	6,362
358,94	2,854
359,15	7,051
359,36	7,830
359,57	7,900
359,78	7,193
359,98	4,994
360,19	4,529
360,40	6,768
360,61	10,359
360,82	6,131
361,03	11,066
361,24	6,488
361,44	3,217
361,65	7,277
361,86	3,082
362,07	6,959
362,28	5,816
362,49	2,962
362,70	5,668
362,90	8,781
363,11	5,113
363,32	4,634
363,53	7,870
363,74	10,040
363,95	7,555
364,15	4,637
364,36	10,794
364,57	6,887
364,78	7,440
364,99	6,193
365,20	11,270
365,40	9,439
365,61	5,679
365,82	8,616
366,03	6,594
366,24	10,248
366,45	5,262
366,65	5,599
366,86	5,159
367,07	8,018
367,28	6,756
367,49	7,879
367,69	7,957
367,90	5,022
368,11	6,312
368,32	5,990
368,53	6,106
368,73	7,633
368,94	5,112
369,15	4,127
369,36	10,430
369,57	6,976
369,78	4,882
369,98	6,883
370,19	8,508
370,40	3,505
370,61	5,201
370,82	3,810
371,02	4,455
371,23	9,191
371,44	4,620
371,65	4,382
371,85	11,339
372,06	5,199
372,27	6,969
372,48	5,125
372,69	3,452
372,89	4,834
373,10	6,558
373,31	3,378
373,52	7,439
373,73	11,006
373,93	8,105
374,14	5,116
374,35	8,223
374,56	8,591
374,76	5,775
374,97	3,141
375,18	2,526
375,39	5,643
375,60	7,427
375,80	6,448
376,01	4,386
376,22	4,871
376,43	5,879
376,63	8,253
376,84	8,608
377,05	6,222
377,26	3,465
377,46	4,326
377,67	5,592
377,88	6,388
378,09	6,606
378,29	1,508
378,50	8,315
378,71	5,076
378,92	2,365
379,12	6,661
379,33	6,491
379,54	7,546
379,75	8,826
379,95	4,640
380,16	10,146
380,37	7,709
380,58	6,974
380,78	13,310
380,99	6,327
381,20	4,812
381,41	6,816
381,61	7,763
381,82	7,072
382,03	5,210
382,24	7,285
382,44	6,537
382,65	5,187
382,86	8,464
383,06	4,818
383,27	6,674
383,48	3,736
383,69	8,704
383,89	8,287
384,10	10,648
384,31	6,953
384,51	8,543
384,72	5,782
384,93	7,181
385,14	4,559
385,34	5,402
385,55	4,005
385,76	4,319
385,96	11,628
386,17	6,448
386,38	7,529
386,59	1,835
386,79	4,505
387,00	11,570
387,21	11,361
387,41	10,360
387,62	4,504
387,83	12,194
388,03	8,640
388,24	2,910
388,45	7,924
388,66	9,562
388,86	8,939
389,07	5,529
389,28	12,474
389,48	8,186
389,69	5,698
389,90	9,747
390,10	8,032
390,31	10,106
390,52	1,937
390,72	6,798
390,93	8,862
391,14	5,495
391,34	9,973
391,55	9,835
391,76	13,477
391,96	8,506
392,17	8,516
392,38	8,743
392,58	7,744
392,79	8,093
393,00	3,684
393,20	6,603
393,41	8,400
393,62	9,904
393,82	9,903
394,03	8,757
394,24	11,127
394,44	13,701
394,65	10,039
394,86	8,713
395,06	10,706
395,27	10,013
395,48	7,129
395,68	10,616
395,89	11,938
396,10	11,419
396,30	9,163
396,51	5,897
396,72	13,712
396,92	6,625
397,13	9,298
397,34	10,339
397,54	14,543
397,75	10,987
397,95	7,965
398,16	13,065
398,37	11,105
398,57	9,410
398,78	13,250
398,99	16,545
399,19	12,533
399,40	14,423
399,60	11,483
399,81	10,819
400,02	15,747
400,22	16,469
400,43	15,484
400,64	14,626
400,84	11,242
401,05	20,737
401,25	17,221
401,46	14,357
401,67	15,029
401,87	17,570
402,08	14,421
402,29	13,909
402,49	17,805
402,70	21,778
402,90	15,310
403,11	17,106
403,32	19,385
403,52	18,314
403,73	21,239
403,93	20,186
404,14	22,109
404,35	20,316
404,55	15,209
404,76	16,840
404,96	19,939
405,17	24,456
405,38	24,687
405,58	18,309
405,79	20,378
405,99	22,667
406,20	20,574
406,40	18,824
406,61	24,944
406,82	21,655
407,02	24,552
407,23	24,435
407,43	22,263
407,64	22,879
407,85	24,962
408,05	20,175
408,26	31,910
408,46	26,700
408,67	21,531
408,87	24,711
409,08	23,473
409,29	28,469
409,49	26,806
409,70	25,157
409,90	27,112
410,11	24,294
410,31	30,024
410,52	26,976
410,72	25,123
410,93	30,289
411,14	28,076
411,34	26,690
411,55	29,819
411,75	27,170
411,96	31,777
412,16	31,198
412,37	28,625
412,57	32,170
412,78	28,455
412,99	29,569
413,19	33,583
413,40	30,842
413,60	29,963
413,81	29,707
414,01	33,394
414,22	32,302
414,42	31,717
414,63	29,988
414,83	35,864
415,04	40,078
415,24	36,207
415,45	33,518
415,65	35,525
415,86	37,940
416,07	35,851
416,27	40,116
416,48	36,465
416,68	39,492
416,89	35,095
417,09	40,542
417,30	42,661
417,50	39,362
417,71	39,832
417,91	41,627
418,12	39,160
418,32	39,855
418,53	37,960
418,73	41,599
418,94	38,113
419,14	42,731
419,35	36,309
419,55	40,401
419,76	46,452
419,96	41,694
420,17	39,835
420,37	40,957
420,58	47,361
420,78	41,084
420,99	44,148
421,19	45,137
421,40	40,671
421,60	51,634
421,81	42,981
422,01	45,859
422,22	43,527
422,42	50,483
422,63	44,957
422,83	45,482
423,04	48,083
423,24	49,736
423,45	43,457
423,65	49,687
423,86	47,779
424,06	48,617
424,27	47,666
424,47	44,646
424,67	46,871
424,88	46,735
425,08	49,115
425,29	55,256
425,49	49,362
425,70	48,067
425,90	49,961
426,11	47,476
426,31	50,249
426,52	52,001
426,72	48,648
426,93	48,961
427,13	50,378
427,33	50,154
427,54	51,816
427,74	55,242
427,95	55,362
428,15	49,085
428,36	49,594
428,56	49,094
428,77	51,737
428,97	49,625
429,18	57,611
429,38	50,047
429,58	52,397
429,79	53,375
429,99	51,311
430,20	51,258
430,40	55,414
430,61	52,668
430,81	53,600
431,01	53,160
431,22	52,025
431,42	53,988
431,63	49,605
431,83	54,956
432,04	52,029
432,24	57,178
432,44	51,977
432,65	50,621
432,85	54,033
433,06	53,064
433,26	53,490
433,47	52,578
433,67	52,782
433,87	50,634
434,08	48,033
434,28	52,820
434,49	51,669
434,69	54,698
434,89	49,312
435,10	53,371
435,30	56,308
435,51	51,700
435,71	53,150
435,91	50,279
436,12	53,206
436,32	49,003
436,53	54,216
436,73	53,067
436,93	57,721
437,14	52,686
437,34	54,881
437,55	52,545
437,75	57,384
437,95	59,085
438,16	59,916
438,36	56,648
438,57	55,336
438,77	55,566
438,97	58,839
439,18	60,187
439,38	54,319
439,58	54,772
439,79	59,497
439,99	52,925
440,20	59,554
440,40	63,057
440,60	56,727
440,81	61,905
441,01	58,881
441,21	60,343
441,42	59,676
441,62	65,264
441,83	59,835
442,03	61,219
442,23	59,749
442,44	59,524
442,64	62,240
442,84	56,112
443,05	56,566
443,25	58,019
443,45	62,461
443,66	57,542
443,86	57,458
444,06	59,979
444,27	55,972
444,47	57,128
444,67	59,562
444,88	62,326
445,08	62,190
445,28	58,676
445,49	61,474
445,69	55,652
445,90	62,345
446,10	64,413
446,30	57,402
446,51	62,520
446,71	68,352
446,91	62,593
447,12	65,897
447,32	62,164
447,52	62,906
447,72	61,951
447,93	60,633
448,13	56,221
448,33	63,023
448,54	62,594
448,74	57,355
448,94	58,769
449,15	65,755
449,35	61,697
449,55	58,604
449,76	65,517
449,96	58,626
450,16	62,034
450,37	62,393
450,57	58,994
450,77	60,883
450,98	62,930
451,18	64,377
451,38	62,454
451,58	63,796
451,79	61,132
451,99	60,069
452,19	59,589
452,40	65,292
452,60	59,402
452,80	59,392
453,00	67,065
453,21	60,503
453,41	65,347
453,61	62,941
453,82	64,203
454,02	59,290
454,22	67,750
454,42	62,877
454,63	61,009
454,83	58,603
455,03	62,247
455,24	58,761
455,44	60,969
455,64	60,570
455,84	62,124
456,05	57,381
456,25	59,813
456,45	61,332
456,65	62,030
456,86	61,769
457,06	60,839
457,26	69,073
457,47	65,186
457,67	63,112
457,87	61,287
458,07	58,680
458,28	66,894
458,48	62,661
458,68	64,251
458,88	66,901
459,09	62,838
459,29	67,987
459,49	61,453
459,69	64,640
459,90	64,131
460,10	63,522
460,30	61,140
460,50	60,713
460,71	62,015
460,91	57,409
461,11	61,704
461,31	61,643
461,52	64,354
461,72	66,290
461,92	59,214
462,12	66,918
462,32	64,054
462,53	63,086
462,73	62,666
462,93	64,454
463,13	69,857
463,34	61,685
463,54	66,032
463,74	68,302
463,94	60,241
464,14	66,097
464,35	58,373
464,55	69,564
464,75	69,469
464,95	63,642
465,16	58,765
465,36	65,874
465,56	60,311
465,76	61,734
465,96	66,078
466,17	63,791
466,37	61,101
466,57	63,346
466,77	64,281
466,97	63,396
467,18	62,692
467,38	65,139
467,58	62,143
467,78	67,504
467,98	64,959
468,19	63,407
468,39	66,393
468,59	69,046
468,79	65,592
468,99	61,401
469,19	58,969
469,40	61,343
469,60	55,459
469,80	63,253
470,00	64,064
470,20	69,026
470,41	60,608
470,61	65,112
470,81	65,396
471,01	62,882
471,21	65,933
471,41	61,766
471,62	63,207
471,82	64,963
472,02	64,037
472,22	62,090
472,42	61,949
472,62	66,788
472,83	59,449
473,03	67,744
473,23	62,861
473,43	70,522
473,63	68,874
473,83	62,949
474,03	65,860
474,24	70,646
474,44	63,770
474,64	63,427
474,84	59,254
475,04	67,919
475,24	67,001
475,45	65,422
475,65	64,867
475,85	66,865
476,05	59,995
476,25	63,097
476,45	61,861
476,65	67,941
476,85	62,236
477,06	66,223
477,26	61,389
477,46	64,112
477,66	65,098
477,86	62,205
478,06	64,104
478,26	67,254
478,46	61,406
478,67	68,585
478,87	62,487
479,07	63,269
479,27	65,593
479,47	66,660
479,67	61,864
479,87	63,657
480,07	64,523
480,28	65,066
480,48	63,376
480,68	63,496
480,88	68,148
481,08	62,038
481,28	63,835
481,48	64,868
481,68	60,786
481,88	62,781
482,08	63,118
482,29	68,969
482,49	60,784
482,69	62,813
482,89	63,737
483,09	65,095
483,29	60,669
483,49	58,675
483,69	62,729
483,89	60,431
484,09	58,074
484,29	59,263
484,50	58,962
484,70	60,381
484,90	63,408
485,10	58,061
485,30	60,791
485,50	66,086
485,70	62,159
485,90	59,907
486,10	57,328
486,30	59,643
486,50	61,780
486,70	58,825
486,90	59,666
487,10	61,945
487,30	60,476
487,51	61,193
487,71	57,449
487,91	58,129
488,11	63,176
488,31	58,863
488,51	60,090
488,71	59,842
488,91	62,826
489,11	58,967
489,31	57,422
489,51	62,242
489,71	62,832
489,91	61,603
490,11	59,746
490,31	61,271
490,51	61,743
490,71	60,106
490,91	59,335
491,11	64,438
491,31	64,877
491,51	60,357
491,72	59,368
491,92	63,255
492,12	65,217
492,32	64,488
492,52	64,296
492,72	61,929
492,92	63,979
493,12	62,956
493,32	59,884
493,52	59,297
493,72	60,397
493,92	65,980
494,12	60,507
494,32	65,737
494,52	60,174
494,72	62,951
494,92	64,600
495,12	62,268
495,32	66,297
495,52	60,781
495,72	62,040
495,92	67,616
496,12	66,776
496,32	63,454
496,52	65,076
496,72	63,127
496,92	64,093
497,12	62,576
497,32	65,190
497,52	65,641
497,72	65,802
497,92	62,261
498,12	63,784
498,32	63,144
498,52	62,890
498,72	61,754
498,92	60,328
499,12	63,619
499,32	64,284
499,52	64,011
499,72	63,037
499,92	66,737
500,12	65,313
500,32	65,981
500,52	61,085
500,72	68,731
500,91	66,622
501,11	65,605
501,31	61,192
501,51	67,005
501,71	67,378
501,91	66,117
502,11	65,275
502,31	63,490
502,51	68,199
502,71	66,133
502,91	66,631
503,11	65,368
503,31	67,055
503,51	63,771
503,71	63,313
503,91	67,245
504,11	69,309
504,31	65,011
504,51	66,547
504,71	69,793
504,91	65,784
505,10	63,718
505,30	66,475
505,50	66,443
505,70	66,436
505,90	66,017
506,10	61,136
506,30	65,342
506,50	68,297
506,70	67,107
506,90	64,793
507,10	67,839
507,30	64,752
507,50	68,384
507,70	66,606
507,89	66,592
508,09	63,608
508,29	63,191
508,49	66,951
508,69	63,729
508,89	65,637
509,09	65,440
509,29	67,358
509,49	69,398
509,69	70,594
509,89	66,739
510,09	63,329
510,28	67,597
510,48	64,711
510,68	66,423
510,88	65,955
511,08	66,937
511,28	63,745
511,48	63,636
511,68	64,793
511,88	62,969
512,07	64,583
512,27	65,018
512,47	64,869
512,67	65,182
512,87	61,080
513,07	64,090
513,27	60,562
513,47	63,774
513,67	63,078
513,86	68,104
514,06	63,334
514,26	64,414
514,46	66,621
514,66	63,509
514,86	65,231
515,06	65,796
515,26	68,433
515,45	65,768
515,65	66,088
515,85	65,881
516,05	66,793
516,25	66,536
516,45	68,712
516,65	62,669
516,84	66,420
517,04	65,389
517,24	64,602
517,44	66,476
517,64	68,742
517,84	66,397
518,04	65,333
518,23	66,043
518,43	67,367
518,63	61,620
518,83	64,809
519,03	64,158
519,23	67,011
519,42	64,816
519,62	64,279
519,82	63,794
520,02	65,846
520,22	66,011
520,42	62,437
520,61	65,360
520,81	64,583
521,01	68,959
521,21	63,913
521,41	64,279
521,61	64,173
521,80	61,712
522,00	64,673
522,20	69,059
522,40	65,829
522,60	63,015
522,79	63,453
522,99	67,147
523,19	62,935
523,39	65,309
523,59	64,314
523,78	67,877
523,98	64,715
524,18	65,004
524,38	63,572
524,58	65,634
524,77	68,490
524,97	67,502
525,17	65,570
525,37	63,821
525,57	68,497
525,76	63,423
525,96	65,915
526,16	62,250
526,36	63,072
526,56	65,479
526,75	61,897
526,95	65,564
527,15	65,183
527,35	67,199
527,55	65,533
527,74	65,235
527,94	61,934
528,14	65,137
528,34	64,949
528,53	66,340
528,73	66,578
528,93	64,798
529,13	62,504
529,32	69,207
529,52	67,357
529,72	66,130
529,92	65,799
530,12	63,257
530,31	62,134
530,51	67,157
530,71	66,644
530,91	67,241
531,10	60,309
531,30	63,539
531,50	62,727
531,70	65,845
531,89	65,462
532,09	61,637
532,29	60,785
532,49	64,992
532,68	64,512
532,88	62,428
533,08	60,816
533,28	65,595
533,47	62,661
533,67	64,870
533,87	63,476
534,06	67,922
534,26	63,705
534,46	62,900
534,66	64,029
534,85	66,830
535,05	60,184
535,25	61,749
535,45	62,024
535,64	66,207
535,84	64,868
536,04	60,073
536,23	62,495
536,43	63,026
536,63	59,815
536,83	62,133
537,02	61,261
537,22	61,686
537,42	58,470
537,61	61,585
537,81	60,149
538,01	64,601
538,20	62,555
538,40	58,981
538,60	62,032
538,80	59,717
538,99	57,241
539,19	56,610
539,39	54,760
539,58	57,164
539,78	52,309
539,98	52,213
540,17	53,020
540,37	52,792
540,57	51,010
540,76	51,429
540,96	48,948
541,16	52,125
541,36	48,150
541,55	47,160
541,75	45,471
541,95	48,954
542,14	47,246
542,34	45,397
542,54	44,942
542,73	45,111
542,93	45,752
543,13	44,198
543,32	44,434
543,52	45,354
543,72	42,609
543,91	43,217
544,11	45,800
544,31	46,506
544,50	46,582
544,70	46,911
544,89	46,868
545,09	46,811
545,29	46,237
545,48	48,057
545,68	45,126
545,88	47,432
546,07	47,342
546,27	48,804
546,47	51,429
546,66	52,725
546,86	51,332
547,06	51,499
547,25	51,371
547,45	52,896
547,64	54,613
547,84	58,101
548,04	55,281
548,23	59,488
548,43	56,394
548,63	58,073
548,82	59,025
549,02	55,081
549,21	54,801
549,41	57,268
549,61	57,637
549,80	58,314
550,00	58,938
550,20	55,305
550,39	61,427
550,59	58,417
550,78	61,342
550,98	56,776
551,18	60,514
551,37	60,469
551,57	59,177
551,76	59,581
551,96	59,517
552,16	59,536
552,35	60,088
552,55	59,696
552,74	59,221
552,94	62,839
553,14	59,414
553,33	61,564
553,53	61,760
553,72	61,672
553,92	64,372
554,12	60,872
554,31	62,299
554,51	63,595
554,70	59,939
554,90	62,027
555,09	66,556
555,29	64,383
555,49	63,498
555,68	63,498
555,88	62,061
556,07	63,328
556,27	65,145
556,46	60,586
556,66	61,133
556,86	65,020
557,05	62,110
557,25	61,173
557,44	61,781
557,64	64,730
557,83	64,947
558,03	60,600
558,22	64,483
558,42	64,855
558,62	64,462
558,81	60,851
559,01	59,342
559,20	64,839
559,40	62,716
559,59	61,379
559,79	61,953
559,98	64,990
560,18	63,519
560,37	63,436
560,57	60,743
560,76	60,943
560,96	62,106
561,16	64,695
561,35	64,080
561,55	65,236
561,74	59,954
561,94	64,340
562,13	62,369
562,33	64,974
562,52	62,370
562,72	64,367
562,91	64,781
563,11	64,148
563,30	65,682
563,50	61,785
563,69	61,832
563,89	61,157
564,08	62,608
564,28	64,276
564,47	64,943
564,67	64,249
564,86	61,491
565,06	62,185
565,25	62,974
565,45	62,893
565,64	64,714
565,84	62,269
566,03	65,199
566,23	63,536
566,42	61,825
566,62	61,620
566,81	62,681
567,01	62,697
567,20	66,160
567,40	60,934
567,59	63,178
567,79	66,712
567,98	66,259
568,18	65,028
568,37	65,980
568,57	63,606
568,76	65,710
568,96	63,317
569,15	62,563
569,35	65,617
569,54	66,155
569,73	67,626
569,93	64,388
570,12	63,071
570,32	67,241
570,51	63,688
570,71	66,419
570,90	65,255
571,10	65,841
571,29	63,731
571,49	63,094
571,68	63,061
571,87	66,433
572,07	64,186
572,26	61,679
572,46	63,758
572,65	65,892
572,85	61,412
573,04	62,730
573,24	65,065
573,43	67,207
573,62	67,137
573,82	64,992
574,01	65,355
574,21	63,832
574,40	62,602
574,60	62,019
574,79	66,295
574,98	64,092
575,18	65,489
575,37	61,900
575,57	64,360
575,76	62,635
575,96	63,915
576,15	63,774
576,34	62,234
576,54	63,541
576,73	63,820
576,93	62,594
577,12	62,981
577,31	63,415
577,51	61,660
577,70	63,865
577,90	63,049
578,09	61,513
578,28	63,530
578,48	63,479
578,67	63,950
578,87	63,409
579,06	62,680
579,25	62,473
579,45	62,297
579,64	61,040
579,84	62,455
580,03	61,486
580,22	65,084
580,42	61,144
580,61	62,689
580,81	61,378
581,00	63,168
581,19	63,108
581,39	61,333
581,58	62,667
581,77	62,243
581,97	64,618
582,16	60,459
582,35	62,470
582,55	61,657
582,74	63,886
582,94	63,742
583,13	60,620
583,32	62,545
583,52	63,244
583,71	61,425
583,90	60,819
584,10	62,266
584,29	62,374
584,48	60,799
584,68	60,952
584,87	61,998
585,06	61,500
585,26	60,601
585,45	62,450
585,65	62,406
585,84	60,606
586,03	61,567
586,23	58,992
586,42	61,235
586,61	63,899
586,81	59,419
587,00	61,649
587,19	59,555
587,39	62,346
587,58	61,362
587,77	60,989
587,97	60,412
588,16	60,937
588,35	60,906
588,54	62,788
588,74	60,446
588,93	61,669
589,12	63,211
589,32	61,528
589,51	61,877
589,70	59,677
589,90	59,918
590,09	61,387
590,28	63,060
590,48	59,570
590,67	61,916
590,86	62,598
591,06	64,348
591,25	63,319
591,44	63,152
591,63	61,534
591,83	61,452
592,02	62,916
592,21	60,305
592,41	60,946
592,60	61,561
592,79	62,856
592,98	61,816
593,18	61,428
593,37	62,646
593,56	63,249
593,76	63,482
593,95	61,932
594,14	61,583
594,33	66,457
594,53	64,703
594,72	60,804
594,91	63,589
595,10	67,179
595,30	60,644
595,49	61,539
595,68	63,889
595,88	64,404
596,07	63,215
596,26	65,011
596,45	63,577
596,65	62,613
596,84	61,609
597,03	63,959
597,22	65,492
597,42	66,196
597,61	62,845
597,80	62,410
597,99	62,699
598,19	66,537
598,38	63,951
598,57	64,116
598,76	63,785
598,95	66,146
599,15	64,638
599,34	64,801
599,53	64,868
599,72	63,995
599,92	66,112
600,11	63,850
600,30	64,729
600,49	64,445
600,69	60,673
600,88	63,339
601,07	65,664
601,26	62,905
601,45	64,682
601,65	62,904
601,84	63,439
602,03	64,048
602,22	63,536
602,42	65,585
602,61	63,162
602,80	64,103
602,99	64,070
603,18	61,224
603,38	64,060
603,57	64,536
603,76	62,368
603,95	63,050
604,14	64,167
604,34	64,110
604,53	61,406
604,72	64,994
604,91	63,425
605,10	63,058
605,29	62,652
605,49	61,985
605,68	65,222
605,87	65,223
606,06	63,395
606,25	64,573
606,45	63,473
606,64	63,624
606,83	64,189
607,02	61,988
607,21	62,406
607,40	62,244
607,60	59,828
607,79	58,933
607,98	59,287
608,17	59,419
608,36	57,250
608,55	58,393
608,75	57,883
608,94	57,224
609,13	53,276
609,32	51,483
609,51	52,653
609,70	51,829
609,89	54,309
610,09	51,540
610,28	53,774
610,47	51,115
610,66	51,903
610,85	49,608
611,04	51,726
611,23	50,383
611,43	51,435
611,62	51,596
611,81	51,876
612,00	51,975
612,19	48,726
612,38	52,190
612,57	53,934
612,77	53,459
612,96	53,950
613,15	53,894
613,34	55,533
613,53	56,005
613,72	55,582
613,91	58,035
614,10	56,876
614,29	58,956
614,49	57,800
614,68	56,601
614,87	59,205
615,06	59,355
615,25	58,275
615,44	60,291
615,63	58,528
615,82	57,995
616,01	58,473
616,21	59,131
616,40	61,464
616,59	63,513
616,78	60,220
616,97	60,535
617,16	60,656
617,35	63,110
617,54	60,744
617,73	62,721
617,92	60,070
618,11	61,861
618,31	59,787
618,50	62,406
618,69	59,383
618,88	61,290
619,07	59,290
619,26	59,638
619,45	59,160
619,64	61,594
619,83	59,366
620,02	59,207
620,21	61,747
620,40	61,817
620,59	60,963
620,78	60,173
620,97	60,601
621,17	58,166
621,36	58,740
621,55	60,171
621,74	60,208
621,93	60,440
622,12	61,071
622,31	60,438
622,50	60,806
622,69	62,163
622,88	59,950
623,07	62,964
623,26	61,265
623,45	64,326
623,64	59,870
623,83	61,244
624,02	61,511
624,21	63,017
624,40	58,751
624,59	61,088
624,78	60,958
624,97	61,382
625,16	59,823
625,35	57,941
625,54	60,860
625,73	59,745
625,92	61,059
626,12	62,346
626,31	62,189
626,50	62,661
626,69	61,549
626,88	60,000
627,07	62,795
627,26	60,043
627,45	57,736
627,64	59,262
627,83	61,352
628,02	59,181
628,21	60,490
628,40	60,012
628,59	60,776
628,78	59,101
628,97	58,244
629,16	59,239
629,35	60,961
629,54	63,589
629,73	60,148
629,92	58,362
630,10	60,062
630,29	60,590
630,48	59,384
630,67	59,705
630,86	62,510
631,05	61,101
631,24	63,110
631,43	60,262
631,62	60,141
631,81	61,046
632,00	61,534
632,19	59,221
632,38	60,280
632,57	57,391
632,76	61,391
632,95	62,365
633,14	63,596
633,33	62,382
633,52	62,926
633,71	62,320
633,90	59,683
634,09	61,657
634,28	60,376
634,47	58,193
634,66	62,185
634,85	60,892
635,04	61,873
635,22	62,648
635,41	62,021
635,60	64,765
635,79	62,267
635,98	59,939
636,17	63,620
636,36	60,687
636,55	61,761
636,74	61,401
636,93	59,229
637,12	62,364
637,31	61,008
637,50	59,566
637,69	62,145
637,87	63,617
638,06	63,465
638,25	62,924
638,44	60,701
638,63	59,157
638,82	62,036
639,01	61,189
639,20	61,334
639,39	63,176
639,58	59,187
639,77	62,927
639,95	60,062
640,14	63,105
640,33	62,233
640,52	62,455
640,71	63,356
640,90	62,658
641,09	63,722
641,28	60,618
641,47	63,831
641,66	61,364
641,84	61,584
642,03	60,654
642,22	60,217
642,41	62,427
642,60	61,500
642,79	61,652
642,98	60,543
643,17	60,916
643,35	61,058
643,54	62,061
643,73	63,245
643,92	60,520
644,11	59,733
644,30	61,262
644,49	63,210
644,67	62,444
644,86	60,420
645,05	62,580
645,24	61,548
645,43	61,239
645,62	60,191
645,81	61,969
645,99	64,200
646,18	62,752
646,37	61,322
646,56	60,846
646,75	62,331
646,94	63,674
647,13	60,966
647,31	61,160
647,50	60,752
647,69	62,592
647,88	61,121
648,07	63,415
648,26	66,654
648,44	61,434
648,63	61,033
648,82	61,275
649,01	63,606
649,20	59,480
649,38	61,818
649,57	61,754
649,76	59,929
649,95	61,989
650,14	60,564
650,33	59,874
650,51	60,751
650,70	64,128
650,89	60,573
651,08	60,630
651,27	62,958
651,45	61,313
651,64	59,655
651,83	62,276
652,02	61,181
652,21	61,622
652,39	61,486
652,58	60,723
652,77	62,764
652,96	62,518
653,15	61,206
653,33	60,494
653,52	63,076
653,71	64,044
653,90	63,222
654,09	61,876
654,27	63,717
654,46	63,440
654,65	62,280
654,84	64,483
655,02	65,636
655,21	63,344
655,40	65,661
655,59	62,126
655,77	65,615
655,96	62,563
656,15	64,623
656,34	65,162
656,53	60,804
656,71	64,508
656,90	64,801
657,09	63,832
657,28	64,822
657,46	61,693
657,65	62,770
657,84	60,051
658,03	62,870
658,21	64,257
658,40	61,751
658,59	60,767
658,78	63,305
658,96	62,460
659,15	62,402
659,34	60,120
659,52	62,307
659,71	62,861
659,90	61,033
660,09	62,272
660,27	62,268
660,46	61,425
660,65	60,404
660,84	61,266
661,02	61,685
661,21	62,513
661,40	61,306
661,58	61,955
661,77	61,085
661,96	58,377
662,15	61,008
662,33	60,343
662,52	59,506
662,71	62,549
662,89	60,909
663,08	60,853
663,27	61,392
663,45	61,156
663,64	61,958
663,83	59,639
664,02	62,332
664,20	61,909
664,39	59,731
664,58	60,817
664,76	61,725
664,95	61,202
665,14	60,379
665,32	58,560
665,51	60,384
665,70	62,680
665,88	62,185
666,07	61,649
666,26	64,558
666,44	63,491
666,63	60,692
666,82	60,218
667,00	63,433
667,19	60,784
667,38	59,391
667,56	61,248
667,75	63,692
667,94	63,263
668,12	59,122
668,31	61,186
668,50	61,409
668,68	62,754
668,87	60,469
669,06	60,848
669,24	61,240
669,43	60,640
669,62	60,767
669,80	58,657
669,99	61,489
670,18	63,349
670,36	60,424
670,55	62,107
670,74	62,480
670,92	59,811
671,11	61,251
671,29	60,173
671,48	62,984
671,67	61,108
671,85	61,286
672,04	61,682
672,23	58,916
672,41	61,084
672,60	61,966
672,78	60,441
672,97	62,250
673,16	62,333
673,34	62,276
673,53	60,468
673,71	62,781
673,90	62,524
674,09	61,053
674,27	60,897
674,46	60,559
674,64	63,168
674,83	61,684
675,02	59,781
675,20	61,070
675,39	59,990
675,57	63,033
675,76	59,501
675,95	63,949
676,13	61,439
676,32	62,352
676,50	63,391
676,69	59,285
676,88	62,012
677,06	62,278
677,25	59,885
677,43	65,229
677,62	62,456
677,80	61,339
677,99	60,732
678,18	62,887
678,36	63,648
678,55	60,260
678,73	61,014
678,92	60,982
679,10	62,861
679,29	61,335
679,48	61,729
679,66	61,638
679,85	61,893
680,03	61,021
680,22	61,439
680,40	59,528
680,59	60,803
680,77	60,094
680,96	61,054
681,15	61,233
681,33	63,805
681,52	60,432
681,70	61,412
681,89	63,790
682,07	60,917
682,26	61,027
682,44	63,550
682,63	62,122
682,81	61,815
683,00	61,528
683,18	60,426
683,37	62,289
683,55	59,832
683,74	63,439
683,92	64,950
684,11	61,099
684,29	63,454
684,48	58,758
684,67	60,623
684,85	62,661
685,04	61,582
685,22	62,343
685,41	61,564
685,59	62,592
685,78	60,144
685,96	60,079
686,15	59,490
686,33	59,744
686,52	60,615
686,70	61,196
686,89	61,898
687,07	62,458
687,26	62,883
687,44	61,464
687,62	60,687
687,81	63,347
687,99	61,287
688,18	62,058
688,36	61,702
688,55	63,119
688,73	60,910
688,92	61,364
689,10	60,497
689,29	62,216
689,47	63,490
689,66	60,566
689,84	61,203
690,03	64,577
690,21	62,353
690,40	62,358
690,58	59,160
690,76	58,977
690,95	62,768
691,13	61,068
691,32	60,335
691,50	62,563
691,69	61,541
691,87	60,486
692,06	60,317
692,24	59,400
692,43	60,954
692,61	60,078
692,79	59,396
692,98	59,358
693,16	61,733
693,35	60,674
693,53	63,616
693,72	61,379
693,90	61,844
694,08	58,751
694,27	60,980
694,45	62,522
694,64	62,455
694,82	60,457
695,01	59,971
695,19	61,706
695,37	61,349
695,56	60,259
695,74	59,937
695,93	62,109
696,11	59,154
696,29	61,747
696,48	61,341
696,66	63,509
696,85	61,196
697,03	59,078
697,21	62,374
697,40	60,363
697,58	60,606
697,77	60,253
697,95	62,350
698,13	61,711
698,32	61,471
698,50	60,296
698,69	61,560
698,87	63,752
699,05	60,124
699,24	60,822
699,42	61,998
699,60	59,234
699,79	60,945
699,97	61,550
700,16	58,012
700,34	62,026
700,52	61,272
700,71	61,041
700,89	60,100
701,07	61,467
701,26	60,357
701,44	60,616
701,63	62,330
701,81	59,920
701,99	61,446
702,18	59,675
702,36	60,154
702,54	61,547
702,73	61,009
702,91	60,876
703,09	60,662
703,28	60,259
703,46	60,982
703,64	60,425
703,83	61,603
704,01	61,138
704,19	60,259
704,38	58,500
704,56	58,738
704,74	62,095
704,93	61,167
705,11	62,764
705,29	59,241
705,48	61,816
705,66	61,753
705,84	60,049
706,03	59,842
706,21	60,891
706,39	59,388
706,58	60,358
706,76	59,406
706,94	59,952
707,12	60,309
707,31	58,382
707,49	59,939
707,67	61,263
707,86	62,169
708,04	60,311
708,22	59,508
708,41	59,164
708,59	58,973
708,77	58,529
708,95	60,565
709,14	61,959
709,32	60,693
709,50	57,774
709,69	59,998
709,87	60,933
710,05	61,411
710,23	60,020
710,42	60,223
710,60	60,348
710,78	60,348
710,97	60,448
711,15	59,763
711,33	62,710
711,51	57,942
711,70	58,942
711,88	59,939
712,06	61,978
712,24	60,437
712,43	60,750
712,61	61,005
712,79	60,078
712,97	61,367
713,16	59,796
713,34	57,490
713,52	61,980
713,70	60,901
713,89	59,715
714,07	61,081
714,25	60,732
714,43	60,903
714,62	59,933
714,80	61,314
714,98	58,579
715,16	60,186
715,35	60,901
715,53	59,025
715,71	61,760
715,89	62,497
716,07	59,863
716,26	62,750
716,44	62,207
716,62	60,528
716,80	61,855
716,99	60,877
717,17	62,644
717,35	62,503
717,53	59,234
717,71	60,277
717,90	60,484
718,08	61,970
718,26	59,692
718,44	60,742
718,62	63,314
718,81	59,979
718,99	58,738
719,17	59,402
719,35	61,447
719,53	60,132
719,72	59,874
719,90	60,222
720,08	59,366
720,26	60,373
720,44	61,242
720,62	60,049
720,81	61,526
720,99	64,612
721,17	59,656
721,35	62,554
721,53	60,889
721,72	62,633
721,90	60,528
722,08	60,808
722,26	62,233
722,44	60,334
722,62	61,909
722,81	59,931
722,99	59,900
723,17	60,080
723,35	60,442
723,53	60,803
723,71	61,751
723,89	61,731
724,08	57,080
724,26	61,055
724,44	60,871
724,62	60,701
724,80	61,068
724,98	61,981
725,16	63,321
725,35	62,658
725,53	60,069
725,71	60,476
725,89	59,761
726,07	60,826
726,25	63,855
726,43	59,216
726,61	61,667
726,80	62,439
726,98	59,209
727,16	60,052
727,34	63,433
727,52	62,011
727,70	58,845
727,88	61,651
728,06	59,371
728,25	58,998
728,43	61,258
728,61	61,069
728,79	59,870
728,97	60,135
729,15	59,512
729,33	62,742
729,51	61,246
729,69	62,835
729,87	61,162
730,06	61,050
730,24	61,960
730,42	64,675
730,60	59,603
730,78	60,490
730,96	60,013
731,14	59,915
731,32	60,639
731,50	58,613
731,68	58,833
731,86	61,714
732,04	60,969
732,22	58,572
732,41	62,054
732,59	60,911
732,77	62,872
732,95	62,021
733,13	61,300
733,31	61,101
733,49	60,869
733,67	62,183
733,85	63,054
734,03	60,338
734,21	59,928
734,39	60,101
734,57	63,251
734,75	61,190
734,93	59,826
735,11	60,128
735,29	59,437
735,47	63,169
735,65	60,184
735,84	59,632
736,02	60,845
736,20	63,183
736,38	60,377
736,56	60,146
736,74	60,099
736,92	60,436
737,10	59,793
737,28	61,738
737,46	62,153
737,64	59,062
737,82	61,606
738,00	62,250
738,18	61,765
738,36	61,233
738,54	58,370
738,72	58,720
738,90	62,507
739,08	62,810
739,26	57,777
739,44	62,426
739,62	60,115
739,80	61,947
739,98	61,787
740,16	60,126
740,34	59,823
740,52	64,330
740,70	61,624
740,88	59,491
741,06	61,330
741,24	62,418
741,42	61,870
741,60	60,401
741,78	61,993
741,96	62,064
742,14	60,807
742,32	59,526
742,50	61,735
742,68	60,099
742,86	60,431
743,04	59,844
743,21	61,366
743,39	59,608
743,57	61,404
743,75	60,411
743,93	59,253
744,11	57,474
744,29	59,513
744,47	60,962
744,65	60,131
744,83	60,034
745,01	60,443
745,19	62,188
745,37	63,793
745,55	61,177
745,73	62,116
745,91	59,415
746,09	59,764
746,27	57,571
746,45	56,650
746,62	59,547
746,80	61,344
746,98	60,419
747,16	58,762
747,34	60,194
747,52	58,903
747,70	60,890
747,88	60,594
748,06	58,866
748,24	62,220
748,42	61,033
748,60	60,612
748,78	58,879
748,95	61,639
749,13	65,550
749,31	59,222
749,49	61,050
749,67	61,084
749,85	62,831
750,03	59,825
750,21	61,013
750,39	61,758
750,57	60,836
750,74	59,930
750,92	58,195
751,10	60,512
751,28	59,280
751,46	62,355
751,64	60,632
751,82	61,925
752,00	60,168
752,17	59,370
752,35	59,783
752,53	59,572
752,71	62,324
752,89	60,735
753,07	61,700
753,25	61,944
753,43	60,952
753,60	62,025
753,78	60,129
753,96	61,738
754,14	60,458
754,32	62,295
754,50	60,312
754,68	62,259
754,85	62,159
755,03	61,281
755,21	61,797
755,39	63,125
755,57	61,359
755,75	60,934
755,92	60,136
756,10	61,544
756,28	64,849
756,46	60,355
756,64	60,521
756,82	62,775
756,99	60,798
757,17	59,979
757,35	59,803
757,53	63,284
757,71	62,195
757,89	60,855
758,06	60,999
758,24	62,337
758,42	62,668
758,60	60,745
758,78	60,454
758,95	62,481
759,13	62,953
759,31	61,097
759,49	59,616
759,67	60,857
759,84	60,678
760,02	60,607
760,20	59,836
760,38	62,256
760,56	62,145
760,73	61,802
760,91	61,596
761,09	63,280
761,27	60,076
761,45	60,999
761,62	60,652
761,80	62,325
761,98	63,709
762,16	61,352
762,33	60,775
762,51	62,685
762,69	61,801
762,87	60,628
763,05	60,802
763,22	61,457
763,40	60,610
763,58	58,279
763,76	61,458
763,93	60,209
764,11	61,808
764,29	59,580
764,47	62,323
764,64	65,755
764,82	63,423
765,00	61,745
765,18	59,605
765,35	60,848
765,53	62,952
765,71	62,670
765,89	60,127
766,06	59,465
766,24	63,085
766,42	63,031
766,60	59,726
766,77	60,465
766,95	60,606
767,13	60,413
767,30	60,092
767,48	60,093
767,66	58,991
767,84	60,862
768,01	61,402
768,19	62,332
768,37	59,843
768,54	59,577
768,72	62,432
768,90	61,534
769,08	61,655
769,25	61,529
769,43	58,639
769,61	60,658
769,78	63,613
769,96	60,965
770,14	60,679
770,31	62,526
770,49	62,569
770,67	62,036
770,85	60,208
771,02	62,127
771,20	60,079
771,38	64,199
771,55	62,237
771,73	60,841
771,91	62,485
772,08	63,716
772,26	59,726
772,44	61,462
772,61	61,151
772,79	61,355
772,97	61,391
773,14	60,734
773,32	61,288
773,50	59,112
773,67	60,804
773,85	62,164
774,03	64,540
774,20	64,164
774,38	60,237
774,56	59,845
774,73	59,589
774,91	61,081
775,09	60,895
775,26	61,372
775,44	61,044
775,61	63,212
775,79	60,310
775,97	62,501
776,14	59,622
776,32	60,610
776,50	59,748
776,67	61,283
776,85	64,126
777,03	59,269
777,20	63,690
777,38	61,039
777,55	60,021
777,73	59,437
777,91	60,660
778,08	61,947
778,26	60,832
778,43	62,532
778,61	59,601
778,79	60,472
778,96	62,431
779,14	62,183
779,32	61,506
779,49	62,757
779,67	62,016
779,84	61,937
780,02	62,344
780,20	58,795
780,37	63,543
780,55	55,133
780,72	62,949
780,90	62,231
781,07	60,030
781,25	61,058
781,43	62,391
781,60	61,825
781,78	63,926
781,95	62,243
782,13	62,506
782,30	66,719
782,48	63,297
782,66	59,089
782,83	60,358
783,01	66,175
783,18	60,163
783,36	61,975
783,53	61,563
783,71	61,802
783,89	61,936
784,06	61,658
784,24	64,784
784,41	64,226
784,59	63,209
784,76	62,208
784,94	61,431
785,11	61,145
785,29	62,587
785,46	61,844
785,64	62,453
785,82	61,868
785,99	62,636
786,17	62,855
786,34	61,676
786,52	62,504
786,69	67,645
786,87	61,880
787,04	62,831
787,22	60,306
787,39	64,746
787,57	62,918
787,74	63,623
787,92	67,528
788,09	63,157
788,27	62,481
788,44	60,786
788,62	60,807
788,79	61,385
788,97	65,359
789,14	63,755
789,32	61,529
789,49	64,872
789,67	62,418
789,84	59,981
790,02	66,217
790,19	61,667
790,37	63,438
790,54	63,989
790,72	65,579
790,89	65,913
791,07	62,817
791,24	60,654
791,42	65,365
791,59	63,620
791,77	64,083
791,94	59,961
792,12	63,187
792,29	64,063
792,47	61,860
792,64	67,628
792,81	63,118
792,99	62,915
793,16	63,953
793,34	64,521
793,51	62,913
793,69	61,799
793,86	61,779
794,04	61,479
794,21	65,661
794,39	61,660
794,56	61,412
794,73	64,196
794,91	63,937
795,08	63,164
795,26	61,976
795,43	63,272
795,61	63,869
795,78	64,129
795,95	63,388
796,13	67,254
796,30	63,911
796,48	61,729
796,65	60,302
796,83	63,396
797,00	70,138
797,17	60,318
797,35	62,211
797,52	63,856
797,70	66,059
797,87	63,920
798,04	59,465
798,22	62,637
798,39	60,824
798,57	61,873
798,74	62,212
798,91	61,080
799,09	62,606
799,26	65,256
799,44	63,547
799,61	62,760
799,78	61,256
799,96	62,121
800,13	63,298
800,31	65,277
800,48	64,597
800,65	69,502
800,83	63,607
801,00	63,649
801,17	59,567
801,35	67,623
801,52	61,379
801,70	63,020
801,87	67,769
802,04	65,253
802,22	59,675
802,39	60,523
802,56	70,472
802,74	63,177
802,91	61,072
803,08	63,175
803,26	66,460
803,43	66,299
803,61	65,803
803,78	63,728
803,95	63,521
804,13	65,416
804,30	63,070
804,47	64,007
804,65	65,528
804,82	65,788
804,99	66,340
805,17	63,418
805,34	68,917
805,51	67,839
805,69	60,164
805,86	64,956
806,03	67,587
806,21	64,893
806,38	65,384
806,55	62,660
806,72	67,833
806,90	65,531
807,07	64,076
807,24	59,552
807,42	61,520
807,59	59,118
807,76	60,381
807,94	63,517
808,11	68,982
808,28	69,815
808,45	65,222
808,63	62,553
808,80	66,894
808,97	67,217
809,15	62,762
809,32	66,786
809,49	63,777
809,67	62,789
809,84	67,240
810,01	65,411
810,18	69,545
810,36	64,865
810,53	65,676
810,70	65,650
810,87	65,327
811,05	61,835
811,22	64,082
811,39	64,807
811,57	66,481
811,74	65,594
811,91	62,520
812,08	61,739
812,26	68,876
812,43	61,435
812,60	64,464
812,77	65,282
812,95	70,356
813,12	65,869
813,29	60,774
813,46	68,652
813,64	59,754
813,81	61,857
813,98	59,460
814,15	66,907
814,32	66,531
814,50	70,164
814,67	64,676
814,84	68,533
815,01	63,961
815,19	63,920
815,36	61,668
815,53	63,992
815,70	65,393
815,87	65,041
816,05	59,749
816,22	63,426
816,39	71,033
816,56	73,872
816,74	64,395
816,91	63,197
817,08	71,235
817,25	66,951
817,42	70,059
817,60	61,716
817,77	63,008
817,94	64,685
818,11	67,055
818,28	63,553
818,45	65,219
818,63	67,831
818,80	61,727
818,97	67,371
819,14	73,113
819,31	69,369
819,49	66,888
819,66	67,758
819,83	64,537
820,00	72,073
820,17	68,677
820,34	65,203
820,52	68,316
820,69	69,076
820,86	68,422
821,03	65,920
821,20	71,271
821,37	70,625
821,55	56,448
821,72	56,042
821,89	66,578
822,06	68,620
822,23	65,506
822,40	67,286
822,57	66,441
822,75	74,057
822,92	62,796
823,09	67,057
823,26	69,834
823,43	69,169
823,60	61,303
823,77	65,056
823,94	68,860
824,12	73,822
824,29	67,139
824,46	61,750
824,63	72,174
824,80	72,758
824,97	71,498
825,14	72,581
825,31	73,332
825,49	67,070
825,66	61,398
825,83	63,773
826,00	69,007
826,17	74,471
826,34	65,106
826,51	63,885
826,68	65,069
826,85	72,093
827,02	68,427
827,20	60,842
827,37	66,984
827,54	65,719
827,71	71,808
827,88	72,155
828,05	73,946
828,22	65,020
828,39	70,117
828,56	71,711
828,73	63,800
828,90	71,903
829,07	61,277
829,25	65,446
829,42	73,583
829,59	62,235
829,76	63,571
829,93	61,055
830,10	67,379
830,27	64,749
830,44	67,006
830,61	66,871
830,78	75,214
830,95	72,486
831,12	59,759
831,29	65,010
831,46	68,646
831,63	66,304
831,80	65,599
831,97	59,572
832,14	70,314
832,31	76,429
832,48	67,849
832,65	67,922
832,83	72,914
833,00	72,542
833,17	63,778
833,34	67,359
833,51	69,321
833,68	74,525
833,85	69,578
834,02	66,074
834,19	70,085
834,36	73,386
834,53	64,826
834,70	65,444
834,87	79,145
835,04	67,895
835,21	70,769
835,38	58,423
835,55	67,284
835,72	87,117
835,89	67,531
836,06	68,758
836,23	89,278
836,40	63,006
836,57	62,072
836,74	65,590
836,91	65,891
837,08	74,884
837,25	66,513
837,42	66,673
837,59	75,299
837,76	64,786
837,93	69,526
838,09	61,206
838,26	68,977
838,43	76,964
838,60	68,283
838,77	64,560
838,94	73,578
839,11	70,722
839,28	71,279
839,45	66,059
839,62	66,074
839,79	71,939
839,96	63,982
840,13	65,355
840,30	57,434
840,47	58,828
840,64	69,685
840,81	72,311
840,98	70,310
841,15	74,011
841,32	55,407
841,48	76,594
841,65	70,742
841,82	63,994
841,99	75,773
842,16	63,683
842,33	69,083
842,50	66,358
842,67	63,284
842,84	66,621
843,01	70,263
843,18	68,222
843,35	63,245
843,52	59,431
843,68	71,513
843,85	73,698
844,02	66,884
844,19	66,854
844,36	76,322
844,53	74,843
844,70	71,642
844,87	83,052
845,04	74,057
845,21	62,332
845,37	79,122
845,54	61,110
845,71	75,801
845,88	93,437
846,05	63,025
846,22	55,829
846,39	71,682
846,56	74,585
846,72	48,716
846,89	63,406
847,06	76,996
847,23	80,976
847,40	62,837
847,57	57,764
847,74	73,282
847,90	79,970
848,07	69,662
848,24	72,860
848,41	76,457
848,58	86,139
848,75	62,661
848,92	70,226
849,08	63,701
849,25	75,315
849,42	64,062
849,59	71,621
849,76	67,954
849,93	74,774
850,09	74,132
850,26	53,170
850,43	80,136
850,60	64,149
850,77	57,736
850,94	69,883
851,10	79,689
851,27	67,981
851,44	67,019
851,61	53,309
851,78	82,135
851,95	86,763
852,11	65,846
852,28	60,222
852,45	82,723
852,62	79,351
852,79	70,532
852,95	65,776
853,12	72,079
853,29	60,190
853,46	65,422
853,63	74,745
853,79	66,677
853,96	69,462
854,13	74,007
854,30	56,505
854,46	92,147
854,63	70,142
854,80	68,268
854,97	70,060
855,14	85,186
855,30	73,952
855,47	69,716
855,64	67,760
855,81	62,898
855,97	79,697
856,14	68,880
856,31	59,446
856,48	86,590
856,65	100,633
856,81	67,271
856,98	59,356
857,15	69,761
857,32	78,088
857,48	73,295
857,65	68,009
857,82	72,787
857,99	79,130
858,15	63,058
858,32	72,271
858,49	63,775
858,65	108,209
858,82	86,458
858,99	70,957
859,16	88,564
859,32	87,976
859,49	73,200
859,66	74,473
859,83	72,783
859,99	72,688
860,16	70,214
860,33	68,538
860,49	91,738
860,66	75,642
860,83	67,740
861,00	72,296
861,16	81,324
861,33	82,444
861,50	53,010
861,66	87,604
861,83	93,385
862,00	83,233
862,16	69,252
862,33	61,868
862,50	118,420
862,67	86,575
862,83	70,708
863,00	72,872
863,17	114,074
863,33	78,184
863,50	39,660
863,67	62,978
863,83	82,598
864,00	89,978
864,17	60,419
864,33	67,465
864,50	84,665
864,67	76,576
864,83	71,302
865,00	68,110
865,17	65,251
865,33	106,815
865,50	64,535
865,67	67,032
865,83	85,485
866,00	105,562
866,17	72,332
866,33	79,879
866,50	111,824
866,66	90,222
866,83	100,122
867,00	69,796
867,16	93,295
867,33	124,305
867,50	56,261
867,66	68,789
867,83	85,750
868,00	85,439
868,16	63,764
868,33	57,482
868,49	86,903
868,66	97,030
868,83	74,130
868,99	75,491
869,16	111,870
869,32	110,436
869,49	69,752
869,66	73,648
869,82	93,370
869,99	96,821
870,15	51,302
870,32	91,493
870,49	116,665
870,65	111,489
870,82	82,555
870,98	85,283
871,15	110,921
871,32	87,762
871,48	58,725
871,65	64,377
871,81	86,008
871,98	54,880
872,15	64,778
872,31	47,488
872,48	148,785
872,64	89,360
872,81	64,903
872,97	75,299
873,14	110,186
873,31	93,262
873,47	89,396
873,64	108,244
873,80	111,805
873,97	105,516
874,13	72,249
874,30	92,364
874,46	99,149
874,63	104,675
874,80	80,788
874,96	88,669
875,13	102,507
875,29	80,671
875,46	100,763
875,62	43,762
875,79	107,911
875,95	120,596
876,12	62,114
876,28	33,619
876,45	141,523
876,61	97,676
876,78	72,564
876,94	27,721
877,11	113,192
877,27	118,906
877,44	99,696
877,60	83,882
877,77	125,544
877,94	116,113
878,10	57,251
878,27	99,855
878,43	112,575
878,60	98,934
878,76	85,684
878,93	59,017
879,09	120,874
879,26	128,335
879,42	116,464
879,58	113,917
879,75	130,230
879,91	139,968
880,08	1,263
880,24	63,902
880,41	97,035
880,57	92,217
880,74	45,577
880,90	125,460
881,07	76,886
881,23	148,641
881,40	86,990
881,56	82,583
881,73	126,888
881,89	124,089
882,06	20,512
882,22	186,287
882,38	137,168
882,55	129,815
882,71	56,516
882,88	109,147
883,04	178,343
883,21	157,635
883,37	109,872
883,54	76,487
883,70	241,538
883,86	122,531
884,03	98,988
884,19	61,645
884,36	213,380
884,52	226,854
884,69	75,630
884,85	74,786
885,01	165,102
885,18	143,341
885,34	168,308
885,51	14,731
885,67	119,019
>>>>> Data<<<<< Espectral Procesado Extremo
