Fichero De Datos De SpectraSuite
++++++++++++++++++++++++++++++++++++
Fecha: Wed Apr 22 11:48:38 CEST 2009
Usuario: evoflor
Presente Oscuro Del Espectro: Sí
La Referencia de Presente Del Espectro De: Sí
Muestreados de los componentes de Número de espectros: 1
Espectrómetros: USB4F02353
Tiempo de integración (usec): 500000 (USB4F02353)
Promedio de Espectros Hechos un: 5 (USB4F02353)
El Alisar Del Furgón: 0 (USB4F02353)
Párrafo de de Corregir del la del del de Eléctrica del obscuridad: Sí (USB4F02353)
Estrobo/Lámpara Permitido: No (USB4F02353)
Correct for Detector Non-linearity: No (USB4F02353)
Párrafo de de Corregir del la del del de Externa del luz: No (USB4F02353)
Procesado del espectro de Número de pixeles en: 3648
>>>>> Comienza Data<<<<< Espectral Procesado Del EL
177,79	216,617
178,00	216,617
178,22	216,617
178,44	1729,451
178,66	-314,801
178,88	436,417
179,09	-310,723
179,31	228,730
179,53	515,851
179,75	141,325
179,96	613,966
180,18	-343,754
180,40	301,338
180,62	413,316
180,83	-163,140
181,05	-1120,976
181,27	-108120,000
181,49	11,478
181,70	485,077
181,92	612,792
182,14	60,000
182,36	232,084
182,58	448,800
182,79	603,214
183,01	-0,103
183,23	44,243
183,45	-235,754
183,66	35,310
183,88	683,647
184,10	-3749,455
184,32	227,525
184,53	285,000
184,75	-344,758
184,97	32,664
185,18	26,842
185,40	-402,981
185,62	106,653
185,84	12,052
186,05	179,046
186,27	-83,379
186,49	1320,000
186,71	0,191
186,92	60,000
187,14	-138,934
187,36	158,976
187,58	125,262
187,79	107,872
188,01	296,476
188,23	-394,091
188,45	109,775
188,66	205,446
188,88	-2767,636
189,10	-1531,200
189,31	133,413
189,53	39,635
189,75	280,500
189,97	343,154
190,18	193,648
190,40	556,588
190,62	-295,013
190,83	-296,148
191,05	237,711
191,27	121,200
191,49	314,406
191,70	-627,981
191,92	-679,831
192,14	-51,261
192,35	317,825
192,57	3063,429
192,79	58,073
193,01	167,021
193,22	43,524
193,44	-70,853
193,66	85,677
193,87	81,199
194,09	-59,869
194,31	202,509
194,53	693,147
194,74	64,065
194,96	107,187
195,18	128,751
195,39	-159,420
195,61	-37,266
195,83	-272,217
196,04	124,714
196,26	-231,256
196,48	-6,883
196,70	316,938
196,91	195,509
197,13	-15,646
197,35	-7,386
197,56	791,703
197,78	1391,194
198,00	189,650
198,21	411,262
198,43	-722,791
198,65	128,936
198,86	291,799
199,08	-49,770
199,30	197,004
199,51	-220,261
199,73	242,825
199,95	316,634
200,16	228,923
200,38	266,797
200,60	64,365
200,81	325,953
201,03	213,098
201,25	-1117,200
201,46	175,727
201,68	67,974
201,90	4339,091
202,11	-433,282
202,33	74,542
202,55	-493,500
202,76	-20,732
202,98	329,686
203,20	-22,212
203,41	-190,105
203,63	195,486
203,85	-145020,000
204,06	50,394
204,28	-43,663
204,50	225,776
204,71	233,958
204,93	-107,040
205,15	127,771
205,36	-170,593
205,58	221,344
205,80	-101,646
206,01	80,323
206,23	88,986
206,45	280,556
206,66	197,298
206,88	-16,840
207,10	249,818
207,31	287,444
207,53	368,057
207,75	42,129
207,96	692,687
208,18	-193,720
208,39	138,440
208,61	3732,000
208,83	-220,424
209,04	142,869
209,26	-191,336
209,48	350,934
209,69	120,677
209,91	851,757
210,13	45,456
210,34	43,874
210,56	183,336
210,77	-1836,378
210,99	144,906
211,21	7154,118
211,42	-118,423
211,64	16,576
211,86	232,930
212,07	322,717
212,29	223,456
212,50	114,398
212,72	318,923
212,94	63,152
213,15	160,328
213,37	116,876
213,58	-22,217
213,80	-1707,857
214,02	9589,412
214,23	318,832
214,45	310,230
214,67	799,756
214,88	-127,248
215,10	-247,394
215,31	-160,873
215,53	-83,591
215,75	172,383
215,96	1800,745
216,18	-49,014
216,39	263,032
216,61	304,847
216,83	141,161
217,04	1235,056
217,26	66,968
217,47	123,216
217,69	302,469
217,91	11,289
218,12	-23520,000
218,34	108,509
218,55	141,167
218,77	70,291
218,99	203,928
219,20	-157,781
219,42	288,293
219,63	36,205
219,85	-83,800
220,06	55,846
220,28	118,869
220,50	145,790
220,71	127,086
220,93	2821,132
221,14	-1360,200
221,36	13,537
221,58	81,600
221,79	107,070
222,01	1265,690
222,22	717,237
222,44	-99,775
222,65	92,462
222,87	346,993
223,09	125,635
223,30	56,403
223,52	103,727
223,73	195,550
223,95	34,394
224,16	148,701
224,38	420,427
224,60	107,170
224,81	48,306
225,03	127,004
225,24	120,088
225,46	190,066
225,67	-67,092
225,89	-31,649
226,10	355,482
226,32	893,760
226,54	0,098
226,75	21,812
226,97	112,904
227,18	187,906
227,40	80,153
227,61	21,634
227,83	-17,275
228,04	122,589
228,26	52,952
228,47	51,022
228,69	208,005
228,91	69,831
229,12	38,824
229,34	39,688
229,55	35,726
229,77	21,816
229,98	6,379
230,20	73,112
230,41	34,626
230,63	101,182
230,84	5,292
231,06	35,812
231,27	9,612
231,49	59,877
231,71	28,128
231,92	32,085
232,14	37,357
232,35	85,816
232,57	66,162
232,78	22,137
233,00	39,053
233,21	27,652
233,43	22,889
233,64	26,724
233,86	36,888
234,07	22,536
234,29	10,568
234,50	25,271
234,72	36,595
234,93	4,135
235,15	32,096
235,36	33,306
235,58	20,383
235,79	49,666
236,01	25,642
236,22	10,886
236,44	36,640
236,65	15,926
236,87	31,275
237,08	8,449
237,30	3,741
237,51	22,283
237,73	2,204
237,94	7,629
238,16	18,034
238,37	6,676
238,59	15,208
238,80	15,580
239,02	8,314
239,23	23,620
239,45	-6,334
239,66	22,113
239,88	27,510
240,09	19,373
240,31	-1,587
240,52	10,742
240,74	12,232
240,95	-5,635
241,17	12,898
241,38	1,845
241,60	14,341
241,81	27,422
242,03	12,618
242,24	13,861
242,46	22,242
242,67	5,505
242,89	15,861
243,10	16,484
243,32	17,011
243,53	12,425
243,75	11,399
243,96	13,458
244,18	1,684
244,39	11,896
244,60	8,203
244,82	5,884
245,03	22,976
245,25	8,446
245,46	28,074
245,68	0,555
245,89	15,466
246,11	15,390
246,32	14,125
246,54	8,921
246,75	12,145
246,97	14,863
247,18	21,728
247,39	9,043
247,61	13,234
247,82	4,538
248,04	7,119
248,25	6,603
248,47	16,656
248,68	14,112
248,90	6,188
249,11	11,676
249,33	19,078
249,54	8,323
249,75	6,660
249,97	1,335
250,18	12,732
250,40	17,412
250,61	-4,219
250,83	-0,649
251,04	6,521
251,25	12,004
251,47	-0,295
251,68	6,231
251,90	7,373
252,11	8,468
252,33	7,907
252,54	11,518
252,76	9,131
252,97	7,483
253,18	2,533
253,40	7,422
253,61	6,135
253,83	10,912
254,04	13,241
254,25	7,424
254,47	4,653
254,68	6,670
254,90	6,398
255,11	7,527
255,33	5,166
255,54	4,793
255,75	3,451
255,97	5,941
256,18	0,490
256,40	1,939
256,61	6,573
256,82	0,923
257,04	12,388
257,25	4,187
257,47	9,471
257,68	3,580
257,89	9,038
258,11	11,099
258,32	3,768
258,54	6,499
258,75	10,537
258,96	13,134
259,18	9,066
259,39	7,437
259,61	10,695
259,82	4,885
260,03	7,497
260,25	4,214
260,46	6,905
260,68	8,805
260,89	2,165
261,10	5,066
261,32	4,441
261,53	6,407
261,75	6,917
261,96	0,837
262,17	12,782
262,39	7,419
262,60	1,063
262,81	0,545
263,03	10,121
263,24	5,973
263,46	1,851
263,67	5,017
263,88	2,825
264,10	5,769
264,31	2,370
264,52	5,759
264,74	7,642
264,95	3,685
265,17	6,169
265,38	2,192
265,59	11,470
265,81	6,431
266,02	2,435
266,23	4,301
266,45	14,264
266,66	9,684
266,87	8,320
267,09	1,358
267,30	10,595
267,52	8,452
267,73	4,240
267,94	4,652
268,16	7,841
268,37	7,588
268,58	7,612
268,80	1,236
269,01	5,629
269,22	9,296
269,44	4,041
269,65	4,641
269,86	2,895
270,08	4,284
270,29	2,087
270,50	6,389
270,72	8,907
270,93	3,446
271,14	1,174
271,36	2,426
271,57	7,773
271,78	5,777
272,00	6,246
272,21	7,602
272,42	5,306
272,64	7,709
272,85	4,147
273,06	2,085
273,28	5,208
273,49	8,724
273,70	6,521
273,92	5,875
274,13	7,839
274,34	1,797
274,56	6,024
274,77	4,669
274,98	9,741
275,20	4,746
275,41	8,739
275,62	2,021
275,84	8,286
276,05	10,741
276,26	0,569
276,47	2,126
276,69	9,296
276,90	5,493
277,11	3,518
277,33	3,439
277,54	9,681
277,75	6,394
277,97	3,401
278,18	0,428
278,39	9,176
278,61	2,868
278,82	4,812
279,03	7,036
279,24	4,633
279,46	2,598
279,67	6,927
279,88	6,263
280,10	9,057
280,31	2,563
280,52	5,061
280,73	2,773
280,95	8,048
281,16	6,548
281,37	3,676
281,59	4,659
281,80	8,942
282,01	3,789
282,22	4,864
282,44	3,675
282,65	10,641
282,86	8,232
283,08	7,367
283,29	6,175
283,50	4,112
283,71	10,151
283,93	4,583
284,14	9,024
284,35	3,282
284,56	4,763
284,78	5,081
284,99	6,522
285,20	8,973
285,42	5,352
285,63	2,909
285,84	2,127
286,05	4,172
286,27	4,925
286,48	1,283
286,69	4,535
286,90	3,374
287,12	4,046
287,33	3,088
287,54	3,156
287,75	6,232
287,97	5,278
288,18	3,038
288,39	1,827
288,60	5,672
288,82	2,090
289,03	4,694
289,24	4,293
289,45	8,763
289,67	6,800
289,88	2,162
290,09	6,892
290,30	5,746
290,52	5,665
290,73	4,553
290,94	2,779
291,15	5,606
291,37	5,843
291,58	4,649
291,79	5,421
292,00	6,958
292,21	5,897
292,43	4,111
292,64	2,862
292,85	4,958
293,06	9,578
293,28	2,212
293,49	2,300
293,70	6,524
293,91	2,562
294,12	4,652
294,34	3,556
294,55	3,985
294,76	4,321
294,97	6,027
295,19	2,822
295,40	7,159
295,61	6,796
295,82	2,942
296,03	4,085
296,25	7,456
296,46	4,656
296,67	1,641
296,88	0,661
297,09	7,817
297,31	4,957
297,52	3,891
297,73	3,096
297,94	7,903
298,15	6,887
298,37	5,047
298,58	4,660
298,79	8,464
299,00	3,684
299,21	2,979
299,43	3,772
299,64	8,485
299,85	8,380
300,06	1,583
300,27	3,068
300,49	8,640
300,70	4,171
300,91	4,685
301,12	3,633
301,33	8,917
301,54	3,602
301,76	6,423
301,97	2,929
302,18	2,864
302,39	6,299
302,60	12,665
302,82	4,841
303,03	8,122
303,24	7,523
303,45	5,941
303,66	3,745
303,87	4,335
304,09	8,351
304,30	3,138
304,51	3,269
304,72	5,824
304,93	6,201
305,14	5,175
305,36	2,297
305,57	3,061
305,78	5,107
305,99	2,024
306,20	5,369
306,41	2,102
306,62	2,367
306,84	3,071
307,05	0,737
307,26	5,590
307,47	8,891
307,68	3,866
307,89	4,008
308,11	6,104
308,32	3,504
308,53	5,140
308,74	2,613
308,95	6,118
309,16	6,536
309,37	6,844
309,59	3,947
309,80	6,189
310,01	7,239
310,22	8,174
310,43	5,258
310,64	6,401
310,85	8,081
311,06	4,801
311,28	6,994
311,49	5,716
311,70	7,982
311,91	4,836
312,12	5,144
312,33	5,668
312,54	7,854
312,75	5,410
312,97	4,381
313,18	6,007
313,39	4,069
313,60	5,328
313,81	5,117
314,02	4,579
314,23	7,363
314,44	3,497
314,65	6,216
314,87	2,912
315,08	2,092
315,29	6,542
315,50	4,132
315,71	4,681
315,92	9,982
316,13	4,891
316,34	6,836
316,55	6,479
316,77	1,214
316,98	4,924
317,19	3,483
317,40	7,590
317,61	9,537
317,82	2,184
318,03	3,074
318,24	4,888
318,45	7,241
318,66	3,624
318,87	2,373
319,09	7,055
319,30	4,940
319,51	5,336
319,72	7,730
319,93	5,614
320,14	7,402
320,35	6,233
320,56	4,100
320,77	1,653
320,98	9,289
321,19	6,128
321,40	2,720
321,62	7,365
321,83	2,701
322,04	5,033
322,25	5,507
322,46	10,629
322,67	7,374
322,88	6,073
323,09	3,240
323,30	6,852
323,51	10,884
323,72	7,087
323,93	3,268
324,14	4,451
324,35	1,383
324,56	1,950
324,77	6,341
324,99	4,069
325,20	2,078
325,41	5,651
325,62	6,996
325,83	4,214
326,04	3,832
326,25	6,823
326,46	2,400
326,67	5,559
326,88	6,555
327,09	2,662
327,30	3,545
327,51	5,031
327,72	3,932
327,93	6,868
328,14	3,168
328,35	5,093
328,56	5,356
328,77	4,049
328,98	5,655
329,19	8,682
329,40	5,620
329,61	3,961
329,82	1,372
330,04	5,618
330,25	4,655
330,46	4,702
330,67	2,824
330,88	5,561
331,09	6,279
331,30	3,293
331,51	4,927
331,72	6,115
331,93	6,943
332,14	6,663
332,35	6,056
332,56	6,525
332,77	6,393
332,98	-0,023
333,19	1,764
333,40	6,535
333,61	4,713
333,82	6,239
334,03	7,396
334,24	7,360
334,45	3,972
334,66	5,697
334,87	4,749
335,08	2,070
335,29	5,464
335,50	5,037
335,71	2,783
335,92	7,147
336,13	6,759
336,34	0,004
336,55	5,677
336,76	7,963
336,97	4,795
337,18	2,640
337,39	4,941
337,60	6,605
337,81	2,925
338,02	3,563
338,23	5,201
338,44	2,131
338,65	3,348
338,86	3,810
339,07	0,988
339,28	3,854
339,49	3,666
339,70	3,669
339,91	4,805
340,11	8,733
340,32	3,559
340,53	3,541
340,74	3,747
340,95	3,556
341,16	7,308
341,37	5,817
341,58	1,830
341,79	3,602
342,00	4,075
342,21	6,350
342,42	5,909
342,63	5,917
342,84	3,797
343,05	4,125
343,26	4,539
343,47	6,243
343,68	5,757
343,89	4,527
344,10	5,957
344,31	9,443
344,52	5,324
344,73	4,078
344,94	5,912
345,14	5,683
345,35	10,399
345,56	3,153
345,77	3,792
345,98	7,548
346,19	5,700
346,40	3,900
346,61	3,069
346,82	7,551
347,03	3,129
347,24	4,939
347,45	3,672
347,66	7,881
347,87	3,548
348,08	5,580
348,28	1,886
348,49	7,722
348,70	7,439
348,91	3,409
349,12	3,084
349,33	19,999
349,54	4,396
349,75	6,016
349,96	4,236
350,17	5,807
350,38	4,973
350,59	6,754
350,80	3,097
351,00	6,801
351,21	5,633
351,42	6,169
351,63	-1,771
351,84	4,576
352,05	7,031
352,26	6,364
352,47	4,617
352,68	6,640
352,89	7,685
353,09	5,535
353,30	3,375
353,51	3,539
353,72	9,179
353,93	7,982
354,14	2,562
354,35	4,692
354,56	7,999
354,77	2,452
354,98	1,051
355,18	9,055
355,39	10,517
355,60	4,248
355,81	5,167
356,02	5,419
356,23	9,332
356,44	1,953
356,65	3,383
356,85	10,940
357,06	8,879
357,27	6,711
357,48	3,482
357,69	7,078
357,90	4,889
358,11	4,183
358,32	3,375
358,52	7,547
358,73	4,849
358,94	4,941
359,15	6,593
359,36	7,627
359,57	4,525
359,78	6,243
359,98	5,678
360,19	4,131
360,40	5,527
360,61	8,196
360,82	5,114
361,03	5,236
361,24	8,049
361,44	3,936
361,65	4,061
361,86	4,456
362,07	6,152
362,28	2,386
362,49	4,050
362,70	7,202
362,90	6,135
363,11	3,060
363,32	0,158
363,53	6,074
363,74	9,858
363,95	5,142
364,15	5,926
364,36	8,800
364,57	5,729
364,78	5,472
364,99	4,253
365,20	6,997
365,40	4,333
365,61	3,763
365,82	5,969
366,03	4,693
366,24	6,048
366,45	5,661
366,65	4,533
366,86	4,421
367,07	6,205
367,28	5,119
367,49	1,637
367,69	7,803
367,90	5,718
368,11	5,246
368,32	5,385
368,53	6,069
368,73	7,802
368,94	3,845
369,15	3,053
369,36	7,429
369,57	5,639
369,78	1,128
369,98	9,890
370,19	9,673
370,40	3,529
370,61	3,982
370,82	4,715
371,02	7,027
371,23	9,503
371,44	6,539
371,65	7,185
371,85	8,635
372,06	4,504
372,27	5,669
372,48	4,296
372,69	0,567
372,89	2,481
373,10	5,680
373,31	2,982
373,52	5,016
373,73	10,193
373,93	5,502
374,14	3,355
374,35	9,711
374,56	7,336
374,76	6,399
374,97	6,264
375,18	6,918
375,39	4,614
375,60	5,699
375,80	6,099
376,01	2,869
376,22	7,742
376,43	3,757
376,63	5,387
376,84	3,912
377,05	6,684
377,26	1,156
377,46	0,414
377,67	5,264
377,88	6,587
378,09	3,593
378,29	2,443
378,50	6,706
378,71	10,832
378,92	1,996
379,12	5,709
379,33	2,912
379,54	7,694
379,75	4,302
379,95	5,534
380,16	4,199
380,37	6,897
380,58	7,497
380,78	8,226
380,99	3,083
381,20	6,673
381,41	5,378
381,61	5,409
381,82	9,119
382,03	4,189
382,24	6,477
382,44	3,900
382,65	4,323
382,86	4,347
383,06	2,888
383,27	3,385
383,48	3,502
383,69	4,132
383,89	7,539
384,10	7,630
384,31	3,393
384,51	7,053
384,72	9,185
384,93	4,016
385,14	6,792
385,34	6,998
385,55	4,391
385,76	1,808
385,96	6,568
386,17	4,757
386,38	8,549
386,59	1,209
386,79	5,416
387,00	8,885
387,21	8,449
387,41	6,447
387,62	5,875
387,83	7,891
388,03	7,913
388,24	2,003
388,45	6,827
388,66	5,217
388,86	5,072
389,07	0,783
389,28	9,675
389,48	8,649
389,69	4,514
389,90	1,217
390,10	6,052
390,31	8,118
390,52	-0,626
390,72	2,125
390,93	6,468
391,14	5,585
391,34	4,841
391,55	5,520
391,76	8,109
391,96	5,616
392,17	4,224
392,38	8,265
392,58	6,287
392,79	6,090
393,00	0,205
393,20	2,815
393,41	3,755
393,62	7,080
393,82	3,390
394,03	4,711
394,24	2,881
394,44	8,439
394,65	8,453
394,86	2,002
395,06	7,615
395,27	3,237
395,48	7,492
395,68	4,728
395,89	5,617
396,10	4,619
396,30	4,628
396,51	4,309
396,72	9,286
396,92	1,084
397,13	2,342
397,34	0,204
397,54	7,001
397,75	3,062
397,95	3,199
398,16	6,402
398,37	3,483
398,57	3,999
398,78	2,703
398,99	7,584
399,19	6,298
399,40	9,041
399,60	1,905
399,81	6,523
400,02	6,609
400,22	8,062
400,43	4,918
400,64	6,130
400,84	4,354
401,05	6,798
401,25	5,684
401,46	5,125
401,67	4,888
401,87	5,149
402,08	1,628
402,29	2,968
402,49	10,167
402,70	10,269
402,90	4,417
403,11	6,669
403,32	6,150
403,52	6,331
403,73	9,761
403,93	8,964
404,14	9,193
404,35	5,353
404,55	1,839
404,76	3,740
404,96	8,063
405,17	10,948
405,38	8,586
405,58	4,474
405,79	8,277
405,99	5,735
406,20	3,768
406,40	2,503
406,61	8,995
406,82	4,943
407,02	7,768
407,23	4,531
407,43	2,606
407,64	3,623
407,85	1,953
408,05	1,691
408,26	9,419
408,46	8,804
408,67	1,387
408,87	4,959
409,08	5,077
409,29	4,723
409,49	6,126
409,70	6,367
409,90	7,076
410,11	7,257
410,31	8,686
410,52	4,295
410,72	4,033
410,93	10,108
411,14	3,722
411,34	2,909
411,55	10,417
411,75	5,510
411,96	8,677
412,16	7,636
412,37	5,720
412,57	9,440
412,78	6,693
412,99	3,622
413,19	7,061
413,40	6,300
413,60	1,758
413,81	4,436
414,01	2,681
414,22	5,660
414,42	0,821
414,63	3,931
414,83	7,589
415,04	7,493
415,24	3,258
415,45	3,837
415,65	5,251
415,86	1,878
416,07	4,654
416,27	6,423
416,48	8,006
416,68	8,094
416,89	2,278
417,09	4,492
417,30	6,298
417,50	3,892
417,71	6,282
417,91	8,650
418,12	3,648
418,32	3,627
418,53	6,771
418,73	0,881
418,94	3,360
419,14	7,827
419,35	0,766
419,55	3,901
419,76	5,996
419,96	4,802
420,17	4,387
420,37	5,180
420,58	9,340
420,78	4,116
420,99	8,812
421,19	6,349
421,40	7,207
421,60	8,135
421,81	2,656
422,01	5,413
422,22	2,335
422,42	6,309
422,63	2,116
422,83	7,362
423,04	9,350
423,24	9,741
423,45	1,672
423,65	7,421
423,86	9,057
424,06	9,334
424,27	6,940
424,47	3,659
424,67	-0,786
424,88	4,826
425,08	6,323
425,29	10,193
425,49	2,917
425,70	1,240
425,90	8,548
426,11	4,703
426,31	6,816
426,52	4,513
426,72	1,298
426,93	2,514
427,13	7,027
427,33	7,128
427,54	9,414
427,74	7,291
427,95	7,482
428,15	3,515
428,36	7,198
428,56	7,490
428,77	7,195
428,97	7,879
429,18	3,036
429,38	5,930
429,58	8,507
429,79	8,534
429,99	5,639
430,20	0,902
430,40	9,775
430,61	6,546
430,81	3,226
431,01	8,461
431,22	9,527
431,42	12,187
431,63	8,418
431,83	4,876
432,04	5,871
432,24	12,575
432,44	6,156
432,65	6,179
432,85	8,452
433,06	6,928
433,26	4,390
433,47	7,000
433,67	6,347
433,87	4,642
434,08	6,453
434,28	5,618
434,49	7,093
434,69	9,894
434,89	4,753
435,10	7,315
435,30	9,674
435,51	2,510
435,71	6,341
435,91	3,358
436,12	6,806
436,32	5,555
436,53	4,373
436,73	4,441
436,93	8,312
437,14	8,956
437,34	7,115
437,55	5,408
437,75	5,648
437,95	8,548
438,16	5,525
438,36	5,892
438,57	3,722
438,77	4,474
438,97	9,591
439,18	6,893
439,38	5,814
439,58	2,476
439,79	4,609
439,99	6,286
440,20	11,576
440,40	10,082
440,60	7,427
440,81	9,450
441,01	4,411
441,21	4,536
441,42	8,961
441,62	4,742
441,83	6,095
442,03	4,027
442,23	6,818
442,44	4,998
442,64	8,008
442,84	3,907
443,05	5,600
443,25	5,696
443,45	5,877
443,66	6,397
443,86	4,098
444,06	8,634
444,27	7,062
444,47	6,905
444,67	4,088
444,88	6,355
445,08	5,135
445,28	8,736
445,49	4,005
445,69	6,288
445,90	6,057
446,10	9,434
446,30	8,073
446,51	4,985
446,71	8,955
446,91	10,271
447,12	13,049
447,32	5,593
447,52	8,575
447,72	5,120
447,93	5,036
448,13	3,966
448,33	13,191
448,54	6,352
448,74	4,536
448,94	7,882
449,15	13,052
449,35	9,710
449,55	4,299
449,76	8,602
449,96	6,952
450,16	10,628
450,37	5,114
450,57	7,427
450,77	4,336
450,98	10,574
451,18	9,667
451,38	7,434
451,58	13,597
451,79	9,611
451,99	8,866
452,19	10,799
452,40	4,301
452,60	6,946
452,80	9,137
453,00	6,320
453,21	9,910
453,41	8,520
453,61	5,369
453,82	7,214
454,02	2,632
454,22	14,662
454,42	8,852
454,63	7,295
454,83	6,575
455,03	11,271
455,24	8,501
455,44	7,112
455,64	8,884
455,84	6,485
456,05	7,557
456,25	6,169
456,45	7,575
456,65	8,384
456,86	9,633
457,06	12,078
457,26	12,425
457,47	11,117
457,67	10,451
457,87	4,789
458,07	5,716
458,28	12,338
458,48	11,120
458,68	2,747
458,88	12,333
459,09	10,520
459,29	14,605
459,49	6,811
459,69	9,322
459,90	12,035
460,10	10,784
460,30	9,065
460,50	8,336
460,71	12,574
460,91	6,758
461,11	9,371
461,31	1,916
461,52	13,326
461,72	9,215
461,92	6,600
462,12	14,482
462,32	3,623
462,53	10,378
462,73	6,583
462,93	13,775
463,13	14,676
463,34	11,410
463,54	11,309
463,74	12,110
463,94	9,314
464,14	10,763
464,35	8,651
464,55	12,266
464,75	15,761
464,95	14,710
465,16	6,862
465,36	11,948
465,56	11,221
465,76	11,272
465,96	11,343
466,17	11,176
466,37	11,822
466,57	15,068
466,77	11,759
466,97	10,416
467,18	15,820
467,38	13,299
467,58	12,804
467,78	20,593
467,98	11,960
468,19	16,158
468,39	18,522
468,59	16,496
468,79	14,210
468,99	16,458
469,19	9,917
469,40	12,689
469,60	7,380
469,80	9,707
470,00	20,769
470,20	16,824
470,41	13,214
470,61	18,449
470,81	15,813
471,01	13,019
471,21	15,079
471,41	12,631
471,62	15,333
471,82	13,809
472,02	10,020
472,22	16,970
472,42	14,751
472,62	16,197
472,83	17,460
473,03	15,524
473,23	17,111
473,43	21,492
473,63	21,027
473,83	18,521
474,03	19,979
474,24	21,141
474,44	16,978
474,64	17,889
474,84	18,117
475,04	21,497
475,24	19,473
475,45	19,713
475,65	21,408
475,85	20,622
476,05	17,538
476,25	20,457
476,45	17,070
476,65	26,727
476,85	19,186
477,06	19,731
477,26	18,385
477,46	17,693
477,66	20,773
477,86	22,828
478,06	19,310
478,26	28,423
478,46	19,950
478,67	22,579
478,87	22,425
479,07	24,208
479,27	26,477
479,47	25,389
479,67	17,709
479,87	19,970
480,07	26,383
480,28	24,500
480,48	22,763
480,68	25,679
480,88	28,556
481,08	26,531
481,28	26,502
481,48	26,723
481,68	24,491
481,88	23,305
482,08	26,924
482,29	28,380
482,49	23,750
482,69	26,894
482,89	26,862
483,09	30,682
483,29	24,879
483,49	26,045
483,69	29,025
483,89	26,305
484,09	24,743
484,29	25,655
484,50	27,105
484,70	29,730
484,90	25,819
485,10	28,678
485,30	29,445
485,50	31,786
485,70	30,400
485,90	29,194
486,10	23,049
486,30	26,973
486,50	28,569
486,70	28,509
486,90	30,736
487,10	33,218
487,30	29,598
487,51	31,326
487,71	28,303
487,91	29,711
488,11	32,285
488,31	26,800
488,51	30,966
488,71	31,840
488,91	33,105
489,11	30,757
489,31	31,767
489,51	32,341
489,71	32,916
489,91	34,105
490,11	33,305
490,31	32,371
490,51	35,789
490,71	34,624
490,91	32,630
491,11	35,858
491,31	39,121
491,51	33,282
491,72	36,399
491,92	35,700
492,12	36,627
492,32	36,562
492,52	40,147
492,72	37,102
492,92	36,886
493,12	36,103
493,32	34,613
493,52	33,889
493,72	35,743
493,92	39,319
494,12	38,493
494,32	39,578
494,52	37,457
494,72	39,331
494,92	36,248
495,12	40,355
495,32	44,055
495,52	39,887
495,72	44,124
495,92	41,478
496,12	43,431
496,32	38,605
496,52	38,840
496,72	40,862
496,92	44,074
497,12	40,691
497,32	42,391
497,52	43,163
497,72	43,789
497,92	46,829
498,12	44,483
498,32	43,299
498,52	43,432
498,72	40,824
498,92	41,690
499,12	48,290
499,32	43,914
499,52	45,586
499,72	46,058
499,92	46,074
500,12	45,647
500,32	51,918
500,52	44,743
500,72	52,663
500,91	46,462
501,11	45,307
501,31	44,688
501,51	50,829
501,71	48,739
501,91	48,538
502,11	44,451
502,31	44,347
502,51	48,157
502,71	48,683
502,91	47,442
503,11	48,439
503,31	52,681
503,51	45,973
503,71	45,950
503,91	50,689
504,11	51,800
504,31	47,461
504,51	51,262
504,71	53,558
504,91	50,686
505,10	50,758
505,30	51,603
505,50	49,959
505,70	49,848
505,90	49,380
506,10	48,738
506,30	52,492
506,50	52,610
506,70	52,981
506,90	49,673
507,10	54,841
507,30	53,195
507,50	54,765
507,70	52,657
507,89	53,275
508,09	51,593
508,29	51,945
508,49	52,017
508,69	52,514
508,89	52,116
509,09	53,205
509,29	55,390
509,49	55,524
509,69	56,323
509,89	52,818
510,09	53,706
510,28	55,097
510,48	51,741
510,68	53,026
510,88	55,165
511,08	52,461
511,28	52,534
511,48	54,695
511,68	52,510
511,88	51,789
512,07	56,070
512,27	55,272
512,47	53,118
512,67	54,441
512,87	52,175
513,07	55,050
513,27	51,481
513,47	57,113
513,67	51,588
513,86	58,881
514,06	56,213
514,26	53,557
514,46	55,997
514,66	55,513
514,86	55,054
515,06	59,383
515,26	58,039
515,45	56,208
515,65	54,757
515,85	56,162
516,05	55,396
516,25	56,565
516,45	59,875
516,65	54,858
516,84	56,405
517,04	58,536
517,24	53,555
517,44	55,445
517,64	59,534
517,84	59,051
518,04	58,265
518,23	58,698
518,43	59,828
518,63	53,969
518,83	54,331
519,03	57,134
519,23	58,023
519,42	59,378
519,62	58,826
519,82	56,469
520,02	55,577
520,22	58,290
520,42	55,958
520,61	59,205
520,81	60,569
521,01	62,952
521,21	59,746
521,41	60,762
521,61	61,527
521,80	57,046
522,00	59,077
522,20	60,444
522,40	60,435
522,60	58,145
522,79	55,165
522,99	60,423
523,19	58,767
523,39	57,416
523,59	57,244
523,78	60,377
523,98	58,420
524,18	57,900
524,38	56,042
524,58	61,505
524,77	61,479
524,97	58,243
525,17	57,772
525,37	60,561
525,57	64,539
525,76	57,496
525,96	58,926
526,16	56,744
526,36	56,449
526,56	58,747
526,75	58,153
526,95	58,928
527,15	58,562
527,35	61,038
527,55	59,894
527,74	60,353
527,94	59,087
528,14	58,914
528,34	61,056
528,53	58,809
528,73	60,423
528,93	58,693
529,13	54,896
529,32	59,920
529,52	60,854
529,72	56,931
529,92	57,447
530,12	62,338
530,31	56,565
530,51	62,561
530,71	61,333
530,91	59,471
531,10	56,298
531,30	59,004
531,50	59,503
531,70	64,447
531,89	62,154
532,09	58,022
532,29	58,925
532,49	57,415
532,68	61,389
532,88	57,418
533,08	58,256
533,28	59,408
533,47	58,767
533,67	62,316
533,87	55,436
534,06	63,077
534,26	59,011
534,46	59,423
534,66	59,370
534,85	60,470
535,05	57,070
535,25	57,557
535,45	56,913
535,64	60,765
535,84	59,044
536,04	58,684
536,23	59,523
536,43	60,373
536,63	57,814
536,83	60,036
537,02	58,571
537,22	57,291
537,42	55,870
537,61	55,732
537,81	56,156
538,01	55,425
538,20	57,863
538,40	54,432
538,60	55,471
538,80	53,919
538,99	55,086
539,19	53,481
539,39	50,256
539,58	52,426
539,78	50,770
539,98	49,730
540,17	48,334
540,37	48,512
540,57	46,756
540,76	48,393
540,96	44,436
541,16	46,755
541,36	44,611
541,55	41,233
541,75	42,178
541,95	43,831
542,14	41,752
542,34	42,295
542,54	41,378
542,73	41,979
542,93	41,367
543,13	38,873
543,32	40,731
543,52	40,546
543,72	38,579
543,91	41,491
544,11	41,196
544,31	40,045
544,50	40,798
544,70	42,816
544,89	42,886
545,09	45,449
545,29	43,158
545,48	43,187
545,68	45,450
545,88	46,145
546,07	44,523
546,27	45,346
546,47	45,349
546,66	47,948
546,86	49,401
547,06	45,543
547,25	48,048
547,45	50,942
547,64	50,113
547,84	51,406
548,04	52,683
548,23	55,168
548,43	53,309
548,63	56,731
548,82	56,370
549,02	51,393
549,21	54,111
549,41	55,208
549,61	54,919
549,80	55,570
550,00	55,649
550,20	54,596
550,39	55,382
550,59	54,722
550,78	57,693
550,98	54,546
551,18	57,374
551,37	55,780
551,57	54,120
551,76	57,152
551,96	57,548
552,16	59,088
552,35	57,107
552,55	57,147
552,74	57,451
552,94	59,569
553,14	57,760
553,33	59,224
553,53	60,119
553,72	58,670
553,92	60,111
554,12	57,700
554,31	59,227
554,51	59,224
554,70	57,022
554,90	59,923
555,09	61,491
555,29	63,404
555,49	61,391
555,68	60,262
555,88	60,156
556,07	60,356
556,27	63,175
556,46	60,097
556,66	57,573
556,86	63,842
557,05	59,062
557,25	59,803
557,44	60,260
557,64	59,724
557,83	62,629
558,03	61,115
558,22	59,451
558,42	60,298
558,62	62,865
558,81	58,446
559,01	58,327
559,20	61,364
559,40	61,705
559,59	60,329
559,79	60,149
559,98	61,031
560,18	64,428
560,37	60,767
560,57	58,238
560,76	60,819
560,96	58,448
561,16	62,788
561,35	60,172
561,55	62,957
561,74	60,400
561,94	59,824
562,13	61,582
562,33	63,712
562,52	60,761
562,72	58,909
562,91	61,310
563,11	62,415
563,30	65,636
563,50	60,809
563,69	59,834
563,89	62,325
564,08	60,560
564,28	61,939
564,47	61,359
564,67	62,896
564,86	59,609
565,06	59,793
565,25	59,586
565,45	61,758
565,64	61,711
565,84	58,923
566,03	61,850
566,23	62,694
566,42	59,272
566,62	60,260
566,81	62,312
567,01	64,339
567,20	63,555
567,40	59,903
567,59	60,456
567,79	62,969
567,98	64,938
568,18	64,122
568,37	61,524
568,57	64,015
568,76	65,637
568,96	61,137
569,15	60,968
569,35	61,677
569,54	64,394
569,73	62,951
569,93	61,628
570,12	62,181
570,32	64,356
570,51	60,980
570,71	63,815
570,90	64,301
571,10	60,798
571,29	60,546
571,49	61,843
571,68	62,052
571,87	64,341
572,07	61,083
572,26	58,291
572,46	61,397
572,65	64,116
572,85	59,095
573,04	61,760
573,24	61,553
573,43	64,794
573,62	63,283
573,82	61,299
574,01	63,404
574,21	62,280
574,40	59,849
574,60	61,612
574,79	65,142
574,98	60,627
575,18	63,111
575,37	59,563
575,57	62,153
575,76	63,387
575,96	60,203
576,15	61,720
576,34	59,925
576,54	63,097
576,73	61,253
576,93	60,712
577,12	61,481
577,31	62,656
577,51	59,288
577,70	60,593
577,90	62,087
578,09	59,178
578,28	59,415
578,48	59,759
578,67	60,875
578,87	62,427
579,06	59,147
579,25	61,373
579,45	60,740
579,64	59,928
579,84	59,705
580,03	59,927
580,22	64,083
580,42	58,021
580,61	58,565
580,81	59,091
581,00	61,023
581,19	60,600
581,39	59,417
581,58	60,922
581,77	59,484
581,97	61,994
582,16	58,632
582,35	59,251
582,55	61,026
582,74	61,712
582,94	61,441
583,13	57,763
583,32	59,231
583,52	60,643
583,71	58,468
583,90	60,683
584,10	58,841
584,29	60,804
584,48	58,530
584,68	58,447
584,87	59,931
585,06	60,202
585,26	57,927
585,45	57,687
585,65	60,655
585,84	57,472
586,03	59,654
586,23	56,718
586,42	58,062
586,61	62,073
586,81	58,702
587,00	60,656
587,19	56,681
587,39	59,358
587,58	58,510
587,77	58,716
587,97	59,448
588,16	58,442
588,35	59,119
588,54	58,952
588,74	58,732
588,93	60,815
589,12	59,620
589,32	59,007
589,51	58,982
589,70	58,531
589,90	58,614
590,09	60,385
590,28	62,034
590,48	59,175
590,67	58,577
590,86	59,701
591,06	58,707
591,25	61,577
591,44	61,877
591,63	59,383
591,83	60,985
592,02	60,699
592,21	58,930
592,41	59,978
592,60	60,942
592,79	59,456
592,98	60,728
593,18	60,555
593,37	60,338
593,56	61,186
593,76	60,440
593,95	60,939
594,14	60,361
594,33	62,619
594,53	59,248
594,72	59,905
594,91	64,426
595,10	61,908
595,30	61,218
595,49	60,208
595,68	61,377
595,88	61,837
596,07	61,283
596,26	61,614
596,45	62,134
596,65	59,933
596,84	61,702
597,03	61,590
597,22	64,769
597,42	63,601
597,61	61,421
597,80	61,355
597,99	62,486
598,19	63,012
598,38	62,676
598,57	59,479
598,76	61,534
598,95	62,412
599,15	61,920
599,34	60,660
599,53	62,485
599,72	63,298
599,92	61,076
600,11	60,311
600,30	61,103
600,49	62,355
600,69	60,119
600,88	62,659
601,07	61,164
601,26	62,247
601,45	62,110
601,65	61,436
601,84	61,215
602,03	64,791
602,22	63,321
602,42	64,546
602,61	61,617
602,80	61,687
602,99	61,263
603,18	60,480
603,38	62,189
603,57	60,386
603,76	62,637
603,95	61,243
604,14	61,641
604,34	61,957
604,53	61,296
604,72	63,362
604,91	62,572
605,10	62,235
605,29	62,770
605,49	58,029
605,68	63,313
605,87	63,452
606,06	61,525
606,25	60,406
606,45	61,159
606,64	63,821
606,83	60,572
607,02	59,197
607,21	61,415
607,40	59,057
607,60	57,699
607,79	57,424
607,98	57,145
608,17	57,296
608,36	57,247
608,55	56,390
608,75	55,989
608,94	55,666
609,13	51,250
609,32	50,640
609,51	51,022
609,70	49,706
609,89	49,381
610,09	50,150
610,28	50,119
610,47	50,063
610,66	49,429
610,85	47,921
611,04	49,969
611,23	48,789
611,43	49,372
611,62	48,276
611,81	49,233
612,00	49,515
612,19	48,151
612,38	49,903
612,57	52,178
612,77	50,981
612,96	50,376
613,15	52,092
613,34	53,974
613,53	54,770
613,72	55,927
613,91	55,750
614,10	54,892
614,29	57,459
614,49	55,459
614,68	56,331
614,87	55,033
615,06	59,735
615,25	54,995
615,44	59,575
615,63	57,153
615,82	57,163
616,01	57,579
616,21	57,776
616,40	60,230
616,59	59,989
616,78	60,052
616,97	60,243
617,16	58,950
617,35	59,889
617,54	58,701
617,73	61,628
617,92	59,058
618,11	59,703
618,31	56,696
618,50	59,862
618,69	59,052
618,88	60,858
619,07	57,005
619,26	56,274
619,45	58,374
619,64	58,461
619,83	57,409
620,02	57,398
620,21	60,837
620,40	59,426
620,59	57,859
620,78	57,234
620,97	61,248
621,17	57,772
621,36	59,250
621,55	59,972
621,74	58,440
621,93	59,519
622,12	58,774
622,31	57,184
622,50	61,110
622,69	61,968
622,88	58,074
623,07	59,394
623,26	60,943
623,45	61,854
623,64	59,582
623,83	59,006
624,02	61,790
624,21	61,181
624,40	58,678
624,59	58,309
624,78	60,856
624,97	60,810
625,16	58,847
625,35	59,475
625,54	58,959
625,73	60,636
625,92	59,686
626,12	60,602
626,31	62,116
626,50	60,531
626,69	62,093
626,88	60,757
627,07	61,011
627,26	60,462
627,45	58,510
627,64	59,188
627,83	59,645
628,02	58,928
628,21	59,586
628,40	59,162
628,59	60,772
628,78	59,308
628,97	57,740
629,16	57,012
629,35	58,805
629,54	60,359
629,73	58,692
629,92	57,260
630,10	59,172
630,29	59,921
630,48	59,703
630,67	58,237
630,86	61,835
631,05	60,417
631,24	61,036
631,43	56,610
631,62	59,851
631,81	59,697
632,00	58,478
632,19	57,748
632,38	59,499
632,57	57,081
632,76	60,426
632,95	61,686
633,14	62,690
633,33	60,774
633,52	60,946
633,71	61,922
633,90	60,510
634,09	61,422
634,28	61,233
634,47	59,063
634,66	62,839
634,85	61,309
635,04	62,242
635,22	62,006
635,41	59,077
635,60	63,686
635,79	61,025
635,98	59,470
636,17	63,050
636,36	59,398
636,55	61,888
636,74	59,856
636,93	61,234
637,12	62,612
637,31	59,615
637,50	60,334
637,69	61,593
637,87	62,045
638,06	60,711
638,25	59,925
638,44	61,783
638,63	58,489
638,82	60,988
639,01	61,084
639,20	61,259
639,39	60,974
639,58	60,344
639,77	60,487
639,95	60,968
640,14	62,071
640,33	60,463
640,52	61,416
640,71	62,956
640,90	60,808
641,09	63,397
641,28	61,669
641,47	62,320
641,66	61,594
641,84	59,601
642,03	59,968
642,22	61,778
642,41	63,666
642,60	59,644
642,79	60,845
642,98	59,966
643,17	59,811
643,35	60,893
643,54	61,984
643,73	62,276
643,92	60,877
644,11	61,239
644,30	61,259
644,49	62,796
644,67	60,785
644,86	59,534
645,05	62,275
645,24	58,410
645,43	62,279
645,62	59,566
645,81	61,764
645,99	64,921
646,18	64,326
646,37	60,814
646,56	62,458
646,75	62,327
646,94	63,945
647,13	60,281
647,31	60,003
647,50	60,611
647,69	61,602
647,88	62,953
648,07	62,885
648,26	63,664
648,44	62,536
648,63	61,220
648,82	59,905
649,01	63,407
649,20	57,942
649,38	61,759
649,57	61,708
649,76	60,091
649,95	62,934
650,14	59,811
650,33	60,502
650,51	59,213
650,70	63,211
650,89	60,402
651,08	59,559
651,27	61,946
651,45	59,484
651,64	58,933
651,83	61,733
652,02	63,241
652,21	60,991
652,39	63,106
652,58	62,819
652,77	60,398
652,96	61,654
653,15	60,760
653,33	62,970
653,52	62,451
653,71	63,173
653,90	61,509
654,09	63,693
654,27	63,463
654,46	64,575
654,65	61,878
654,84	61,708
655,02	64,147
655,21	62,594
655,40	63,754
655,59	61,664
655,77	62,948
655,96	62,483
656,15	62,740
656,34	63,952
656,53	62,390
656,71	63,676
656,90	62,809
657,09	62,070
657,28	64,378
657,46	61,234
657,65	63,721
657,84	60,501
658,03	61,571
658,21	63,552
658,40	60,834
658,59	62,508
658,78	62,266
658,96	62,525
659,15	61,773
659,34	61,697
659,52	62,628
659,71	64,947
659,90	61,427
660,09	61,690
660,27	61,059
660,46	62,492
660,65	61,750
660,84	60,201
661,02	61,252
661,21	62,039
661,40	60,736
661,58	61,062
661,77	61,969
661,96	58,930
662,15	62,095
662,33	60,632
662,52	60,217
662,71	61,558
662,89	58,412
663,08	61,365
663,27	61,975
663,45	61,859
663,64	61,776
663,83	58,987
664,02	61,137
664,20	60,969
664,39	60,558
664,58	63,632
664,76	60,610
664,95	61,115
665,14	60,700
665,32	59,824
665,51	60,993
665,70	62,705
665,88	62,290
666,07	61,928
666,26	63,546
666,44	61,968
666,63	60,449
666,82	61,846
667,00	64,576
667,19	59,651
667,38	61,863
667,56	62,065
667,75	63,225
667,94	62,547
668,12	60,551
668,31	61,238
668,50	59,334
668,68	63,193
668,87	62,935
669,06	62,033
669,24	62,970
669,43	60,931
669,62	59,631
669,80	59,751
669,99	60,401
670,18	61,653
670,36	60,462
670,55	62,007
670,74	62,772
670,92	58,942
671,11	62,670
671,29	60,556
671,48	63,709
671,67	60,752
671,85	61,059
672,04	60,976
672,23	60,339
672,41	60,834
672,60	61,145
672,78	59,032
672,97	63,398
673,16	61,775
673,34	59,759
673,53	59,973
673,71	62,818
673,90	62,142
674,09	60,942
674,27	59,231
674,46	61,350
674,64	63,245
674,83	60,000
675,02	60,407
675,20	60,882
675,39	60,790
675,57	60,387
675,76	60,994
675,95	63,241
676,13	63,222
676,32	63,121
676,50	62,263
676,69	59,376
676,88	60,443
677,06	61,155
677,25	60,663
677,43	63,998
677,62	63,372
677,80	61,057
677,99	62,128
678,18	62,412
678,36	61,418
678,55	59,339
678,73	60,864
678,92	62,763
679,10	61,956
679,29	60,463
679,48	60,019
679,66	60,857
679,85	61,528
680,03	61,114
680,22	63,015
680,40	61,196
680,59	60,120
680,77	59,677
680,96	61,172
681,15	61,109
681,33	62,335
681,52	60,814
681,70	61,489
681,89	64,926
682,07	62,566
682,26	60,970
682,44	61,330
682,63	61,208
682,81	60,193
683,00	60,653
683,18	60,976
683,37	63,106
683,55	61,173
683,74	61,441
683,92	65,521
684,11	61,604
684,29	63,942
684,48	58,445
684,67	60,967
684,85	62,725
685,04	61,252
685,22	61,195
685,41	60,797
685,59	62,589
685,78	59,795
685,96	60,769
686,15	61,649
686,33	59,870
686,52	61,645
686,70	59,489
686,89	61,749
687,07	62,073
687,26	61,518
687,44	62,969
687,62	61,389
687,81	63,172
687,99	61,433
688,18	60,445
688,36	62,072
688,55	61,690
688,73	60,454
688,92	59,362
689,10	62,752
689,29	62,503
689,47	63,739
689,66	61,413
689,84	61,041
690,03	64,225
690,21	61,150
690,40	62,019
690,58	59,885
690,76	59,681
690,95	62,291
691,13	59,391
691,32	60,709
691,50	61,379
691,69	63,618
691,87	59,044
692,06	60,274
692,24	59,134
692,43	61,691
692,61	61,393
692,79	60,856
692,98	59,029
693,16	61,756
693,35	60,922
693,53	60,957
693,72	62,847
693,90	62,241
694,08	59,445
694,27	59,886
694,45	62,835
694,64	64,374
694,82	60,902
695,01	58,786
695,19	60,861
695,37	62,557
695,56	61,942
695,74	61,167
695,93	62,132
696,11	59,874
696,29	62,476
696,48	60,762
696,66	63,506
696,85	62,594
697,03	58,902
697,21	65,038
697,40	60,029
697,58	62,613
697,77	60,236
697,95	61,866
698,13	62,685
698,32	60,725
698,50	60,388
698,69	60,754
698,87	63,274
699,05	59,327
699,24	61,314
699,42	61,500
699,60	59,599
699,79	61,932
699,97	61,284
700,16	58,883
700,34	63,767
700,52	61,616
700,71	60,662
700,89	60,925
701,07	61,657
701,26	62,051
701,44	60,613
701,63	60,469
701,81	62,101
701,99	62,711
702,18	59,168
702,36	58,597
702,54	58,744
702,73	61,689
702,91	60,901
703,09	59,505
703,28	60,571
703,46	61,115
703,64	59,677
703,83	61,517
704,01	62,590
704,19	61,044
704,38	60,153
704,56	58,559
704,74	61,357
704,93	60,878
705,11	60,755
705,29	59,484
705,48	61,399
705,66	60,133
705,84	58,839
706,03	58,353
706,21	61,544
706,39	60,827
706,58	59,340
706,76	60,393
706,94	61,228
707,12	60,669
707,31	58,080
707,49	58,172
707,67	60,066
707,86	61,613
708,04	60,884
708,22	59,724
708,41	60,799
708,59	60,216
708,77	58,637
708,95	59,207
709,14	64,087
709,32	61,755
709,50	60,298
709,69	58,916
709,87	59,792
710,05	59,679
710,23	59,778
710,42	58,040
710,60	59,980
710,78	62,418
710,97	58,949
711,15	61,297
711,33	62,649
711,51	58,343
711,70	58,085
711,88	57,456
712,06	61,765
712,24	59,706
712,43	61,061
712,61	61,059
712,79	60,304
712,97	60,958
713,16	61,054
713,34	59,863
713,52	61,262
713,70	61,114
713,89	60,202
714,07	58,831
714,25	60,589
714,43	62,711
714,62	59,682
714,80	59,513
714,98	57,918
715,16	62,040
715,35	58,969
715,53	59,770
715,71	63,469
715,89	62,271
716,07	60,575
716,26	64,173
716,44	62,527
716,62	62,750
716,80	61,492
716,99	61,128
717,17	64,773
717,35	62,650
717,53	58,860
717,71	60,965
717,90	61,126
718,08	61,232
718,26	58,495
718,44	62,126
718,62	63,404
718,81	62,427
718,99	58,520
719,17	60,174
719,35	59,813
719,53	59,026
719,72	59,317
719,90	62,000
720,08	61,394
720,26	62,263
720,44	61,111
720,62	59,221
720,81	62,776
720,99	62,809
721,17	59,934
721,35	61,476
721,53	60,439
721,72	62,851
721,90	63,102
722,08	63,539
722,26	62,310
722,44	59,679
722,62	59,682
722,81	59,911
722,99	60,705
723,17	59,535
723,35	60,754
723,53	60,506
723,71	62,068
723,89	63,259
724,08	56,338
724,26	61,458
724,44	59,844
724,62	60,826
724,80	59,565
724,98	61,339
725,16	62,794
725,35	62,235
725,53	61,785
725,71	58,706
725,89	61,246
726,07	63,359
726,25	62,755
726,43	59,968
726,61	61,458
726,80	59,781
726,98	58,377
727,16	59,286
727,34	62,273
727,52	59,833
727,70	59,157
727,88	59,551
728,06	59,027
728,25	60,078
728,43	61,255
728,61	61,353
728,79	58,258
728,97	61,096
729,15	57,676
729,33	62,299
729,51	62,479
729,69	61,886
729,87	61,356
730,06	59,770
730,24	61,762
730,42	61,381
730,60	61,652
730,78	61,122
730,96	61,514
731,14	60,340
731,32	62,223
731,50	59,455
731,68	62,251
731,86	62,149
732,04	60,711
732,22	58,938
732,41	63,502
732,59	61,334
732,77	63,423
732,95	63,695
733,13	62,501
733,31	60,375
733,49	60,965
733,67	60,147
733,85	61,624
734,03	60,999
734,21	60,171
734,39	59,854
734,57	63,014
734,75	61,236
734,93	58,719
735,11	59,715
735,29	60,339
735,47	63,267
735,65	59,980
735,84	57,618
736,02	62,920
736,20	64,296
736,38	62,172
736,56	59,448
736,74	59,047
736,92	60,201
737,10	59,389
737,28	60,292
737,46	62,166
737,64	59,767
737,82	58,782
738,00	62,093
738,18	62,759
738,36	59,781
738,54	58,232
738,72	59,102
738,90	61,554
739,08	63,236
739,26	59,412
739,44	61,039
739,62	60,652
739,80	61,909
739,98	59,139
740,16	59,703
740,34	59,502
740,52	63,626
740,70	62,411
740,88	59,086
741,06	59,715
741,24	60,595
741,42	61,075
741,60	60,811
741,78	61,920
741,96	62,163
742,14	59,671
742,32	59,761
742,50	62,210
742,68	60,931
742,86	60,158
743,04	58,958
743,21	62,069
743,39	63,254
743,57	59,351
743,75	58,422
743,93	59,216
744,11	57,436
744,29	59,019
744,47	62,719
744,65	60,262
744,83	60,311
745,01	59,690
745,19	60,417
745,37	63,052
745,55	62,354
745,73	62,973
745,91	60,381
746,09	59,827
746,27	60,217
746,45	58,786
746,62	60,834
746,80	59,652
746,98	61,550
747,16	60,017
747,34	60,640
747,52	59,971
747,70	61,000
747,88	60,244
748,06	60,039
748,24	60,375
748,42	59,929
748,60	61,429
748,78	58,459
748,95	61,294
749,13	63,487
749,31	59,510
749,49	59,649
749,67	63,331
749,85	62,232
750,03	60,013
750,21	61,409
750,39	62,532
750,57	60,268
750,74	62,578
750,92	59,249
751,10	62,026
751,28	61,233
751,46	59,898
751,64	62,090
751,82	62,444
752,00	60,904
752,17	59,366
752,35	57,605
752,53	60,783
752,71	60,227
752,89	60,860
753,07	58,971
753,25	63,576
753,43	59,779
753,60	60,781
753,78	59,249
753,96	63,785
754,14	60,376
754,32	60,915
754,50	61,584
754,68	62,623
754,85	61,697
755,03	60,648
755,21	62,705
755,39	62,675
755,57	61,660
755,75	59,798
755,92	59,469
756,10	61,462
756,28	60,307
756,46	60,320
756,64	58,649
756,82	63,709
756,99	60,111
757,17	59,475
757,35	59,434
757,53	63,519
757,71	61,202
757,89	59,646
758,06	60,479
758,24	60,642
758,42	61,121
758,60	62,497
758,78	60,817
758,95	61,440
759,13	60,349
759,31	59,363
759,49	57,644
759,67	59,573
759,84	58,932
760,02	60,030
760,20	60,492
760,38	59,757
760,56	61,733
760,73	62,963
760,91	62,153
761,09	62,970
761,27	59,304
761,45	60,092
761,62	60,745
761,80	59,003
761,98	61,792
762,16	59,241
762,33	60,480
762,51	63,107
762,69	60,596
762,87	58,345
763,05	60,866
763,22	58,905
763,40	60,639
763,58	58,601
763,76	61,286
763,93	61,837
764,11	61,456
764,29	60,535
764,47	63,301
764,64	61,358
764,82	64,444
765,00	60,687
765,18	58,018
765,35	58,743
765,53	60,170
765,71	61,419
765,89	59,658
766,06	61,189
766,24	61,415
766,42	61,074
766,60	60,285
766,77	62,085
766,95	59,907
767,13	61,173
767,30	61,184
767,48	60,319
767,66	61,056
767,84	59,146
768,01	62,511
768,19	58,974
768,37	62,479
768,54	59,680
768,72	60,760
768,90	62,653
769,08	61,005
769,25	62,518
769,43	61,633
769,61	60,507
769,78	61,572
769,96	58,989
770,14	62,207
770,31	63,635
770,49	62,237
770,67	60,568
770,85	59,803
771,02	61,149
771,20	61,116
771,38	62,561
771,55	59,345
771,73	61,611
771,91	61,216
772,08	62,054
772,26	59,203
772,44	59,367
772,61	59,830
772,79	60,558
772,97	60,724
773,14	60,293
773,32	61,980
773,50	57,762
773,67	59,504
773,85	61,399
774,03	60,707
774,20	60,513
774,38	62,775
774,56	64,086
774,73	60,684
774,91	60,661
775,09	62,648
775,26	59,773
775,44	61,738
775,61	62,541
775,79	59,155
775,97	63,150
776,14	60,563
776,32	61,279
776,50	62,922
776,67	60,875
776,85	62,230
777,03	60,870
777,20	62,565
777,38	60,934
777,55	62,813
777,73	56,920
777,91	61,257
778,08	61,760
778,26	61,458
778,43	61,313
778,61	58,395
778,79	60,447
778,96	58,119
779,14	61,653
779,32	62,096
779,49	61,338
779,67	63,312
779,84	61,383
780,02	61,143
780,20	59,108
780,37	60,280
780,55	53,448
780,72	62,375
780,90	62,022
781,07	63,302
781,25	60,021
781,43	62,687
781,60	61,069
781,78	63,160
781,95	61,627
782,13	61,336
782,30	60,502
782,48	62,866
782,66	59,234
782,83	57,943
783,01	65,573
783,18	62,258
783,36	61,992
783,53	63,245
783,71	60,918
783,89	60,990
784,06	61,256
784,24	61,930
784,41	62,021
784,59	60,218
784,76	61,843
784,94	59,280
785,11	59,562
785,29	60,308
785,46	62,158
785,64	63,181
785,82	60,045
785,99	62,361
786,17	59,955
786,34	59,288
786,52	61,822
786,69	64,876
786,87	61,408
787,04	61,266
787,22	59,768
787,39	63,013
787,57	64,647
787,74	61,536
787,92	63,091
788,09	63,650
788,27	59,091
788,44	60,216
788,62	61,891
788,79	61,141
788,97	62,653
789,14	59,991
789,32	59,808
789,49	63,323
789,67	61,721
789,84	60,941
790,02	62,573
790,19	61,012
790,37	63,811
790,54	63,884
790,72	65,095
790,89	67,546
791,07	64,462
791,24	58,113
791,42	63,725
791,59	62,062
791,77	61,019
791,94	61,115
792,12	62,259
792,29	63,000
792,47	60,530
792,64	65,738
792,81	63,610
792,99	60,547
793,16	61,517
793,34	63,599
793,51	63,414
793,69	64,466
793,86	63,469
794,04	62,492
794,21	61,790
794,39	61,020
794,56	64,571
794,73	61,561
794,91	64,567
795,08	61,978
795,26	63,608
795,43	60,263
795,61	65,395
795,78	64,467
795,95	61,548
796,13	62,944
796,30	65,338
796,48	61,422
796,65	61,298
796,83	60,181
797,00	67,971
797,17	61,230
797,35	62,513
797,52	61,375
797,70	68,380
797,87	63,454
798,04	59,543
798,22	61,489
798,39	61,422
798,57	62,230
798,74	61,878
798,91	64,403
799,09	62,712
799,26	61,209
799,44	60,428
799,61	61,464
799,78	64,939
799,96	61,835
800,13	63,406
800,31	64,630
800,48	66,765
800,65	67,436
800,83	60,080
801,00	63,883
801,17	60,139
801,35	65,122
801,52	61,402
801,70	63,284
801,87	60,509
802,04	62,791
802,22	59,337
802,39	61,259
802,56	66,776
802,74	62,101
802,91	59,621
803,08	59,881
803,26	65,161
803,43	67,836
803,61	63,735
803,78	62,985
803,95	64,427
804,13	66,333
804,30	60,635
804,47	63,201
804,65	61,455
804,82	63,042
804,99	63,233
805,17	61,460
805,34	69,104
805,51	69,408
805,69	66,074
805,86	63,451
806,03	63,151
806,21	66,357
806,38	63,022
806,55	65,213
806,72	65,596
806,90	66,845
807,07	65,538
807,24	62,713
807,42	62,273
807,59	64,109
807,76	57,229
807,94	62,912
808,11	67,118
808,28	63,767
808,45	64,427
808,63	63,230
808,80	65,968
808,97	65,603
809,15	57,548
809,32	66,082
809,49	62,251
809,67	61,455
809,84	66,484
810,01	64,191
810,18	70,209
810,36	62,804
810,53	61,453
810,70	65,002
810,87	64,753
811,05	63,398
811,22	64,366
811,39	65,152
811,57	70,004
811,74	67,255
811,91	63,761
812,08	65,874
812,26	66,528
812,43	61,574
812,60	60,322
812,77	64,242
812,95	67,805
813,12	67,616
813,29	59,297
813,46	62,815
813,64	64,528
813,81	62,925
813,98	63,907
814,15	67,846
814,32	69,042
814,50	65,399
814,67	62,217
814,84	63,746
815,01	65,586
815,19	60,024
815,36	56,875
815,53	62,846
815,70	61,391
815,87	66,314
816,05	56,928
816,22	66,505
816,39	69,860
816,56	72,986
816,74	61,324
816,91	62,076
817,08	68,823
817,25	64,778
817,42	63,845
817,60	64,646
817,77	61,265
817,94	63,947
818,11	67,293
818,28	67,005
818,45	65,421
818,63	62,235
818,80	61,972
818,97	63,379
819,14	69,030
819,31	67,209
819,49	69,140
819,66	62,009
819,83	68,474
820,00	64,610
820,17	65,637
820,34	64,134
820,52	69,765
820,69	66,775
820,86	60,935
821,03	63,437
821,20	66,109
821,37	67,615
821,55	57,322
821,72	66,883
821,89	63,387
822,06	70,377
822,23	61,453
822,40	63,415
822,57	71,085
822,75	72,421
822,92	65,129
823,09	67,190
823,26	70,149
823,43	75,218
823,60	59,841
823,77	67,103
823,94	72,233
824,12	70,068
824,29	63,913
824,46	69,937
824,63	68,192
824,80	69,761
824,97	66,244
825,14	64,896
825,31	68,864
825,49	63,620
825,66	61,530
825,83	66,595
826,00	66,822
826,17	72,308
826,34	63,066
826,51	63,824
826,68	59,603
826,85	68,424
827,02	61,858
827,20	61,759
827,37	71,657
827,54	68,056
827,71	68,336
827,88	65,906
828,05	67,547
828,22	62,964
828,39	67,130
828,56	71,180
828,73	67,681
828,90	69,560
829,07	63,989
829,25	66,191
829,42	71,187
829,59	63,463
829,76	62,797
829,93	62,484
830,10	65,671
830,27	60,762
830,44	68,664
830,61	65,663
830,78	76,288
830,95	72,825
831,12	61,953
831,29	64,381
831,46	66,104
831,63	64,601
831,80	64,253
831,97	60,662
832,14	71,081
832,31	80,425
832,48	63,699
832,65	71,113
832,83	70,347
833,00	59,744
833,17	69,365
833,34	71,937
833,51	71,871
833,68	73,659
833,85	74,924
834,02	66,925
834,19	69,012
834,36	75,354
834,53	60,277
834,70	66,776
834,87	76,769
835,04	67,026
835,21	66,740
835,38	64,344
835,55	67,946
835,72	79,219
835,89	61,570
836,06	69,204
836,23	73,738
836,40	61,739
836,57	65,576
836,74	68,826
836,91	76,540
837,08	76,030
837,25	68,769
837,42	62,112
837,59	63,925
837,76	67,571
837,93	61,024
838,09	57,476
838,26	74,297
838,43	73,760
838,60	70,136
838,77	60,185
838,94	78,739
839,11	63,797
839,28	64,250
839,45	61,962
839,62	67,990
839,79	76,116
839,96	73,804
840,13	73,815
840,30	66,679
840,47	58,280
840,64	70,704
840,81	73,601
840,98	70,370
841,15	82,334
841,32	62,533
841,48	72,032
841,65	73,167
841,82	64,660
841,99	63,852
842,16	64,046
842,33	66,099
842,50	72,838
842,67	67,119
842,84	64,439
843,01	63,638
843,18	65,312
843,35	67,260
843,52	62,948
843,68	67,977
843,85	70,504
844,02	65,766
844,19	69,685
844,36	79,921
844,53	73,906
844,70	69,223
844,87	79,354
845,04	69,930
845,21	66,453
845,37	74,397
845,54	66,093
845,71	77,624
845,88	91,593
846,05	61,046
846,22	61,114
846,39	67,808
846,56	80,060
846,72	57,538
846,89	68,409
847,06	72,657
847,23	72,980
847,40	69,904
847,57	65,116
847,74	75,020
847,90	89,649
848,07	69,216
848,24	67,237
848,41	66,367
848,58	90,594
848,75	70,135
848,92	77,272
849,08	69,873
849,25	79,233
849,42	59,686
849,59	64,804
849,76	61,035
849,93	71,911
850,09	73,716
850,26	57,122
850,43	78,424
850,60	64,565
850,77	64,797
850,94	66,624
851,10	71,068
851,27	80,746
851,44	63,360
851,61	68,061
851,78	88,481
851,95	80,093
852,11	59,376
852,28	69,183
852,45	74,089
852,62	78,438
852,79	76,293
852,95	70,484
853,12	88,156
853,29	72,239
853,46	63,275
853,63	73,229
853,79	70,508
853,96	58,047
854,13	86,046
854,30	71,856
854,46	91,655
854,63	75,633
854,80	71,307
854,97	61,449
855,14	85,162
855,30	73,927
855,47	68,767
855,64	71,722
855,81	64,277
855,97	76,812
856,14	81,022
856,31	63,904
856,48	91,090
856,65	103,728
856,81	67,599
856,98	56,786
857,15	68,320
857,32	75,148
857,48	68,957
857,65	81,889
857,82	83,477
857,99	78,859
858,15	59,977
858,32	68,862
858,49	77,114
858,65	79,974
858,82	75,624
858,99	79,203
859,16	72,087
859,32	80,640
859,49	59,134
859,66	65,754
859,83	77,679
859,99	57,661
860,16	70,189
860,33	59,402
860,49	81,979
860,66	77,031
860,83	69,482
861,00	62,085
861,16	75,739
861,33	80,692
861,50	72,907
861,66	70,119
861,83	94,749
862,00	89,794
862,16	80,293
862,33	74,412
862,50	109,211
862,67	70,946
862,83	85,355
863,00	77,371
863,17	98,660
863,33	84,837
863,50	37,231
863,67	73,117
863,83	73,012
864,00	87,891
864,17	73,283
864,33	67,872
864,50	75,609
864,67	58,609
864,83	65,325
865,00	63,237
865,17	68,744
865,33	81,853
865,50	47,942
865,67	46,989
865,83	71,838
866,00	105,314
866,17	85,266
866,33	72,894
866,50	104,856
866,66	90,006
866,83	98,771
867,00	88,069
867,16	81,363
867,33	95,087
867,50	63,517
867,66	65,379
867,83	89,501
868,00	84,148
868,16	59,713
868,33	65,486
868,49	95,579
868,66	95,457
868,83	79,813
868,99	87,474
869,16	119,743
869,32	101,812
869,49	66,223
869,66	84,018
869,82	109,563
869,99	102,548
870,15	66,636
870,32	78,636
870,49	81,191
870,65	154,101
870,82	82,725
870,98	69,619
871,15	128,606
871,32	86,846
871,48	52,242
871,65	46,678
871,81	73,202
871,98	50,039
872,15	41,555
872,31	43,029
872,48	143,209
872,64	110,303
872,81	54,124
872,97	78,501
873,14	117,463
873,31	113,525
873,47	50,053
873,64	62,488
873,80	147,944
873,97	147,551
874,13	24,667
874,30	82,379
874,46	118,271
874,63	82,471
874,80	88,462
874,96	54,457
875,13	133,811
875,29	89,105
875,46	98,840
875,62	76,583
875,79	106,737
875,95	103,537
876,12	88,957
876,28	26,049
876,45	130,440
876,61	38,497
876,78	60,176
876,94	41,786
877,11	120,545
877,27	91,102
877,44	116,818
877,60	68,162
877,77	119,662
877,94	132,584
878,10	115,809
878,27	94,005
878,43	150,096
878,60	54,137
878,76	81,611
878,93	89,799
879,09	145,513
879,26	137,513
879,42	68,337
879,58	73,418
879,75	117,210
879,91	151,854
880,08	17,194
880,24	96,779
880,41	48,499
880,57	74,190
880,74	75,274
880,90	71,296
881,07	102,911
881,23	122,126
881,40	65,506
881,56	62,345
881,73	134,390
881,89	148,299
882,06	68,765
882,22	179,418
882,38	181,232
882,55	140,981
882,71	83,730
882,88	98,236
883,04	289,348
883,21	222,015
883,37	97,678
883,54	94,529
883,70	205,925
883,86	98,387
884,03	82,090
884,19	57,939
884,36	214,656
884,52	197,678
884,69	108,836
884,85	76,238
885,01	252,057
885,18	129,913
885,34	73,263
885,51	24,958
885,67	132,348
>>>>> Data<<<<< Espectral Procesado Extremo
