Fichero De Datos De SpectraSuite
++++++++++++++++++++++++++++++++++++
Fecha: Wed Apr 22 11:51:23 CEST 2009
Usuario: evoflor
Presente Oscuro Del Espectro: Sí
La Referencia de Presente Del Espectro De: Sí
Muestreados de los componentes de Número de espectros: 1
Espectrómetros: USB4F02353
Tiempo de integración (usec): 500000 (USB4F02353)
Promedio de Espectros Hechos un: 5 (USB4F02353)
El Alisar Del Furgón: 0 (USB4F02353)
Párrafo de de Corregir del la del del de Eléctrica del obscuridad: Sí (USB4F02353)
Estrobo/Lámpara Permitido: No (USB4F02353)
Correct for Detector Non-linearity: No (USB4F02353)
Párrafo de de Corregir del la del del de Externa del luz: No (USB4F02353)
Procesado del espectro de Número de pixeles en: 3648
>>>>> Comienza Data<<<<< Espectral Procesado Del EL
177,79	268,850
178,00	268,850
178,22	268,850
178,44	1125,055
178,66	-350,345
178,88	181,042
179,09	175,234
179,31	213,252
179,53	446,502
179,75	8,795
179,96	676,897
180,18	-64,369
180,40	336,051
180,62	389,708
180,83	-292,893
181,05	-1144,146
181,27	-82120,000
181,49	3,435
181,70	-61,462
181,92	873,706
182,14	675,663
182,36	216,405
182,58	-461,200
182,79	788,482
183,01	-58,279
183,23	152,552
183,45	-391,138
183,66	70,708
183,88	874,824
184,10	-3113,091
184,32	430,495
184,53	279,942
184,75	-175,886
184,97	98,917
185,18	-252,481
185,40	-827,500
185,62	171,959
185,84	35,852
186,05	172,051
186,27	-134,550
186,49	1912,308
186,71	50,429
186,92	109,093
187,14	-158,530
187,36	170,980
187,58	87,829
187,79	-45,471
188,01	277,156
188,23	-368,807
188,45	40,161
188,66	575,536
188,88	-1362,182
189,10	-1001,200
189,31	56,451
189,53	-103,066
189,75	207,091
189,97	-175,692
190,18	-354,421
190,40	578,353
190,62	-73,098
190,83	-214,047
191,05	199,237
191,27	244,914
191,49	488,416
191,70	-334,231
191,92	-47,627
192,14	-66,536
192,35	494,748
192,57	2629,143
192,79	-11,092
193,01	224,994
193,22	82,598
193,44	-38,771
193,66	102,209
193,87	19,743
194,09	-39,412
194,31	210,083
194,53	467,273
194,74	-19,968
194,96	54,373
195,18	127,523
195,39	-257,045
195,61	-170,294
195,83	-131,565
196,04	169,121
196,26	89,347
196,48	-84,439
196,70	395,865
196,91	37,774
197,13	219,291
197,35	7,960
197,56	491,084
197,78	1398,657
198,00	681,259
198,21	682,621
198,43	-1131,512
198,65	178,646
198,86	84,964
199,08	-81,902
199,30	115,223
199,51	11,010
199,73	219,857
199,95	223,317
200,16	295,077
200,38	310,256
200,60	68,359
200,81	349,293
201,03	17,717
201,25	-1703,200
201,46	152,117
201,68	29,896
201,90	1436,818
202,11	-206,947
202,33	121,580
202,55	47,750
202,76	-101,167
202,98	232,822
203,20	-373,173
203,41	-309,053
203,63	129,503
203,85	-169420,000
204,06	-28,724
204,28	-104,627
204,50	174,068
204,71	347,032
204,93	37,760
205,15	320,542
205,36	-139,809
205,58	83,340
205,80	-135,635
206,01	43,735
206,23	138,719
206,45	265,983
206,66	112,867
206,88	13,244
207,10	262,318
207,31	347,179
207,53	250,057
207,75	32,560
207,96	1250,896
208,18	-246,109
208,39	47,729
208,61	2680,571
208,83	-320,424
209,04	239,443
209,26	-382,581
209,48	64,851
209,69	244,226
209,91	630,135
210,13	48,199
210,34	187,942
210,56	150,317
210,77	-1830,079
210,99	122,661
211,21	5307,059
211,42	-221,051
211,64	-34,052
211,86	234,566
212,07	205,809
212,29	271,526
212,50	135,236
212,72	212,000
212,94	149,930
213,15	139,368
213,37	112,198
213,58	-56,364
213,80	-1647,143
214,02	7107,059
214,23	263,175
214,45	369,574
214,67	-342,927
214,88	44,564
215,10	-268,169
215,31	24,061
215,53	-216,318
215,75	189,774
215,96	1348,571
216,18	-313,803
216,39	264,423
216,61	411,179
216,83	294,286
217,04	2368,764
217,26	-60,613
217,47	144,896
217,69	261,535
217,91	-56,237
218,12	-172120,000
218,34	167,454
218,55	258,408
218,77	33,909
218,99	84,088
219,20	-118,209
219,42	280,213
219,63	-209,638
219,85	4,688
220,06	333,154
220,28	147,804
220,50	140,228
220,71	121,641
220,93	4656,981
221,14	-1145,200
221,36	121,759
221,58	-42,945
221,79	155,254
222,01	382,069
222,22	788,947
222,44	-452,584
222,65	170,324
222,87	133,706
223,09	149,945
223,30	92,459
223,52	145,971
223,73	141,954
223,95	29,465
224,16	98,804
224,38	328,957
224,60	75,754
224,81	157,123
225,03	72,599
225,24	83,338
225,46	42,226
225,67	9,269
225,89	61,545
226,10	586,205
226,32	1060,160
226,54	8,275
226,75	37,408
226,97	108,513
227,18	126,291
227,40	67,807
227,61	54,312
227,83	30,219
228,04	96,531
228,26	61,488
228,47	17,072
228,69	142,830
228,91	168,242
229,12	86,026
229,34	45,517
229,55	57,872
229,77	-2,580
229,98	20,032
230,20	66,275
230,41	61,496
230,63	50,685
230,84	53,710
231,06	1,304
231,27	24,732
231,49	46,410
231,71	46,069
231,92	40,385
232,14	12,253
232,35	58,620
232,57	68,277
232,78	18,885
233,00	37,287
233,21	41,209
233,43	22,425
233,64	25,255
233,86	60,872
234,07	9,554
234,29	17,012
234,50	23,895
234,72	32,410
234,93	12,990
235,15	9,466
235,36	28,026
235,58	32,736
235,79	38,060
236,01	12,501
236,22	-2,997
236,44	22,249
236,65	19,552
236,87	17,748
237,08	11,894
237,30	-3,497
237,51	31,205
237,73	-1,060
237,94	6,976
238,16	17,761
238,37	12,566
238,59	10,787
238,80	7,685
239,02	11,749
239,23	24,729
239,45	-1,558
239,66	20,069
239,88	19,525
240,09	17,966
240,31	0,026
240,52	3,376
240,74	22,191
240,95	17,915
241,17	9,526
241,38	5,810
241,60	11,599
241,81	27,695
242,03	0,950
242,24	4,851
242,46	26,563
242,67	4,886
242,89	8,212
243,10	16,057
243,32	15,706
243,53	20,634
243,75	8,027
243,96	6,482
244,18	16,031
244,39	11,611
244,60	7,861
244,82	7,053
245,03	22,496
245,25	7,589
245,46	20,484
245,68	5,133
245,89	25,990
246,11	8,546
246,32	17,645
246,54	5,172
246,75	6,951
246,97	3,757
247,18	15,019
247,39	6,775
247,61	8,349
247,82	3,179
248,04	5,770
248,25	3,283
248,47	10,671
248,68	12,348
248,90	2,213
249,11	10,943
249,33	20,221
249,54	10,282
249,75	0,528
249,97	5,377
250,18	12,844
250,40	17,467
250,61	-8,667
250,83	-0,492
251,04	3,300
251,25	14,463
251,47	3,383
251,68	8,030
251,90	4,793
252,11	8,566
252,33	8,249
252,54	4,083
252,76	10,104
252,97	3,107
253,18	4,288
253,40	2,597
253,61	-0,986
253,83	10,592
254,04	8,142
254,25	5,077
254,47	3,200
254,68	8,352
254,90	6,136
255,11	5,737
255,33	6,222
255,54	4,564
255,75	6,544
255,97	8,027
256,18	2,785
256,40	5,350
256,61	7,307
256,82	-3,335
257,04	12,694
257,25	-0,317
257,47	3,385
257,68	5,225
257,89	8,956
258,11	8,137
258,32	2,393
258,54	8,641
258,75	8,646
258,96	7,994
259,18	7,123
259,39	3,533
259,61	6,148
259,82	5,515
260,03	5,916
260,25	6,566
260,46	1,913
260,68	3,555
260,89	4,370
261,10	4,625
261,32	6,220
261,53	2,859
261,75	3,526
261,96	-0,489
262,17	10,185
262,39	9,442
262,60	2,695
262,81	-1,526
263,03	11,440
263,24	2,687
263,46	0,707
263,67	2,152
263,88	4,342
264,10	6,267
264,31	2,084
264,52	6,330
264,74	8,715
264,95	5,131
265,17	6,687
265,38	4,264
265,59	8,292
265,81	7,520
266,02	0,328
266,23	-0,221
266,45	7,832
266,66	9,581
266,87	5,959
267,09	3,232
267,30	7,019
267,52	8,735
267,73	3,677
267,94	4,024
268,16	7,062
268,37	2,756
268,58	8,136
268,80	3,980
269,01	5,289
269,22	7,142
269,44	6,555
269,65	3,879
269,86	1,378
270,08	6,374
270,29	-0,861
270,50	7,082
270,72	5,112
270,93	0,198
271,14	1,141
271,36	5,365
271,57	5,628
271,78	4,159
272,00	7,137
272,21	8,552
272,42	6,981
272,64	6,338
272,85	-0,651
273,06	7,382
273,28	7,050
273,49	4,889
273,70	5,773
273,92	3,172
274,13	4,396
274,34	0,704
274,56	6,246
274,77	2,216
274,98	8,764
275,20	2,932
275,41	4,651
275,62	4,423
275,84	2,219
276,05	10,367
276,26	2,124
276,47	0,681
276,69	7,967
276,90	5,533
277,11	3,313
277,33	4,518
277,54	9,302
277,75	6,433
277,97	4,194
278,18	-0,057
278,39	8,196
278,61	3,116
278,82	7,237
279,03	4,322
279,24	2,029
279,46	2,701
279,67	6,176
279,88	5,123
280,10	7,970
280,31	-0,186
280,52	5,697
280,73	1,986
280,95	8,722
281,16	7,092
281,37	4,414
281,59	6,828
281,80	9,569
282,01	6,639
282,22	3,185
282,44	3,710
282,65	10,961
282,86	6,079
283,08	2,228
283,29	3,822
283,50	3,908
283,71	7,129
283,93	7,452
284,14	6,678
284,35	0,670
284,56	5,607
284,78	4,809
284,99	3,568
285,20	9,692
285,42	4,626
285,63	4,590
285,84	0,838
286,05	2,654
286,27	5,844
286,48	1,584
286,69	3,632
286,90	5,411
287,12	3,218
287,33	3,148
287,54	3,796
287,75	5,852
287,97	6,869
288,18	3,682
288,39	0,470
288,60	3,299
288,82	5,956
289,03	3,143
289,24	3,864
289,45	10,276
289,67	3,898
289,88	1,370
290,09	4,230
290,30	6,318
290,52	4,286
290,73	2,133
290,94	4,019
291,15	4,585
291,37	3,559
291,58	5,370
291,79	3,636
292,00	4,989
292,21	6,502
292,43	3,600
292,64	1,629
292,85	6,006
293,06	5,402
293,28	3,739
293,49	0,270
293,70	7,507
293,91	3,858
294,12	5,817
294,34	4,813
294,55	5,951
294,76	5,429
294,97	6,054
295,19	1,134
295,40	5,775
295,61	7,231
295,82	3,151
296,03	4,624
296,25	5,673
296,46	2,358
296,67	0,233
296,88	1,019
297,09	8,237
297,31	3,766
297,52	6,823
297,73	3,099
297,94	7,072
298,15	7,511
298,37	2,168
298,58	6,817
298,79	6,518
299,00	3,308
299,21	2,200
299,43	1,708
299,64	10,334
299,85	5,125
300,06	3,402
300,27	1,666
300,49	8,106
300,70	2,750
300,91	4,271
301,12	3,163
301,33	7,894
301,54	1,595
301,76	5,254
301,97	3,718
302,18	3,613
302,39	6,442
302,60	14,271
302,82	3,837
303,03	7,426
303,24	4,173
303,45	5,703
303,66	3,823
303,87	5,797
304,09	7,779
304,30	3,335
304,51	3,823
304,72	4,235
304,93	6,303
305,14	2,532
305,36	1,885
305,57	1,292
305,78	7,064
305,99	4,095
306,20	2,372
306,41	3,911
306,62	4,757
306,84	5,111
307,05	2,821
307,26	5,711
307,47	7,470
307,68	3,092
307,89	3,327
308,11	4,751
308,32	4,295
308,53	3,787
308,74	3,083
308,95	5,633
309,16	4,328
309,37	7,296
309,59	2,362
309,80	7,280
310,01	5,312
310,22	6,221
310,43	1,184
310,64	5,353
310,85	6,283
311,06	3,963
311,28	3,642
311,49	5,767
311,70	10,064
311,91	1,761
312,12	4,484
312,33	6,985
312,54	7,260
312,75	4,399
312,97	5,225
313,18	7,728
313,39	3,974
313,60	3,052
313,81	4,393
314,02	5,353
314,23	5,153
314,44	3,717
314,65	5,179
314,87	3,065
315,08	3,655
315,29	6,689
315,50	5,742
315,71	6,171
315,92	6,309
316,13	5,180
316,34	5,148
316,55	8,388
316,77	3,134
316,98	3,734
317,19	2,954
317,40	5,904
317,61	7,282
317,82	3,145
318,03	3,880
318,24	4,290
318,45	6,421
318,66	3,748
318,87	0,837
319,09	5,174
319,30	6,506
319,51	6,101
319,72	6,495
319,93	6,315
320,14	7,560
320,35	6,133
320,56	2,936
320,77	2,061
320,98	9,266
321,19	4,947
321,40	3,448
321,62	6,798
321,83	5,376
322,04	8,070
322,25	5,322
322,46	10,394
322,67	6,044
322,88	6,441
323,09	1,736
323,30	7,905
323,51	6,751
323,72	6,409
323,93	3,041
324,14	3,756
324,35	1,692
324,56	0,992
324,77	4,410
324,99	4,243
325,20	0,006
325,41	5,298
325,62	5,982
325,83	2,205
326,04	2,622
326,25	8,214
326,46	3,107
326,67	3,053
326,88	5,013
327,09	4,868
327,30	5,127
327,51	3,423
327,72	7,313
327,93	6,019
328,14	1,138
328,35	4,163
328,56	3,458
328,77	2,970
328,98	4,897
329,19	7,043
329,40	5,264
329,61	4,317
329,82	1,504
330,04	4,619
330,25	1,951
330,46	5,942
330,67	3,499
330,88	3,633
331,09	3,899
331,30	2,500
331,51	4,983
331,72	5,330
331,93	5,152
332,14	2,809
332,35	7,662
332,56	5,703
332,77	6,580
332,98	1,977
333,19	3,712
333,40	5,242
333,61	3,479
333,82	5,340
334,03	5,504
334,24	6,603
334,45	3,867
334,66	6,269
334,87	4,673
335,08	3,080
335,29	2,577
335,50	2,871
335,71	2,445
335,92	5,509
336,13	6,343
336,34	0,946
336,55	4,938
336,76	7,542
336,97	1,647
337,18	2,300
337,39	1,652
337,60	6,238
337,81	4,362
338,02	4,936
338,23	3,770
338,44	5,259
338,65	4,668
338,86	5,099
339,07	0,991
339,28	4,512
339,49	2,942
339,70	1,602
339,91	3,014
340,11	6,023
340,32	4,729
340,53	1,052
340,74	2,253
340,95	3,395
341,16	5,344
341,37	4,761
341,58	1,751
341,79	3,605
342,00	6,874
342,21	3,127
342,42	5,694
342,63	4,148
342,84	2,781
343,05	7,057
343,26	7,077
343,47	3,762
343,68	1,530
343,89	2,145
344,10	5,316
344,31	7,613
344,52	5,494
344,73	1,143
344,94	4,723
345,14	4,308
345,35	7,881
345,56	6,250
345,77	2,448
345,98	7,003
346,19	5,362
346,40	6,968
346,61	3,044
346,82	4,879
347,03	4,258
347,24	4,606
347,45	3,787
347,66	6,930
347,87	2,738
348,08	5,413
348,28	2,687
348,49	5,351
348,70	6,364
348,91	5,300
349,12	1,091
349,33	16,131
349,54	2,188
349,75	8,166
349,96	4,349
350,17	7,040
350,38	5,561
350,59	8,321
350,80	2,888
351,00	7,438
351,21	8,029
351,42	4,496
351,63	4,655
351,84	6,577
352,05	7,519
352,26	4,658
352,47	1,350
352,68	7,327
352,89	8,474
353,09	5,830
353,30	3,589
353,51	3,902
353,72	5,776
353,93	6,232
354,14	2,843
354,35	4,274
354,56	8,440
354,77	4,299
354,98	2,699
355,18	6,355
355,39	8,026
355,60	2,721
355,81	2,237
356,02	2,745
356,23	3,831
356,44	0,667
356,65	4,942
356,85	10,212
357,06	8,733
357,27	5,087
357,48	4,625
357,69	6,138
357,90	5,833
358,11	1,661
358,32	4,930
358,52	7,140
358,73	4,645
358,94	1,384
359,15	6,987
359,36	6,477
359,57	2,495
359,78	4,085
359,98	5,411
360,19	-0,053
360,40	3,679
360,61	7,711
360,82	3,710
361,03	6,540
361,24	6,367
361,44	2,821
361,65	5,276
361,86	4,552
362,07	7,632
362,28	4,473
362,49	1,437
362,70	5,902
362,90	5,968
363,11	3,834
363,32	2,565
363,53	3,966
363,74	7,639
363,95	5,086
364,15	4,250
364,36	7,927
364,57	5,676
364,78	4,525
364,99	4,812
365,20	4,363
365,40	7,983
365,61	1,569
365,82	5,497
366,03	5,117
366,24	3,940
366,45	4,823
366,65	4,831
366,86	5,582
367,07	6,118
367,28	1,778
367,49	4,342
367,69	8,159
367,90	3,705
368,11	6,080
368,32	4,413
368,53	7,907
368,73	6,252
368,94	2,258
369,15	2,690
369,36	7,463
369,57	6,023
369,78	1,725
369,98	3,805
370,19	9,383
370,40	4,022
370,61	5,881
370,82	3,929
371,02	5,259
371,23	8,782
371,44	4,774
371,65	6,876
371,85	8,698
372,06	5,633
372,27	4,441
372,48	6,400
372,69	1,509
372,89	4,179
373,10	0,814
373,31	2,176
373,52	7,737
373,73	7,750
373,93	5,017
374,14	3,046
374,35	7,822
374,56	7,735
374,76	6,642
374,97	2,105
375,18	7,645
375,39	5,144
375,60	4,607
375,80	4,392
376,01	7,278
376,22	3,876
376,43	7,723
376,63	4,083
376,84	4,572
377,05	6,629
377,26	3,366
377,46	2,559
377,67	5,428
377,88	4,592
378,09	3,259
378,29	-0,838
378,50	6,117
378,71	5,467
378,92	2,361
379,12	6,784
379,33	2,347
379,54	2,405
379,75	6,689
379,95	2,710
380,16	9,071
380,37	9,799
380,58	4,535
380,78	6,392
380,99	5,816
381,20	3,874
381,41	6,208
381,61	2,725
381,82	5,721
382,03	5,010
382,24	3,853
382,44	7,040
382,65	4,877
382,86	7,798
383,06	3,787
383,27	5,719
383,48	3,117
383,69	6,250
383,89	4,482
384,10	4,891
384,31	4,548
384,51	8,638
384,72	6,639
384,93	2,146
385,14	4,133
385,34	9,697
385,55	2,561
385,76	2,679
385,96	8,153
386,17	4,101
386,38	6,208
386,59	6,065
386,79	0,303
387,00	10,064
387,21	6,784
387,41	5,716
387,62	6,586
387,83	6,216
388,03	4,943
388,24	-1,058
388,45	5,584
388,66	9,793
388,86	7,324
389,07	0,245
389,28	8,589
389,48	7,442
389,69	2,328
389,90	4,794
390,10	6,055
390,31	8,247
390,52	0,008
390,72	1,052
390,93	6,604
391,14	2,571
391,34	3,115
391,55	7,817
391,76	7,219
391,96	4,730
392,17	6,690
392,38	9,901
392,58	4,325
392,79	3,968
393,00	1,043
393,20	2,464
393,41	3,956
393,62	5,675
393,82	6,978
394,03	6,450
394,24	4,846
394,44	6,507
394,65	4,610
394,86	4,842
395,06	6,076
395,27	-0,261
395,48	6,012
395,68	4,667
395,89	5,397
396,10	7,451
396,30	5,549
396,51	3,909
396,72	12,087
396,92	1,223
397,13	4,456
397,34	2,540
397,54	8,788
397,75	2,712
397,95	3,170
398,16	7,601
398,37	3,580
398,57	4,822
398,78	5,310
398,99	6,749
399,19	4,597
399,40	8,709
399,60	2,676
399,81	5,703
400,02	5,938
400,22	2,637
400,43	4,656
400,64	5,368
400,84	4,585
401,05	6,147
401,25	7,261
401,46	8,520
401,67	3,862
401,87	4,456
402,08	-0,489
402,29	5,867
402,49	7,470
402,70	7,698
402,90	2,069
403,11	5,879
403,32	7,123
403,52	6,109
403,73	7,194
403,93	8,742
404,14	11,590
404,35	4,465
404,55	3,816
404,76	0,728
404,96	3,582
405,17	8,953
405,38	9,925
405,58	5,700
405,79	6,952
405,99	6,912
406,20	4,935
406,40	0,413
406,61	10,624
406,82	3,277
407,02	7,903
407,23	6,570
407,43	4,438
407,64	6,341
407,85	5,716
408,05	1,203
408,26	11,423
408,46	10,323
408,67	3,820
408,87	5,960
409,08	4,095
409,29	8,516
409,49	9,278
409,70	4,069
409,90	6,174
410,11	2,924
410,31	13,200
410,52	6,531
410,72	2,658
410,93	6,836
411,14	4,747
411,34	-0,206
411,55	10,522
411,75	9,173
411,96	7,861
412,16	5,200
412,37	3,796
412,57	6,899
412,78	5,113
412,99	5,382
413,19	7,213
413,40	5,189
413,60	3,685
413,81	5,103
414,01	6,347
414,22	2,709
414,42	1,641
414,63	-1,010
414,83	8,225
415,04	9,590
415,24	7,514
415,45	4,644
415,65	8,667
415,86	5,316
416,07	9,380
416,27	6,753
416,48	7,619
416,68	9,995
416,89	5,178
417,09	2,271
417,30	9,638
417,50	7,123
417,71	7,783
417,91	9,606
418,12	3,466
418,32	10,476
418,53	9,563
418,73	6,690
418,94	8,502
419,14	8,505
419,35	2,801
419,55	8,015
419,76	10,750
419,96	3,824
420,17	6,737
420,37	4,192
420,58	7,631
420,78	6,994
420,99	9,723
421,19	9,524
421,40	5,916
421,60	7,743
421,81	7,863
422,01	6,216
422,22	3,557
422,42	8,763
422,63	6,778
422,83	7,296
423,04	9,078
423,24	11,684
423,45	5,734
423,65	11,806
423,86	11,279
424,06	9,408
424,27	2,657
424,47	4,484
424,67	3,324
424,88	8,744
425,08	3,150
425,29	12,772
425,49	5,086
425,70	3,869
425,90	4,807
426,11	5,736
426,31	7,036
426,52	5,304
426,72	5,589
426,93	4,482
427,13	9,452
427,33	7,167
427,54	6,340
427,74	10,463
427,95	11,224
428,15	5,136
428,36	8,647
428,56	7,231
428,77	9,253
428,97	4,199
429,18	7,891
429,38	9,324
429,58	12,762
429,79	8,333
429,99	6,369
430,20	3,807
430,40	11,870
430,61	4,951
430,81	5,135
431,01	10,906
431,22	10,700
431,42	10,855
431,63	6,173
431,83	6,585
432,04	7,076
432,24	10,578
432,44	5,488
432,65	7,536
432,85	10,499
433,06	13,263
433,26	10,145
433,47	6,053
433,67	11,728
433,87	10,296
434,08	7,766
434,28	9,292
434,49	4,488
434,69	10,158
434,89	7,688
435,10	6,823
435,30	10,586
435,51	8,135
435,71	6,377
435,91	7,379
436,12	4,788
436,32	5,783
436,53	8,016
436,73	7,922
436,93	8,316
437,14	10,797
437,34	8,806
437,55	7,293
437,75	10,182
437,95	10,624
438,16	5,280
438,36	8,206
438,57	4,018
438,77	5,979
438,97	11,411
439,18	9,895
439,38	7,519
439,58	6,720
439,79	6,549
439,99	9,448
440,20	11,104
440,40	7,721
440,60	11,657
440,81	11,329
441,01	11,494
441,21	10,070
441,42	13,372
441,62	8,670
441,83	7,865
442,03	8,589
442,23	8,877
442,44	10,068
442,64	8,893
442,84	6,768
443,05	11,447
443,25	9,128
443,45	7,543
443,66	8,881
443,86	7,108
444,06	9,296
444,27	7,243
444,47	9,103
444,67	4,962
444,88	7,845
445,08	11,173
445,28	11,930
445,49	7,411
445,69	5,244
445,90	10,478
446,10	12,241
446,30	11,920
446,51	8,049
446,71	13,434
446,91	16,974
447,12	14,380
447,32	8,985
447,52	11,810
447,72	13,835
447,93	11,220
448,13	6,384
448,33	18,506
448,54	14,793
448,74	9,215
448,94	13,686
449,15	17,429
449,35	13,896
449,55	12,034
449,76	17,659
449,96	11,051
450,16	13,422
450,37	9,555
450,57	11,885
450,77	16,419
450,98	13,192
451,18	12,190
451,38	10,181
451,58	16,275
451,79	14,805
451,99	14,058
452,19	13,816
452,40	12,014
452,60	9,277
452,80	8,728
453,00	15,085
453,21	14,477
453,41	14,337
453,61	12,258
453,82	17,474
454,02	11,202
454,22	13,087
454,42	21,484
454,63	11,953
454,83	12,534
455,03	15,056
455,24	16,160
455,44	12,349
455,64	16,054
455,84	11,861
456,05	9,397
456,25	11,847
456,45	16,899
456,65	12,249
456,86	18,626
457,06	18,388
457,26	15,809
457,47	20,960
457,67	20,364
457,87	14,629
458,07	14,890
458,28	20,353
458,48	15,243
458,68	9,002
458,88	18,156
459,09	17,257
459,29	18,798
459,49	20,237
459,69	17,542
459,90	19,538
460,10	12,786
460,30	16,944
460,50	14,989
460,71	18,349
460,91	14,717
461,11	20,328
461,31	12,409
461,52	21,623
461,72	17,838
461,92	19,156
462,12	26,615
462,32	15,054
462,53	17,221
462,73	17,802
462,93	22,525
463,13	19,324
463,34	15,418
463,54	20,334
463,74	21,643
463,94	24,199
464,14	19,988
464,35	13,158
464,55	21,710
464,75	26,912
464,95	22,562
465,16	19,081
465,36	24,051
465,56	19,844
465,76	18,736
465,96	20,343
466,17	23,921
466,37	20,966
466,57	23,036
466,77	23,591
466,97	19,658
467,18	24,529
467,38	24,879
467,58	23,406
467,78	27,375
467,98	24,110
468,19	26,868
468,39	24,736
468,59	25,029
468,79	22,668
468,99	21,795
469,19	17,806
469,40	25,340
469,60	20,728
469,80	22,124
470,00	27,695
470,20	30,169
470,41	24,854
470,61	26,273
470,81	22,756
471,01	25,633
471,21	26,107
471,41	26,155
471,62	27,718
471,82	27,689
472,02	23,971
472,22	27,910
472,42	26,553
472,62	27,852
472,83	25,708
473,03	35,022
473,23	25,634
473,43	31,699
473,63	28,527
473,83	28,060
474,03	27,772
474,24	32,839
474,44	27,783
474,64	30,307
474,84	27,728
475,04	29,437
475,24	30,781
475,45	28,412
475,65	31,261
475,85	31,568
476,05	22,836
476,25	29,809
476,45	28,646
476,65	35,575
476,85	30,550
477,06	31,180
477,26	29,154
477,46	30,887
477,66	32,364
477,86	33,650
478,06	28,190
478,26	38,623
478,46	32,079
478,67	31,113
478,87	32,539
479,07	29,941
479,27	32,855
479,47	33,588
479,67	26,882
479,87	31,616
480,07	30,941
480,28	29,148
480,48	30,094
480,68	34,037
480,88	36,279
481,08	34,428
481,28	34,325
481,48	32,547
481,68	33,228
481,88	33,644
482,08	32,140
482,29	35,712
482,49	29,076
482,69	33,399
482,89	34,992
483,09	36,205
483,29	33,111
483,49	31,002
483,69	36,169
483,89	34,520
484,09	31,754
484,29	31,511
484,50	36,514
484,70	35,871
484,90	35,201
485,10	34,122
485,30	35,760
485,50	39,735
485,70	35,234
485,90	33,593
486,10	32,484
486,30	34,877
486,50	34,857
486,70	33,574
486,90	35,330
487,10	38,741
487,30	34,604
487,51	35,366
487,71	33,303
487,91	34,892
488,11	36,772
488,31	33,718
488,51	36,903
488,71	35,962
488,91	40,206
489,11	34,561
489,31	37,033
489,51	36,930
489,71	38,162
489,91	36,963
490,11	37,606
490,31	36,561
490,51	39,216
490,71	37,406
490,91	38,561
491,11	39,171
491,31	38,524
491,51	37,305
491,72	38,594
491,92	38,528
492,12	40,428
492,32	38,684
492,52	44,626
492,72	39,114
492,92	40,591
493,12	38,697
493,32	37,746
493,52	39,225
493,72	39,942
493,92	43,849
494,12	41,403
494,32	40,357
494,52	39,285
494,72	38,463
494,92	41,415
495,12	42,046
495,32	43,080
495,52	37,949
495,72	41,391
495,92	44,811
496,12	42,540
496,32	38,677
496,52	41,452
496,72	40,146
496,92	42,617
497,12	41,610
497,32	44,986
497,52	42,238
497,72	44,528
497,92	45,552
498,12	42,547
498,32	40,398
498,52	43,965
498,72	43,482
498,92	38,906
499,12	46,472
499,32	41,672
499,52	43,560
499,72	43,930
499,92	46,213
500,12	44,185
500,32	44,219
500,52	44,008
500,72	49,296
500,91	47,587
501,11	45,971
501,31	39,580
501,51	46,365
501,71	46,614
501,91	46,033
502,11	42,851
502,31	44,928
502,51	46,553
502,71	46,502
502,91	44,496
503,11	44,925
503,31	45,569
503,51	42,326
503,71	41,032
503,91	46,694
504,11	45,762
504,31	43,733
504,51	48,040
504,71	49,079
504,91	45,658
505,10	48,072
505,30	43,615
505,50	46,254
505,70	46,954
505,90	47,098
506,10	42,273
506,30	46,547
506,50	45,719
506,70	48,276
506,90	45,797
507,10	47,893
507,30	47,236
507,50	47,926
507,70	47,782
507,89	46,459
508,09	47,097
508,29	46,473
508,49	48,964
508,69	45,824
508,89	47,449
509,09	45,141
509,29	50,044
509,49	49,633
509,69	52,299
509,89	48,384
510,09	45,068
510,28	48,413
510,48	46,939
510,68	47,554
510,88	45,845
511,08	47,162
511,28	48,660
511,48	46,911
511,68	46,884
511,88	45,523
512,07	47,881
512,27	46,857
512,47	45,387
512,67	44,002
512,87	45,366
513,07	49,839
513,27	45,917
513,47	46,423
513,67	44,105
513,86	47,770
514,06	45,446
514,26	46,479
514,46	49,000
514,66	46,272
514,86	47,311
515,06	49,797
515,26	46,459
515,45	45,144
515,65	46,064
515,85	45,741
516,05	48,845
516,25	46,853
516,45	49,395
516,65	45,519
516,84	48,034
517,04	47,780
517,24	45,776
517,44	47,251
517,64	51,011
517,84	49,192
518,04	49,128
518,23	49,288
518,43	49,417
518,63	46,802
518,83	45,484
519,03	47,843
519,23	48,744
519,42	47,986
519,62	46,984
519,82	47,819
520,02	46,755
520,22	45,720
520,42	46,326
520,61	47,748
520,81	50,007
521,01	51,591
521,21	47,141
521,41	48,252
521,61	50,334
521,80	45,877
522,00	49,122
522,20	54,792
522,40	48,524
522,60	47,034
522,79	46,638
522,99	48,221
523,19	46,642
523,39	47,378
523,59	48,366
523,78	50,975
523,98	46,750
524,18	50,142
524,38	45,495
524,58	47,474
524,77	50,656
524,97	46,692
525,17	48,908
525,37	47,797
525,57	53,960
525,76	46,769
525,96	47,323
526,16	46,951
526,36	47,514
526,56	46,559
526,75	47,259
526,95	47,988
527,15	49,168
527,35	46,595
527,55	48,681
527,74	50,928
527,94	47,482
528,14	47,169
528,34	48,843
528,53	48,095
528,73	48,651
528,93	46,447
529,13	47,901
529,32	48,378
529,52	50,659
529,72	44,577
529,92	46,859
530,12	47,664
530,31	47,675
530,51	49,933
530,71	49,593
530,91	47,399
531,10	45,136
531,30	47,235
531,50	45,874
531,70	47,714
531,89	50,352
532,09	46,678
532,29	46,509
532,49	48,437
532,68	49,936
532,88	46,686
533,08	44,264
533,28	47,591
533,47	48,359
533,67	47,702
533,87	47,571
534,06	48,515
534,26	49,682
534,46	47,767
534,66	47,575
534,85	46,864
535,05	44,755
535,25	48,908
535,45	44,974
535,64	48,284
535,84	46,139
536,04	45,866
536,23	48,547
536,43	46,797
536,63	45,484
536,83	46,093
537,02	45,257
537,22	44,541
537,42	45,907
537,61	47,203
537,81	46,718
538,01	47,259
538,20	44,986
538,40	42,329
538,60	45,314
538,80	43,414
538,99	43,379
539,19	42,874
539,39	41,705
539,58	45,114
539,78	41,680
539,98	42,058
540,17	40,147
540,37	42,855
540,57	39,234
540,76	39,436
540,96	36,310
541,16	39,563
541,36	36,473
541,55	35,214
541,75	36,191
541,95	36,432
542,14	36,880
542,34	33,767
542,54	34,212
542,73	36,055
542,93	36,987
543,13	35,032
543,32	34,429
543,52	33,873
543,72	35,502
543,91	36,194
544,11	34,881
544,31	34,811
544,50	35,064
544,70	36,842
544,89	36,459
545,09	36,687
545,29	35,074
545,48	35,405
545,68	35,410
545,88	38,430
546,07	35,652
546,27	35,921
546,47	39,342
546,66	38,603
546,86	42,142
547,06	38,993
547,25	39,779
547,45	42,907
547,64	42,288
547,84	44,918
548,04	40,145
548,23	44,107
548,43	44,483
548,63	45,857
548,82	41,221
549,02	43,929
549,21	43,683
549,41	44,573
549,61	43,301
549,80	42,018
550,00	45,757
550,20	41,929
550,39	44,082
550,59	43,531
550,78	45,220
550,98	43,987
551,18	45,949
551,37	45,262
551,57	45,363
551,76	44,974
551,96	43,228
552,16	43,466
552,35	44,292
552,55	45,628
552,74	44,963
552,94	45,440
553,14	44,502
553,33	43,160
553,53	44,698
553,72	44,854
553,92	47,796
554,12	44,630
554,31	45,466
554,51	46,003
554,70	44,088
554,90	45,449
555,09	50,356
555,29	47,635
555,49	45,364
555,68	48,319
555,88	46,925
556,07	45,334
556,27	49,504
556,46	46,024
556,66	43,992
556,86	51,520
557,05	48,328
557,25	45,228
557,44	45,555
557,64	45,999
557,83	46,418
558,03	46,094
558,22	48,393
558,42	46,499
558,62	48,351
558,81	47,646
559,01	47,501
559,20	46,778
559,40	46,434
559,59	46,611
559,79	46,397
559,98	48,375
560,18	49,207
560,37	46,480
560,57	47,982
560,76	46,691
560,96	45,749
561,16	46,418
561,35	48,084
561,55	49,235
561,74	47,978
561,94	46,792
562,13	45,749
562,33	50,721
562,52	47,292
562,72	47,613
562,91	45,814
563,11	48,309
563,30	50,027
563,50	45,453
563,69	47,321
563,89	46,628
564,08	47,525
564,28	47,704
564,47	46,963
564,67	45,536
564,86	45,954
565,06	47,598
565,25	47,568
565,45	45,834
565,64	50,683
565,84	46,396
566,03	46,444
566,23	47,312
566,42	48,213
566,62	45,957
566,81	46,885
567,01	46,151
567,20	48,724
567,40	45,224
567,59	46,266
567,79	49,682
567,98	48,715
568,18	46,688
568,37	48,118
568,57	45,919
568,76	49,108
568,96	48,892
569,15	44,908
569,35	49,391
569,54	49,450
569,73	49,728
569,93	47,240
570,12	49,022
570,32	49,211
570,51	47,268
570,71	49,144
570,90	50,901
571,10	48,191
571,29	46,564
571,49	47,902
571,68	49,463
571,87	46,182
572,07	47,289
572,26	43,660
572,46	47,251
572,65	48,702
572,85	47,023
573,04	48,028
573,24	48,623
573,43	50,461
573,62	48,335
573,82	47,237
574,01	46,316
574,21	49,042
574,40	46,100
574,60	46,572
574,79	48,488
574,98	45,370
575,18	48,802
575,37	44,975
575,57	48,166
575,76	47,429
575,96	47,796
576,15	46,941
576,34	47,135
576,54	48,441
576,73	47,773
576,93	46,519
577,12	48,699
577,31	47,811
577,51	45,155
577,70	47,480
577,90	48,631
578,09	47,731
578,28	44,921
578,48	45,875
578,67	48,129
578,87	47,268
579,06	46,249
579,25	47,532
579,45	48,017
579,64	47,036
579,84	46,163
580,03	46,582
580,22	48,217
580,42	45,429
580,61	46,002
580,81	44,508
581,00	44,766
581,19	48,179
581,39	45,315
581,58	45,681
581,77	44,205
581,97	46,936
582,16	45,245
582,35	43,868
582,55	46,910
582,74	48,445
582,94	47,164
583,13	44,700
583,32	45,578
583,52	46,724
583,71	45,937
583,90	47,520
584,10	46,142
584,29	48,193
584,48	43,832
584,68	47,228
584,87	46,293
585,06	47,095
585,26	44,496
585,45	44,679
585,65	48,179
585,84	46,151
586,03	44,954
586,23	44,352
586,42	45,307
586,61	46,228
586,81	46,157
587,00	45,052
587,19	44,300
587,39	46,313
587,58	45,550
587,77	45,940
587,97	42,616
588,16	46,108
588,35	45,181
588,54	45,072
588,74	45,103
588,93	46,014
589,12	45,410
589,32	45,808
589,51	43,647
589,70	43,369
589,90	44,999
590,09	46,824
590,28	48,783
590,48	44,076
590,67	44,876
590,86	45,995
591,06	45,118
591,25	45,959
591,44	46,216
591,63	45,414
591,83	46,334
592,02	45,837
592,21	46,292
592,41	44,931
592,60	45,608
592,79	44,827
592,98	45,304
593,18	45,544
593,37	46,036
593,56	48,456
593,76	46,002
593,95	45,939
594,14	45,921
594,33	48,122
594,53	46,899
594,72	45,552
594,91	47,677
595,10	48,910
595,30	46,785
595,49	45,804
595,68	47,967
595,88	45,988
596,07	46,725
596,26	46,420
596,45	45,956
596,65	44,803
596,84	45,435
597,03	46,421
597,22	45,837
597,42	48,486
597,61	47,228
597,80	47,167
597,99	45,194
598,19	47,967
598,38	46,609
598,57	46,103
598,76	46,077
598,95	49,512
599,15	47,554
599,34	46,758
599,53	46,511
599,72	46,621
599,92	46,203
600,11	44,667
600,30	46,466
600,49	47,472
600,69	45,350
600,88	48,148
601,07	46,747
601,26	47,768
601,45	46,820
601,65	46,236
601,84	47,888
602,03	45,845
602,22	47,609
602,42	47,706
602,61	45,350
602,80	47,704
602,99	46,846
603,18	44,741
603,38	45,942
603,57	44,643
603,76	46,613
603,95	44,747
604,14	46,465
604,34	47,210
604,53	46,923
604,72	47,180
604,91	47,681
605,10	45,495
605,29	47,216
605,49	44,777
605,68	48,223
605,87	45,525
606,06	45,506
606,25	43,503
606,45	46,864
606,64	46,813
606,83	45,276
607,02	45,605
607,21	46,294
607,40	46,348
607,60	43,917
607,79	44,816
607,98	42,578
608,17	43,383
608,36	43,882
608,55	43,199
608,75	42,150
608,94	43,906
609,13	39,895
609,32	38,198
609,51	40,260
609,70	37,746
609,89	40,637
610,09	39,724
610,28	40,314
610,47	37,920
610,66	36,526
610,85	36,806
611,04	40,246
611,23	39,534
611,43	38,617
611,62	38,652
611,81	38,963
612,00	38,870
612,19	37,901
612,38	39,253
612,57	39,790
612,77	40,564
612,96	40,842
613,15	39,787
613,34	40,942
613,53	41,584
613,72	43,418
613,91	41,387
614,10	41,850
614,29	43,096
614,49	40,634
614,68	40,869
614,87	43,073
615,06	45,625
615,25	42,343
615,44	44,591
615,63	43,315
615,82	42,590
616,01	42,002
616,21	42,469
616,40	45,634
616,59	45,141
616,78	42,910
616,97	44,588
617,16	43,471
617,35	45,093
617,54	44,704
617,73	46,464
617,92	45,210
618,11	44,969
618,31	42,748
618,50	46,003
618,69	43,784
618,88	43,583
619,07	42,218
619,26	42,988
619,45	43,356
619,64	43,254
619,83	41,423
620,02	42,172
620,21	45,242
620,40	43,921
620,59	44,715
620,78	43,392
620,97	45,539
621,17	46,116
621,36	43,281
621,55	43,202
621,74	45,334
621,93	44,898
622,12	42,776
622,31	43,300
622,50	42,801
622,69	46,239
622,88	44,390
623,07	44,999
623,26	43,446
623,45	45,500
623,64	43,364
623,83	41,598
624,02	45,176
624,21	46,605
624,40	44,913
624,59	42,024
624,78	45,884
624,97	44,384
625,16	42,428
625,35	41,622
625,54	43,322
625,73	44,087
625,92	43,364
626,12	46,327
626,31	46,578
626,50	45,829
626,69	45,226
626,88	41,944
627,07	45,272
627,26	44,662
627,45	42,980
627,64	44,131
627,83	45,766
628,02	41,702
628,21	43,066
628,40	43,230
628,59	43,969
628,78	42,724
628,97	42,977
629,16	42,673
629,35	43,644
629,54	45,429
629,73	45,156
629,92	40,790
630,10	42,932
630,29	43,135
630,48	43,428
630,67	43,718
630,86	46,432
631,05	42,806
631,24	45,689
631,43	42,420
631,62	43,932
631,81	44,279
632,00	42,589
632,19	42,593
632,38	45,270
632,57	40,762
632,76	44,700
632,95	44,445
633,14	45,659
633,33	44,059
633,52	45,009
633,71	45,374
633,90	42,061
634,09	43,422
634,28	44,546
634,47	41,918
634,66	44,215
634,85	43,866
635,04	46,397
635,22	46,090
635,41	43,360
635,60	46,290
635,79	43,810
635,98	42,809
636,17	43,499
636,36	44,668
636,55	43,733
636,74	41,894
636,93	45,830
637,12	44,390
637,31	44,040
637,50	43,229
637,69	43,575
637,87	44,313
638,06	45,528
638,25	44,647
638,44	44,404
638,63	40,926
638,82	44,151
639,01	43,665
639,20	43,610
639,39	46,160
639,58	43,306
639,77	44,216
639,95	42,486
640,14	44,173
640,33	42,324
640,52	44,593
640,71	45,315
640,90	44,335
641,09	44,013
641,28	42,920
641,47	44,795
641,66	42,340
641,84	42,371
642,03	43,961
642,22	44,574
642,41	46,914
642,60	44,112
642,79	44,876
642,98	44,607
643,17	43,000
643,35	43,741
643,54	43,984
643,73	45,793
643,92	44,325
644,11	44,150
644,30	44,039
644,49	45,256
644,67	44,056
644,86	40,517
645,05	44,603
645,24	43,841
645,43	43,691
645,62	44,026
645,81	44,657
645,99	45,519
646,18	44,839
646,37	43,376
646,56	45,124
646,75	45,447
646,94	47,123
647,13	43,559
647,31	43,551
647,50	44,700
647,69	46,584
647,88	43,963
648,07	45,068
648,26	47,768
648,44	42,926
648,63	43,816
648,82	43,700
649,01	47,830
649,20	42,411
649,38	45,073
649,57	45,130
649,76	42,634
649,95	44,476
650,14	42,209
650,33	42,934
650,51	42,342
650,70	45,161
650,89	44,815
651,08	42,291
651,27	44,599
651,45	41,759
651,64	42,415
651,83	43,700
652,02	44,875
652,21	44,733
652,39	45,404
652,58	45,727
652,77	43,715
652,96	44,680
653,15	43,957
653,33	43,764
653,52	45,733
653,71	47,810
653,90	46,393
654,09	46,223
654,27	46,986
654,46	45,863
654,65	47,621
654,84	45,107
655,02	47,103
655,21	46,370
655,40	47,541
655,59	44,930
655,77	47,152
655,96	45,769
656,15	45,914
656,34	48,242
656,53	44,391
656,71	45,877
656,90	45,584
657,09	46,665
657,28	46,728
657,46	44,188
657,65	46,033
657,84	43,825
658,03	45,085
658,21	44,579
658,40	43,181
658,59	46,687
658,78	44,544
658,96	44,056
659,15	44,876
659,34	44,465
659,52	45,082
659,71	42,896
659,90	43,700
660,09	43,254
660,27	43,277
660,46	45,762
660,65	43,811
660,84	43,033
661,02	42,841
661,21	44,567
661,40	43,573
661,58	44,520
661,77	44,513
661,96	41,674
662,15	43,507
662,33	43,145
662,52	42,714
662,71	44,125
662,89	43,964
663,08	42,989
663,27	42,648
663,45	42,746
663,64	43,853
663,83	41,434
664,02	42,897
664,20	44,521
664,39	41,191
664,58	43,550
664,76	43,187
664,95	42,405
665,14	42,639
665,32	42,841
665,51	44,700
665,70	44,874
665,88	45,156
666,07	43,752
666,26	43,951
666,44	43,684
666,63	42,706
666,82	43,626
667,00	43,682
667,19	42,642
667,38	44,220
667,56	44,096
667,75	44,992
667,94	44,732
668,12	41,420
668,31	44,835
668,50	43,544
668,68	42,912
668,87	42,832
669,06	43,548
669,24	44,667
669,43	43,702
669,62	40,850
669,80	43,668
669,99	43,685
670,18	44,220
670,36	43,824
670,55	44,098
670,74	44,264
670,92	41,037
671,11	43,770
671,29	41,352
671,48	42,881
671,67	44,209
671,85	43,753
672,04	43,594
672,23	43,423
672,41	43,487
672,60	42,696
672,78	42,566
672,97	42,888
673,16	43,664
673,34	43,409
673,53	43,218
673,71	43,677
673,90	44,879
674,09	43,868
674,27	43,475
674,46	42,891
674,64	42,205
674,83	41,168
675,02	41,836
675,20	43,031
675,39	43,529
675,57	44,263
675,76	42,433
675,95	43,511
676,13	43,599
676,32	45,414
676,50	43,606
676,69	40,482
676,88	42,694
677,06	41,915
677,25	43,331
677,43	46,422
677,62	43,892
677,80	44,859
677,99	42,702
678,18	42,774
678,36	44,205
678,55	42,912
678,73	42,170
678,92	46,323
679,10	43,061
679,29	42,966
679,48	42,250
679,66	43,422
679,85	43,365
680,03	43,247
680,22	43,583
680,40	43,558
680,59	42,634
680,77	42,520
680,96	42,014
681,15	42,890
681,33	44,412
681,52	40,589
681,70	44,873
681,89	46,250
682,07	42,823
682,26	42,827
682,44	45,030
682,63	44,451
682,81	43,480
683,00	42,948
683,18	42,581
683,37	44,883
683,55	43,605
683,74	43,681
683,92	47,488
684,11	43,919
684,29	43,569
684,48	40,399
684,67	42,089
684,85	43,656
685,04	43,434
685,22	44,048
685,41	41,689
685,59	43,850
685,78	42,392
685,96	41,893
686,15	42,760
686,33	42,198
686,52	43,112
686,70	43,809
686,89	43,413
687,07	45,132
687,26	44,691
687,44	42,886
687,62	42,808
687,81	44,079
687,99	42,535
688,18	44,565
688,36	44,206
688,55	44,049
688,73	42,714
688,92	40,944
689,10	43,399
689,29	44,519
689,47	45,058
689,66	43,428
689,84	43,397
690,03	46,492
690,21	45,484
690,40	43,418
690,58	40,941
690,76	41,661
690,95	45,475
691,13	42,027
691,32	43,814
691,50	43,577
691,69	43,958
691,87	42,520
692,06	42,362
692,24	41,768
692,43	42,247
692,61	40,624
692,79	42,295
692,98	42,975
693,16	43,846
693,35	43,126
693,53	42,474
693,72	44,297
693,90	45,022
694,08	42,166
694,27	42,331
694,45	45,740
694,64	45,126
694,82	43,521
695,01	42,482
695,19	43,397
695,37	43,370
695,56	44,200
695,74	41,889
695,93	45,412
696,11	42,568
696,29	44,106
696,48	43,577
696,66	43,334
696,85	44,766
697,03	40,076
697,21	44,557
697,40	42,808
697,58	43,967
697,77	42,531
697,95	45,091
698,13	44,055
698,32	43,338
698,50	43,800
698,69	43,376
698,87	44,150
699,05	42,281
699,24	41,517
699,42	42,422
699,60	40,449
699,79	42,035
699,97	44,367
700,16	40,060
700,34	45,339
700,52	42,716
700,71	43,100
700,89	42,546
701,07	42,548
701,26	43,688
701,44	42,294
701,63	42,680
701,81	43,277
701,99	44,357
702,18	42,449
702,36	40,444
702,54	42,894
702,73	42,771
702,91	42,186
703,09	43,294
703,28	42,182
703,46	43,473
703,64	41,779
703,83	43,754
704,01	43,089
704,19	43,464
704,38	41,729
704,56	42,069
704,74	44,334
704,93	43,231
705,11	43,096
705,29	42,106
705,48	46,112
705,66	44,154
705,84	42,253
706,03	41,531
706,21	43,519
706,39	40,771
706,58	42,149
706,76	41,960
706,94	44,570
707,12	42,535
707,31	41,207
707,49	42,409
707,67	42,479
707,86	44,718
708,04	42,720
708,22	41,829
708,41	41,834
708,59	43,489
708,77	41,522
708,95	43,073
709,14	47,789
709,32	44,771
709,50	41,927
709,69	41,301
709,87	41,880
710,05	41,889
710,23	40,846
710,42	41,686
710,60	41,666
710,78	43,710
710,97	43,224
711,15	41,547
711,33	44,370
711,51	41,803
711,70	39,973
711,88	41,276
712,06	43,263
712,24	44,425
712,43	42,363
712,61	40,997
712,79	43,574
712,97	41,813
713,16	43,444
713,34	42,036
713,52	42,837
713,70	43,496
713,89	42,458
714,07	42,853
714,25	43,510
714,43	43,577
714,62	41,418
714,80	43,568
714,98	40,859
715,16	41,520
715,35	41,273
715,53	42,424
715,71	43,774
715,89	44,460
716,07	44,514
716,26	46,371
716,44	44,664
716,62	44,139
716,80	41,901
716,99	44,386
717,17	45,387
717,35	43,779
717,53	40,940
717,71	41,057
717,90	43,475
718,08	44,505
718,26	40,273
718,44	44,408
718,62	43,980
718,81	45,317
718,99	41,334
719,17	43,041
719,35	43,095
719,53	40,598
719,72	41,490
719,90	42,232
720,08	42,630
720,26	43,963
720,44	41,865
720,62	41,749
720,81	43,839
720,99	44,526
721,17	41,607
721,35	43,178
721,53	43,867
721,72	44,388
721,90	43,380
722,08	40,217
722,26	44,375
722,44	42,746
722,62	42,565
722,81	43,721
722,99	42,067
723,17	42,669
723,35	43,087
723,53	42,878
723,71	44,754
723,89	45,548
724,08	38,638
724,26	42,813
724,44	41,755
724,62	42,684
724,80	42,370
724,98	43,793
725,16	45,609
725,35	43,691
725,53	43,870
725,71	43,245
725,89	43,146
726,07	44,359
726,25	43,715
726,43	43,029
726,61	44,005
726,80	43,089
726,98	41,115
727,16	42,329
727,34	44,232
727,52	43,577
727,70	41,182
727,88	41,355
728,06	41,727
728,25	41,661
728,43	42,193
728,61	43,070
728,79	43,246
728,97	42,288
729,15	42,974
729,33	42,790
729,51	44,929
729,69	44,344
729,87	43,949
730,06	43,475
730,24	42,684
730,42	44,754
730,60	41,363
730,78	42,637
730,96	43,529
731,14	43,227
731,32	42,422
731,50	41,023
731,68	43,129
731,86	44,390
732,04	43,535
732,22	41,327
732,41	46,616
732,59	44,081
732,77	43,389
732,95	44,669
733,13	45,470
733,31	44,301
733,49	42,332
733,67	43,155
733,85	44,010
734,03	42,463
734,21	42,982
734,39	41,795
734,57	44,146
734,75	43,811
734,93	42,477
735,11	43,598
735,29	41,582
735,47	46,121
735,65	43,972
735,84	42,357
736,02	43,911
736,20	45,268
736,38	42,718
736,56	42,763
736,74	44,497
736,92	43,074
737,10	42,640
737,28	44,243
737,46	43,240
737,64	42,368
737,82	43,562
738,00	45,624
738,18	44,021
738,36	43,293
738,54	42,676
738,72	40,990
738,90	43,696
739,08	45,463
739,26	39,836
739,44	42,010
739,62	45,234
739,80	44,440
739,98	42,480
740,16	43,201
740,34	42,726
740,52	46,557
740,70	41,707
740,88	41,692
741,06	44,110
741,24	43,222
741,42	43,503
741,60	40,941
741,78	44,982
741,96	43,021
742,14	41,556
742,32	41,885
742,50	44,795
742,68	42,709
742,86	41,329
743,04	40,864
743,21	43,433
743,39	44,122
743,57	41,391
743,75	41,145
743,93	40,641
744,11	41,895
744,29	41,057
744,47	43,172
744,65	44,028
744,83	42,976
745,01	42,312
745,19	44,487
745,37	44,544
745,55	42,735
745,73	43,632
745,91	43,696
746,09	43,448
746,27	41,841
746,45	40,708
746,62	42,699
746,80	41,335
746,98	44,864
747,16	42,408
747,34	41,584
747,52	42,407
747,70	45,241
747,88	42,106
748,06	41,767
748,24	43,984
748,42	45,159
748,60	41,848
748,78	41,420
748,95	45,182
749,13	45,123
749,31	41,648
749,49	41,757
749,67	44,165
749,85	45,028
750,03	41,898
750,21	42,296
750,39	42,300
750,57	43,226
750,74	42,637
750,92	41,768
751,10	42,200
751,28	41,011
751,46	44,308
751,64	43,489
751,82	43,315
752,00	44,555
752,17	45,569
752,35	40,676
752,53	43,044
752,71	41,761
752,89	41,934
753,07	42,360
753,25	45,113
753,43	40,870
753,60	44,208
753,78	39,982
753,96	45,437
754,14	44,191
754,32	42,389
754,50	43,730
754,68	44,557
754,85	43,842
755,03	43,451
755,21	44,353
755,39	45,765
755,57	44,513
755,75	43,513
755,92	42,828
756,10	45,776
756,28	43,465
756,46	41,257
756,64	42,157
756,82	44,399
756,99	42,549
757,17	42,158
757,35	42,705
757,53	44,506
757,71	43,954
757,89	40,502
758,06	42,314
758,24	44,235
758,42	43,516
758,60	41,678
758,78	41,361
758,95	44,298
759,13	44,320
759,31	42,716
759,49	42,525
759,67	44,038
759,84	43,234
760,02	42,422
760,20	42,604
760,38	43,508
760,56	43,376
760,73	43,704
760,91	45,307
761,09	44,673
761,27	43,725
761,45	44,185
761,62	43,037
761,80	41,345
761,98	41,895
762,16	43,327
762,33	42,494
762,51	44,562
762,69	42,095
762,87	42,390
763,05	42,084
763,22	42,188
763,40	41,207
763,58	41,488
763,76	42,340
763,93	44,957
764,11	43,611
764,29	43,545
764,47	42,141
764,64	43,423
764,82	44,787
765,00	42,245
765,18	40,143
765,35	41,027
765,53	45,204
765,71	44,907
765,89	43,175
766,06	42,122
766,24	42,801
766,42	42,509
766,60	42,626
766,77	42,435
766,95	41,027
767,13	41,893
767,30	42,466
767,48	43,338
767,66	42,271
767,84	43,943
768,01	44,450
768,19	43,129
768,37	43,268
768,54	41,592
768,72	44,322
768,90	44,616
769,08	43,562
769,25	44,088
769,43	41,938
769,61	40,852
769,78	43,743
769,96	43,080
770,14	45,171
770,31	44,204
770,49	45,496
770,67	44,321
770,85	41,115
771,02	41,338
771,20	40,753
771,38	42,046
771,55	41,164
771,73	43,045
771,91	43,513
772,08	43,442
772,26	42,436
772,44	42,067
772,61	41,264
772,79	40,583
772,97	41,350
773,14	41,838
773,32	43,829
773,50	41,663
773,67	40,956
773,85	43,848
774,03	45,455
774,20	45,428
774,38	43,876
774,56	41,639
774,73	42,506
774,91	41,011
775,09	41,755
775,26	43,885
775,44	44,148
775,61	42,723
775,79	42,699
775,97	45,835
776,14	43,583
776,32	42,156
776,50	44,586
776,67	42,120
776,85	43,674
777,03	41,661
777,20	43,043
777,38	45,504
777,55	43,607
777,73	41,999
777,91	42,217
778,08	43,757
778,26	43,319
778,43	44,213
778,61	38,886
778,79	41,522
778,96	41,246
779,14	41,743
779,32	40,416
779,49	43,991
779,67	45,976
779,84	44,362
780,02	43,712
780,20	40,987
780,37	43,072
780,55	40,068
780,72	45,693
780,90	45,850
781,07	45,101
781,25	43,086
781,43	42,685
781,60	43,878
781,78	42,752
781,95	44,727
782,13	44,023
782,30	46,110
782,48	43,320
782,66	40,585
782,83	42,648
783,01	47,574
783,18	44,436
783,36	43,788
783,53	46,199
783,71	40,894
783,89	43,881
784,06	43,375
784,24	44,252
784,41	44,987
784,59	44,827
784,76	44,251
784,94	41,401
785,11	43,145
785,29	43,563
785,46	44,750
785,64	43,339
785,82	44,600
785,99	42,989
786,17	42,300
786,34	40,771
786,52	44,639
786,69	46,049
786,87	41,632
787,04	44,112
787,22	42,189
787,39	46,224
787,57	44,608
787,74	44,337
787,92	47,153
788,09	43,979
788,27	41,592
788,44	43,908
788,62	45,419
788,79	44,743
788,97	43,798
789,14	43,263
789,32	42,720
789,49	47,030
789,67	45,117
789,84	43,579
790,02	45,643
790,19	42,854
790,37	43,899
790,54	45,109
790,72	49,164
790,89	46,731
791,07	45,722
791,24	43,387
791,42	46,045
791,59	45,640
791,77	44,587
791,94	40,624
792,12	45,258
792,29	46,085
792,47	44,610
792,64	46,251
792,81	48,103
792,99	45,010
793,16	44,853
793,34	47,120
793,51	45,614
793,69	45,337
793,86	45,485
794,04	43,254
794,21	48,190
794,39	41,767
794,56	43,976
794,73	41,569
794,91	48,811
795,08	43,176
795,26	46,442
795,43	42,352
795,61	45,397
795,78	46,396
795,95	46,637
796,13	43,950
796,30	46,493
796,48	42,392
796,65	45,549
796,83	44,605
797,00	46,512
797,17	42,317
797,35	43,965
797,52	44,715
797,70	48,510
797,87	45,871
798,04	43,095
798,22	44,317
798,39	45,301
798,57	46,697
798,74	43,403
798,91	42,390
799,09	40,125
799,26	48,347
799,44	43,755
799,61	42,300
799,78	43,443
799,96	48,079
800,13	44,494
800,31	43,193
800,48	48,018
800,65	50,125
800,83	43,168
801,00	44,621
801,17	45,434
801,35	47,911
801,52	46,548
801,70	46,355
801,87	46,008
802,04	51,027
802,22	41,432
802,39	44,427
802,56	53,140
802,74	44,206
802,91	42,350
803,08	43,483
803,26	48,938
803,43	45,424
803,61	44,810
803,78	44,968
803,95	48,278
804,13	46,470
804,30	46,601
804,47	46,891
804,65	46,325
804,82	48,844
804,99	44,291
805,17	44,754
805,34	50,558
805,51	50,878
805,69	40,480
805,86	45,550
806,03	50,089
806,21	46,020
806,38	46,543
806,55	48,960
806,72	47,376
806,90	48,189
807,07	48,504
807,24	43,211
807,42	42,459
807,59	45,612
807,76	41,215
807,94	44,736
808,11	47,421
808,28	51,317
808,45	44,245
808,63	48,454
808,80	46,289
808,97	45,224
809,15	40,420
809,32	48,062
809,49	43,024
809,67	43,400
809,84	48,160
810,01	48,906
810,18	54,447
810,36	47,055
810,53	47,474
810,70	45,973
810,87	45,732
811,05	44,804
811,22	48,949
811,39	48,489
811,57	48,397
811,74	48,324
811,91	43,419
812,08	43,631
812,26	46,465
812,43	43,765
812,60	49,901
812,77	45,063
812,95	48,432
813,12	49,840
813,29	41,147
813,46	46,369
813,64	45,171
813,81	48,860
813,98	46,089
814,15	45,868
814,32	53,162
814,50	49,741
814,67	47,642
814,84	47,950
815,01	47,542
815,19	42,680
815,36	46,269
815,53	47,405
815,70	43,529
815,87	50,613
816,05	46,199
816,22	48,174
816,39	52,963
816,56	52,848
816,74	43,744
816,91	47,001
817,08	53,415
817,25	51,275
817,42	47,971
817,60	47,673
817,77	44,768
817,94	50,823
818,11	44,292
818,28	47,767
818,45	49,146
818,63	50,120
818,80	48,631
818,97	47,322
819,14	50,793
819,31	51,235
819,49	49,665
819,66	45,752
819,83	49,180
820,00	47,890
820,17	47,935
820,34	49,822
820,52	52,737
820,69	49,418
820,86	48,611
821,03	45,994
821,20	49,462
821,37	47,037
821,55	39,297
821,72	48,507
821,89	48,517
822,06	51,396
822,23	43,973
822,40	45,401
822,57	51,080
822,75	52,685
822,92	42,255
823,09	44,961
823,26	49,828
823,43	55,935
823,60	47,626
823,77	46,220
823,94	49,510
824,12	55,293
824,29	45,937
824,46	44,760
824,63	54,799
824,80	55,913
824,97	51,289
825,14	50,136
825,31	51,092
825,49	52,975
825,66	40,964
825,83	44,030
826,00	55,474
826,17	59,444
826,34	47,789
826,51	44,609
826,68	47,610
826,85	50,138
827,02	49,791
827,20	47,401
827,37	48,486
827,54	52,236
827,71	53,530
827,88	50,921
828,05	51,480
828,22	49,019
828,39	53,774
828,56	50,042
828,73	53,415
828,90	55,117
829,07	55,167
829,25	49,692
829,42	52,234
829,59	44,799
829,76	52,084
829,93	46,192
830,10	48,029
830,27	48,029
830,44	46,509
830,61	48,223
830,78	55,826
830,95	48,520
831,12	49,493
831,29	48,588
831,46	42,065
831,63	46,086
831,80	50,822
831,97	47,435
832,14	54,880
832,31	56,146
832,48	47,403
832,65	52,074
832,83	49,927
833,00	48,478
833,17	46,148
833,34	52,107
833,51	53,552
833,68	60,396
833,85	50,253
834,02	49,154
834,19	50,194
834,36	50,576
834,53	39,565
834,70	50,515
834,87	56,887
835,04	50,110
835,21	51,357
835,38	48,314
835,55	47,613
835,72	62,093
835,89	52,502
836,06	47,353
836,23	60,169
836,40	42,180
836,57	45,487
836,74	57,582
836,91	55,084
837,08	61,787
837,25	50,262
837,42	45,207
837,59	50,759
837,76	50,146
837,93	49,179
838,09	44,478
838,26	64,112
838,43	61,283
838,60	55,783
838,77	50,350
838,94	50,092
839,11	51,172
839,28	46,865
839,45	52,225
839,62	52,284
839,79	43,836
839,96	49,067
840,13	58,920
840,30	48,846
840,47	47,153
840,64	47,055
840,81	51,546
840,98	57,627
841,15	60,642
841,32	43,026
841,48	58,900
841,65	57,668
841,82	54,244
841,99	52,032
842,16	43,444
842,33	56,145
842,50	53,273
842,67	53,490
842,84	47,059
843,01	55,182
843,18	49,262
843,35	46,773
843,52	39,495
843,68	53,248
843,85	48,668
844,02	45,113
844,19	42,055
844,36	62,565
844,53	64,649
844,70	53,171
844,87	60,535
845,04	58,420
845,21	43,088
845,37	61,834
845,54	47,561
845,71	48,415
845,88	76,918
846,05	43,815
846,22	42,643
846,39	54,964
846,56	63,772
846,72	49,708
846,89	47,553
847,06	70,826
847,23	53,190
847,40	48,122
847,57	46,740
847,74	59,195
847,90	70,095
848,07	50,367
848,24	52,645
848,41	47,296
848,58	64,697
848,75	49,893
848,92	52,401
849,08	58,134
849,25	62,300
849,42	41,750
849,59	63,188
849,76	55,489
849,93	61,049
850,09	55,104
850,26	43,450
850,43	55,052
850,60	47,587
850,77	49,037
850,94	59,233
851,10	61,395
851,27	52,510
851,44	44,869
851,61	46,562
851,78	67,295
851,95	66,590
852,11	49,719
852,28	36,555
852,45	66,734
852,62	54,090
852,79	61,347
852,95	46,843
853,12	65,151
853,29	51,540
853,46	49,976
853,63	55,110
853,79	48,712
853,96	44,283
854,13	70,837
854,30	48,157
854,46	82,481
854,63	61,539
854,80	56,448
854,97	45,964
855,14	65,827
855,30	64,947
855,47	43,748
855,64	56,148
855,81	57,701
855,97	69,232
856,14	66,433
856,31	41,611
856,48	69,607
856,65	76,339
856,81	61,102
856,98	51,133
857,15	45,096
857,32	73,098
857,48	44,294
857,65	55,176
857,82	59,608
857,99	67,800
858,15	53,881
858,32	55,232
858,49	56,958
858,65	75,484
858,82	70,610
858,99	55,628
859,16	67,690
859,32	56,615
859,49	59,599
859,66	50,588
859,83	55,720
859,99	52,862
860,16	65,781
860,33	52,351
860,49	56,529
860,66	64,070
860,83	40,482
861,00	45,369
861,16	64,770
861,33	59,644
861,50	43,997
861,66	46,671
861,83	81,078
862,00	65,402
862,16	51,894
862,33	48,183
862,50	101,589
862,67	70,813
862,83	60,736
863,00	68,322
863,17	70,349
863,33	54,454
863,50	32,130
863,67	55,760
863,83	75,619
864,00	82,230
864,17	43,996
864,33	45,711
864,50	77,923
864,67	73,930
864,83	49,334
865,00	64,636
865,17	56,029
865,33	80,460
865,50	34,196
865,67	49,617
865,83	64,314
866,00	101,692
866,17	58,434
866,33	65,803
866,50	75,832
866,66	62,379
866,83	81,223
867,00	65,725
867,16	99,501
867,33	97,888
867,50	35,910
867,66	59,729
867,83	49,641
868,00	78,988
868,16	58,007
868,33	59,837
868,49	47,941
868,66	80,561
868,83	62,464
868,99	74,559
869,16	103,351
869,32	76,776
869,49	58,462
869,66	47,941
869,82	95,028
869,99	86,219
870,15	52,477
870,32	70,270
870,49	78,941
870,65	126,632
870,82	73,536
870,98	72,462
871,15	98,034
871,32	76,478
871,48	30,693
871,65	54,476
871,81	87,101
871,98	55,064
872,15	19,786
872,31	50,730
872,48	104,697
872,64	87,491
872,81	45,057
872,97	64,490
873,14	98,194
873,31	66,047
873,47	65,344
873,64	90,951
873,80	110,542
873,97	95,926
874,13	49,328
874,30	61,577
874,46	100,793
874,63	83,182
874,80	57,544
874,96	83,898
875,13	133,548
875,29	92,972
875,46	79,732
875,62	51,779
875,79	106,490
875,95	82,810
876,12	51,258
876,28	23,665
876,45	105,762
876,61	70,222
876,78	74,289
876,94	68,041
877,11	77,446
877,27	118,032
877,44	120,907
877,60	66,355
877,77	63,520
877,94	131,237
878,10	41,107
878,27	73,092
878,43	137,388
878,60	57,193
878,76	53,825
878,93	78,132
879,09	147,117
879,26	112,730
879,42	91,804
879,58	93,470
879,75	146,923
879,91	140,695
880,08	-4,150
880,24	74,948
880,41	117,470
880,57	133,623
880,74	55,460
880,90	105,130
881,07	54,339
881,23	127,135
881,40	80,530
881,56	88,037
881,73	108,550
881,89	82,727
882,06	25,015
882,22	170,090
882,38	158,297
882,55	171,566
882,71	24,739
882,88	52,255
883,04	100,360
883,21	162,627
883,37	64,240
883,54	104,819
883,70	193,329
883,86	143,950
884,03	114,949
884,19	33,419
884,36	116,816
884,52	186,361
884,69	60,875
884,85	41,265
885,01	230,646
885,18	112,302
885,34	8,451
885,51	1,524
885,67	96,142
>>>>> Data<<<<< Espectral Procesado Extremo
