Fichero De Datos De SpectraSuite
++++++++++++++++++++++++++++++++++++
Fecha: Wed Apr 22 11:51:48 CEST 2009
Usuario: evoflor
Presente Oscuro Del Espectro: Sí
La Referencia de Presente Del Espectro De: Sí
Muestreados de los componentes de Número de espectros: 1
Espectrómetros: USB4F02353
Tiempo de integración (usec): 500000 (USB4F02353)
Promedio de Espectros Hechos un: 5 (USB4F02353)
El Alisar Del Furgón: 0 (USB4F02353)
Párrafo de de Corregir del la del del de Eléctrica del obscuridad: Sí (USB4F02353)
Estrobo/Lámpara Permitido: No (USB4F02353)
Correct for Detector Non-linearity: No (USB4F02353)
Párrafo de de Corregir del la del del de Externa del luz: No (USB4F02353)
Procesado del espectro de Número de pixeles en: 3648
>>>>> Comienza Data<<<<< Espectral Procesado Del EL
177,79	221,522
178,00	221,522
178,22	221,522
178,44	1611,044
178,66	-238,475
178,88	257,671
179,09	7,255
179,31	209,904
179,53	713,607
179,75	328,298
179,96	621,509
180,18	-360,292
180,40	312,723
180,62	468,156
180,83	-293,409
181,05	-1537,744
181,27	-81095,000
181,49	58,489
181,70	73,058
181,92	717,741
182,14	518,057
182,36	27,352
182,58	-486,950
182,79	1037,031
183,01	22,380
183,23	110,972
183,45	-108,292
183,66	-16,350
183,88	815,853
184,10	-2538,091
184,32	-28,725
184,53	135,397
184,75	-206,252
184,97	27,091
185,18	-77,998
185,40	-571,611
185,62	94,689
185,84	-52,849
186,05	183,299
186,27	-143,274
186,49	2357,500
186,71	44,507
186,92	159,002
187,14	-299,705
187,36	132,741
187,58	69,406
187,79	29,947
188,01	253,315
188,23	-261,065
188,45	40,362
188,66	466,496
188,88	-2587,182
189,10	-1413,950
189,31	-0,162
189,53	139,772
189,75	257,943
189,97	66,135
190,18	-30,494
190,40	651,735
190,62	-54,647
190,83	-168,278
191,05	197,607
191,27	118,557
191,49	412,364
191,70	-485,072
191,92	-260,127
192,14	-69,623
192,35	640,040
192,57	2599,857
192,79	29,111
193,01	189,240
193,22	133,853
193,44	-116,886
193,66	81,050
193,87	25,257
194,09	-117,622
194,31	188,633
194,53	844,021
194,74	82,895
194,96	26,592
195,18	133,931
195,39	-104,736
195,61	-118,986
195,83	-303,467
196,04	145,669
196,26	-122,588
196,48	70,580
196,70	120,070
196,91	110,557
197,13	162,013
197,35	-54,477
197,56	685,743
197,78	1283,545
198,00	453,811
198,21	760,655
198,43	-1429,041
198,65	58,409
198,86	210,773
199,08	141,951
199,30	202,419
199,51	-173,274
199,73	238,937
199,95	202,958
200,16	557,673
200,38	341,195
200,60	142,646
200,81	167,869
201,03	-153,818
201,25	-1521,950
201,46	137,946
201,68	116,301
201,90	2477,159
202,11	-467,538
202,33	224,767
202,55	349,937
202,76	-27,912
202,98	251,202
203,20	86,082
203,41	-568,921
203,63	109,930
203,85	-77495,000
204,06	173,538
204,28	-82,639
204,50	165,166
204,71	267,306
204,93	-589,640
205,15	119,563
205,36	-65,574
205,58	88,282
205,80	-207,862
206,01	100,166
206,23	39,319
206,45	195,105
206,66	191,347
206,88	-125,706
207,10	196,580
207,31	318,404
207,53	275,414
207,75	77,626
207,96	920,858
208,18	-193,677
208,39	29,008
208,61	2985,571
208,83	-334,902
209,04	246,884
209,26	-216,106
209,48	309,732
209,69	82,895
209,91	687,483
210,13	36,097
210,34	76,501
210,56	163,298
210,77	-1439,331
210,99	147,562
211,21	6146,765
211,42	-119,701
211,64	-25,046
211,86	244,673
212,07	197,825
212,29	257,348
212,50	155,965
212,72	28,058
212,94	116,721
213,15	77,043
213,37	100,966
213,58	-127,927
213,80	-2156,964
214,02	10593,824
214,23	262,947
214,45	186,213
214,67	-901,159
214,88	-338,574
215,10	-228,336
215,31	-164,858
215,53	65,670
215,75	228,687
215,96	1632,888
216,18	-556,408
216,39	261,745
216,61	237,980
216,83	257,567
217,04	2670,730
217,26	55,315
217,47	110,956
217,69	260,395
217,91	57,745
218,12	-58595,000
218,34	114,673
218,55	432,347
218,77	103,945
218,99	140,777
219,20	-244,378
219,42	347,248
219,63	-107,665
219,85	-99,993
220,06	287,673
220,28	73,888
220,50	52,459
220,71	53,217
220,93	2871,604
221,14	-2151,950
221,36	-62,132
221,58	-14,900
221,79	270,448
222,01	412,026
222,22	1190,757
222,44	274,101
222,65	86,604
222,87	460,105
223,09	128,726
223,30	42,307
223,52	56,288
223,73	89,274
223,95	20,415
224,16	180,196
224,38	277,476
224,60	106,450
224,81	29,455
225,03	37,770
225,24	113,463
225,46	59,958
225,67	-3,425
225,89	74,339
226,10	336,431
226,32	828,760
226,54	19,947
226,75	-68,010
226,97	88,028
227,18	190,628
227,40	102,220
227,61	73,584
227,83	-21,340
228,04	94,187
228,26	40,951
228,47	22,478
228,69	209,063
228,91	150,243
229,12	49,781
229,34	83,292
229,55	67,512
229,77	1,186
229,98	29,193
230,20	85,173
230,41	20,314
230,63	82,736
230,84	-30,973
231,06	17,319
231,27	27,991
231,49	47,595
231,71	47,424
231,92	45,777
232,14	18,937
232,35	38,906
232,57	41,921
232,78	11,976
233,00	27,486
233,21	29,053
233,43	9,611
233,64	25,220
233,86	43,725
234,07	41,505
234,29	17,978
234,50	7,503
234,72	31,470
234,93	24,257
235,15	18,863
235,36	30,487
235,58	44,453
235,79	40,987
236,01	4,932
236,22	15,834
236,44	46,128
236,65	29,695
236,87	15,494
237,08	22,590
237,30	-14,320
237,51	12,738
237,73	8,622
237,94	3,085
238,16	19,038
238,37	11,243
238,59	9,962
238,80	18,894
239,02	6,132
239,23	15,343
239,45	5,386
239,66	17,587
239,88	41,638
240,09	29,286
240,31	-2,871
240,52	5,279
240,74	16,770
240,95	6,706
241,17	9,838
241,38	8,111
241,60	8,455
241,81	24,180
242,03	9,835
242,24	8,061
242,46	18,522
242,67	7,780
242,89	11,112
243,10	17,643
243,32	17,631
243,53	13,802
243,75	9,193
243,96	6,769
244,18	9,761
244,39	10,280
244,60	5,960
244,82	2,740
245,03	23,878
245,25	11,905
245,46	25,608
245,68	5,669
245,89	19,134
246,11	15,052
246,32	11,141
246,54	6,309
246,75	6,880
246,97	9,247
247,18	16,825
247,39	0,449
247,61	12,507
247,82	3,226
248,04	12,817
248,25	7,729
248,47	7,783
248,68	12,894
248,90	6,721
249,11	8,295
249,33	19,283
249,54	7,819
249,75	7,020
249,97	5,051
250,18	18,116
250,40	18,803
250,61	-3,307
250,83	2,528
251,04	4,617
251,25	6,985
251,47	-1,856
251,68	9,447
251,90	9,079
252,11	10,001
252,33	7,038
252,54	5,106
252,76	5,904
252,97	-1,614
253,18	2,872
253,40	8,152
253,61	3,806
253,83	9,611
254,04	9,039
254,25	10,679
254,47	3,057
254,68	11,170
254,90	3,866
255,11	10,261
255,33	3,795
255,54	5,730
255,75	6,493
255,97	7,977
256,18	6,654
256,40	8,749
256,61	10,391
256,82	1,242
257,04	11,441
257,25	5,078
257,47	5,149
257,68	2,402
257,89	9,428
258,11	9,147
258,32	9,578
258,54	6,917
258,75	14,706
258,96	11,857
259,18	7,710
259,39	3,699
259,61	7,604
259,82	5,426
260,03	4,285
260,25	10,163
260,46	3,771
260,68	3,883
260,89	1,964
261,10	7,859
261,32	4,158
261,53	5,937
261,75	6,876
261,96	1,377
262,17	10,296
262,39	9,354
262,60	0,859
262,81	1,873
263,03	12,948
263,24	4,327
263,46	0,332
263,67	2,720
263,88	8,341
264,10	10,623
264,31	3,530
264,52	7,688
264,74	8,901
264,95	4,708
265,17	7,867
265,38	8,752
265,59	8,708
265,81	11,009
266,02	1,358
266,23	4,300
266,45	11,565
266,66	8,040
266,87	9,021
267,09	5,056
267,30	10,519
267,52	10,443
267,73	5,902
267,94	7,625
268,16	4,892
268,37	5,462
268,58	9,169
268,80	3,696
269,01	3,677
269,22	9,953
269,44	6,695
269,65	6,020
269,86	4,643
270,08	9,461
270,29	3,297
270,50	4,284
270,72	9,353
270,93	3,936
271,14	1,100
271,36	5,727
271,57	8,677
271,78	7,398
272,00	8,976
272,21	9,746
272,42	4,216
272,64	7,491
272,85	3,083
273,06	3,067
273,28	10,583
273,49	9,764
273,70	5,518
273,92	5,698
274,13	9,301
274,34	5,159
274,56	6,966
274,77	2,887
274,98	9,099
275,20	5,031
275,41	8,601
275,62	8,589
275,84	8,601
276,05	12,736
276,26	5,293
276,47	5,202
276,69	7,926
276,90	8,557
277,11	6,682
277,33	4,791
277,54	9,437
277,75	5,088
277,97	2,748
278,18	2,934
278,39	8,999
278,61	4,578
278,82	6,823
279,03	9,956
279,24	5,382
279,46	3,029
279,67	8,107
279,88	3,974
280,10	12,293
280,31	5,120
280,52	6,135
280,73	0,366
280,95	8,248
281,16	10,391
281,37	5,304
281,59	10,217
281,80	12,928
282,01	2,482
282,22	6,203
282,44	2,314
282,65	10,007
282,86	5,982
283,08	7,487
283,29	3,817
283,50	6,800
283,71	7,094
283,93	4,996
284,14	8,791
284,35	4,038
284,56	6,660
284,78	4,407
284,99	5,043
285,20	9,866
285,42	7,144
285,63	6,383
285,84	4,096
286,05	4,962
286,27	4,810
286,48	5,179
286,69	3,511
286,90	2,473
287,12	5,364
287,33	7,191
287,54	2,808
287,75	9,449
287,97	5,143
288,18	5,543
288,39	3,361
288,60	6,473
288,82	4,599
289,03	5,443
289,24	6,278
289,45	7,170
289,67	5,347
289,88	2,843
290,09	8,280
290,30	4,960
290,52	4,174
290,73	4,714
290,94	0,360
291,15	3,854
291,37	8,507
291,58	6,224
291,79	6,141
292,00	7,064
292,21	5,110
292,43	3,516
292,64	2,614
292,85	3,136
293,06	9,260
293,28	3,236
293,49	3,381
293,70	11,910
293,91	12,151
294,12	5,711
294,34	7,866
294,55	4,117
294,76	4,294
294,97	7,280
295,19	1,774
295,40	5,499
295,61	3,590
295,82	4,410
296,03	5,590
296,25	8,017
296,46	2,482
296,67	2,749
296,88	1,243
297,09	7,570
297,31	3,813
297,52	4,219
297,73	4,323
297,94	7,633
298,15	5,768
298,37	5,344
298,58	5,311
298,79	5,701
299,00	4,061
299,21	5,123
299,43	2,580
299,64	9,699
299,85	8,281
300,06	3,422
300,27	3,169
300,49	10,566
300,70	6,449
300,91	5,297
301,12	4,651
301,33	6,645
301,54	4,967
301,76	7,716
301,97	0,396
302,18	6,222
302,39	6,392
302,60	13,143
302,82	4,448
303,03	10,145
303,24	7,523
303,45	5,267
303,66	6,388
303,87	4,546
304,09	8,015
304,30	3,502
304,51	5,165
304,72	2,830
304,93	7,978
305,14	5,365
305,36	4,931
305,57	2,381
305,78	5,595
305,99	4,585
306,20	5,003
306,41	3,835
306,62	1,570
306,84	5,904
307,05	2,621
307,26	6,347
307,47	9,824
307,68	5,955
307,89	5,204
308,11	6,174
308,32	5,056
308,53	6,543
308,74	3,474
308,95	5,849
309,16	8,269
309,37	8,334
309,59	1,689
309,80	3,813
310,01	7,769
310,22	6,800
310,43	4,197
310,64	4,896
310,85	5,769
311,06	6,086
311,28	6,805
311,49	6,708
311,70	7,836
311,91	5,341
312,12	2,419
312,33	5,595
312,54	7,400
312,75	2,971
312,97	5,024
313,18	5,861
313,39	2,072
313,60	5,640
313,81	6,644
314,02	5,976
314,23	7,860
314,44	2,485
314,65	5,006
314,87	2,886
315,08	3,727
315,29	7,310
315,50	6,356
315,71	8,062
315,92	9,251
316,13	6,393
316,34	3,841
316,55	6,014
316,77	1,895
316,98	4,352
317,19	4,377
317,40	5,167
317,61	6,099
317,82	4,244
318,03	3,365
318,24	3,184
318,45	8,887
318,66	5,665
318,87	2,690
319,09	7,151
319,30	5,510
319,51	8,383
319,72	7,234
319,93	4,367
320,14	7,892
320,35	8,283
320,56	4,049
320,77	3,977
320,98	10,407
321,19	7,517
321,40	4,479
321,62	7,857
321,83	4,869
322,04	6,043
322,25	4,701
322,46	8,615
322,67	6,149
322,88	4,900
323,09	4,410
323,30	7,009
323,51	7,458
323,72	7,490
323,93	3,701
324,14	2,822
324,35	0,539
324,56	3,643
324,77	5,361
324,99	3,358
325,20	2,280
325,41	5,033
325,62	5,156
325,83	4,190
326,04	5,235
326,25	5,578
326,46	2,658
326,67	5,839
326,88	5,033
327,09	5,847
327,30	3,855
327,51	4,567
327,72	5,729
327,93	5,212
328,14	3,013
328,35	5,647
328,56	6,256
328,77	2,657
328,98	7,149
329,19	3,652
329,40	5,209
329,61	5,448
329,82	2,610
330,04	5,564
330,25	2,473
330,46	7,884
330,67	1,659
330,88	5,090
331,09	4,107
331,30	4,777
331,51	6,461
331,72	6,413
331,93	8,051
332,14	4,348
332,35	7,455
332,56	5,566
332,77	9,022
332,98	0,607
333,19	3,840
333,40	7,036
333,61	6,159
333,82	8,635
334,03	6,088
334,24	6,521
334,45	6,035
334,66	6,939
334,87	4,828
335,08	3,103
335,29	4,164
335,50	5,518
335,71	1,497
335,92	8,389
336,13	4,847
336,34	2,500
336,55	4,536
336,76	8,679
336,97	5,784
337,18	5,487
337,39	3,425
337,60	8,585
337,81	6,508
338,02	3,481
338,23	4,091
338,44	3,627
338,65	5,823
338,86	7,454
339,07	3,463
339,28	6,368
339,49	5,930
339,70	3,948
339,91	4,329
340,11	9,082
340,32	4,453
340,53	4,719
340,74	3,933
340,95	3,746
341,16	4,073
341,37	4,268
341,58	2,909
341,79	5,661
342,00	2,066
342,21	4,933
342,42	4,139
342,63	8,096
342,84	2,664
343,05	5,453
343,26	7,314
343,47	6,553
343,68	4,318
343,89	4,828
344,10	3,972
344,31	9,305
344,52	4,989
344,73	2,969
344,94	4,136
345,14	6,758
345,35	8,163
345,56	4,699
345,77	4,857
345,98	6,505
346,19	3,877
346,40	4,730
346,61	5,436
346,82	5,354
347,03	5,296
347,24	8,051
347,45	2,243
347,66	7,308
347,87	3,548
348,08	6,711
348,28	3,824
348,49	5,969
348,70	8,654
348,91	7,872
349,12	2,085
349,33	18,484
349,54	5,949
349,75	6,588
349,96	6,202
350,17	3,176
350,38	5,119
350,59	5,594
350,80	1,519
351,00	8,615
351,21	6,533
351,42	5,515
351,63	0,369
351,84	5,937
352,05	8,144
352,26	4,346
352,47	7,332
352,68	6,696
352,89	9,023
353,09	5,593
353,30	2,561
353,51	1,591
353,72	12,287
353,93	7,543
354,14	4,903
354,35	3,669
354,56	7,298
354,77	4,928
354,98	3,502
355,18	7,967
355,39	8,788
355,60	4,102
355,81	5,782
356,02	6,622
356,23	8,201
356,44	3,152
356,65	6,134
356,85	9,740
357,06	9,384
357,27	5,939
357,48	5,191
357,69	4,601
357,90	7,922
358,11	1,541
358,32	6,328
358,52	6,402
358,73	4,819
358,94	6,317
359,15	4,275
359,36	5,066
359,57	4,403
359,78	5,572
359,98	5,467
360,19	2,533
360,40	2,265
360,61	10,322
360,82	5,297
361,03	6,684
361,24	7,871
361,44	3,331
361,65	5,725
361,86	6,205
362,07	5,414
362,28	2,742
362,49	2,133
362,70	8,564
362,90	5,709
363,11	1,071
363,32	5,489
363,53	5,428
363,74	10,413
363,95	7,428
364,15	8,283
364,36	7,455
364,57	6,936
364,78	2,975
364,99	7,504
365,20	8,596
365,40	10,172
365,61	5,353
365,82	8,460
366,03	5,113
366,24	6,944
366,45	6,473
366,65	5,944
366,86	5,547
367,07	6,385
367,28	5,175
367,49	7,901
367,69	9,068
367,90	3,517
368,11	3,670
368,32	2,867
368,53	7,281
368,73	7,450
368,94	1,833
369,15	3,662
369,36	8,476
369,57	7,823
369,78	3,906
369,98	6,393
370,19	9,643
370,40	5,152
370,61	2,583
370,82	1,949
371,02	7,835
371,23	9,329
371,44	6,664
371,65	5,436
371,85	8,304
372,06	5,722
372,27	9,486
372,48	4,296
372,69	4,570
372,89	2,708
373,10	3,809
373,31	4,858
373,52	4,744
373,73	9,945
373,93	4,554
374,14	6,330
374,35	6,414
374,56	8,431
374,76	5,107
374,97	2,320
375,18	4,937
375,39	8,203
375,60	9,453
375,80	6,036
376,01	6,411
376,22	5,822
376,43	6,885
376,63	5,873
376,84	3,473
377,05	5,277
377,26	2,050
377,46	3,688
377,67	4,462
377,88	8,378
378,09	5,985
378,29	2,475
378,50	7,506
378,71	8,223
378,92	2,447
379,12	5,424
379,33	5,029
379,54	5,981
379,75	7,971
379,95	7,149
380,16	8,117
380,37	5,446
380,58	5,967
380,78	9,222
380,99	5,716
381,20	5,899
381,41	6,872
381,61	7,724
381,82	5,748
382,03	7,065
382,24	8,014
382,44	7,637
382,65	5,853
382,86	6,633
383,06	5,108
383,27	6,272
383,48	5,185
383,69	7,789
383,89	4,746
384,10	6,024
384,31	10,300
384,51	13,607
384,72	8,898
384,93	5,594
385,14	9,422
385,34	7,062
385,55	6,747
385,76	5,680
385,96	9,420
386,17	8,816
386,38	12,243
386,59	11,075
386,79	9,548
387,00	8,721
387,21	13,589
387,41	12,988
387,62	7,005
387,83	11,078
388,03	10,233
388,24	6,666
388,45	7,231
388,66	10,528
388,86	11,346
389,07	6,637
389,28	13,726
389,48	11,306
389,69	7,782
389,90	4,822
390,10	12,544
390,31	12,268
390,52	6,808
390,72	10,575
390,93	11,373
391,14	9,932
391,34	9,293
391,55	11,283
391,76	17,011
391,96	11,994
392,17	9,531
392,38	12,975
392,58	13,116
392,79	12,238
393,00	11,085
393,20	9,115
393,41	9,576
393,62	10,191
393,82	9,894
394,03	13,822
394,24	11,413
394,44	16,112
394,65	17,427
394,86	14,538
395,06	16,095
395,27	11,890
395,48	14,001
395,68	16,521
395,89	15,693
396,10	15,506
396,30	11,720
396,51	14,631
396,72	21,078
396,92	12,521
397,13	15,718
397,34	11,829
397,54	18,000
397,75	17,577
397,95	13,368
398,16	16,547
398,37	17,021
398,57	15,328
398,78	18,829
398,99	20,863
399,19	21,669
399,40	23,888
399,60	16,510
399,81	22,920
400,02	20,186
400,22	20,933
400,43	18,464
400,64	21,709
400,84	17,206
401,05	20,625
401,25	21,763
401,46	19,231
401,67	21,765
401,87	22,573
402,08	19,348
402,29	19,589
402,49	23,705
402,70	25,414
402,90	22,999
403,11	23,692
403,32	23,084
403,52	21,760
403,73	23,340
403,93	24,271
404,14	31,645
404,35	26,548
404,55	20,461
404,76	26,804
404,96	27,179
405,17	26,118
405,38	30,422
405,58	22,805
405,79	29,473
405,99	27,954
406,20	26,518
406,40	21,790
406,61	29,154
406,82	27,347
407,02	29,182
407,23	25,408
407,43	25,980
407,64	27,574
407,85	28,474
408,05	25,013
408,26	37,246
408,46	32,894
408,67	24,322
408,87	26,698
409,08	32,552
409,29	37,673
409,49	35,892
409,70	29,649
409,90	34,000
410,11	33,066
410,31	32,253
410,52	34,117
410,72	32,661
410,93	33,488
411,14	33,168
411,34	30,446
411,55	35,799
411,75	33,506
411,96	35,944
412,16	35,650
412,37	30,720
412,57	33,539
412,78	34,007
412,99	31,800
413,19	38,550
413,40	37,128
413,60	31,236
413,81	33,152
414,01	34,371
414,22	32,256
414,42	34,673
414,63	34,471
414,83	36,276
415,04	42,660
415,24	39,451
415,45	36,830
415,65	32,617
415,86	42,651
416,07	33,946
416,27	35,756
416,48	41,684
416,68	39,375
416,89	35,269
417,09	38,196
417,30	45,722
417,50	37,592
417,71	40,553
417,91	41,178
418,12	40,191
418,32	40,752
418,53	36,013
418,73	38,195
418,94	37,090
419,14	39,890
419,35	35,973
419,55	41,106
419,76	42,331
419,96	41,139
420,17	40,102
420,37	40,665
420,58	45,707
420,78	43,076
420,99	39,501
421,19	41,240
421,40	40,065
421,60	45,437
421,81	37,803
422,01	43,889
422,22	42,443
422,42	42,909
422,63	45,348
422,83	37,278
423,04	47,350
423,24	45,810
423,45	36,962
423,65	47,436
423,86	46,803
424,06	41,550
424,27	39,864
424,47	40,386
424,67	41,550
424,88	44,551
425,08	41,269
425,29	49,436
425,49	41,178
425,70	43,232
425,90	47,261
426,11	43,078
426,31	41,771
426,52	46,446
426,72	40,397
426,93	40,624
427,13	47,947
427,33	45,781
427,54	44,462
427,74	50,586
427,95	50,508
428,15	43,054
428,36	42,493
428,56	41,207
428,77	44,439
428,97	46,778
429,18	42,195
429,38	42,566
429,58	48,926
429,79	45,621
429,99	42,902
430,20	37,678
430,40	46,800
430,61	43,610
430,81	45,416
431,01	49,576
431,22	51,295
431,42	49,386
431,63	39,651
431,83	44,264
432,04	40,535
432,24	48,847
432,44	45,074
432,65	41,871
432,85	44,385
433,06	44,680
433,26	43,637
433,47	41,499
433,67	46,914
433,87	41,840
434,08	41,936
434,28	42,263
434,49	42,834
434,69	47,695
434,89	41,879
435,10	42,512
435,30	46,728
435,51	39,902
435,71	41,336
435,91	40,244
436,12	45,273
436,32	39,947
436,53	42,196
436,73	45,002
436,93	45,560
437,14	43,860
437,34	46,110
437,55	45,525
437,75	46,555
437,95	49,442
438,16	44,272
438,36	44,380
438,57	41,150
438,77	41,346
438,97	44,341
439,18	46,651
439,38	44,214
439,58	43,848
439,79	47,174
439,99	46,634
440,20	51,855
440,40	48,423
440,60	48,017
440,81	52,965
441,01	49,988
441,21	49,952
441,42	49,590
441,62	48,414
441,83	45,051
442,03	50,293
442,23	50,366
442,44	47,913
442,64	51,731
442,84	42,410
443,05	47,385
443,25	42,686
443,45	47,532
443,66	45,098
443,86	47,670
444,06	42,382
444,27	44,651
444,47	47,918
444,67	42,350
444,88	48,428
445,08	48,272
445,28	47,446
445,49	45,912
445,69	45,171
445,90	48,562
446,10	51,808
446,30	44,539
446,51	49,241
446,71	56,889
446,91	48,896
447,12	50,743
447,32	39,767
447,52	46,919
447,72	51,192
447,93	46,898
448,13	43,235
448,33	50,540
448,54	51,748
448,74	41,071
448,94	49,164
449,15	50,819
449,35	55,626
449,55	48,774
449,76	51,090
449,96	48,050
450,16	50,637
450,37	44,759
450,57	50,802
450,77	47,762
450,98	47,585
451,18	53,089
451,38	48,425
451,58	48,011
451,79	49,464
451,99	49,533
452,19	51,112
452,40	50,388
452,60	45,629
452,80	40,855
453,00	50,362
453,21	48,432
453,41	50,150
453,61	50,387
453,82	49,659
454,02	47,481
454,22	55,108
454,42	49,772
454,63	43,550
454,83	50,025
455,03	48,424
455,24	50,217
455,44	45,730
455,64	43,230
455,84	46,895
456,05	51,988
456,25	48,578
456,45	49,949
456,65	50,109
456,86	48,897
457,06	46,027
457,26	58,313
457,47	53,504
457,67	48,009
457,87	45,394
458,07	49,074
458,28	48,404
458,48	47,528
458,68	46,660
458,88	51,512
459,09	48,304
459,29	52,101
459,49	47,983
459,69	48,041
459,90	53,936
460,10	48,945
460,30	48,783
460,50	47,210
460,71	49,657
460,91	46,300
461,11	48,226
461,31	48,746
461,52	50,908
461,72	53,804
461,92	49,350
462,12	59,083
462,32	47,355
462,53	48,258
462,73	49,922
462,93	50,494
463,13	54,084
463,34	47,967
463,54	44,814
463,74	51,919
463,94	48,207
464,14	51,122
464,35	44,638
464,55	52,556
464,75	47,987
464,95	47,690
465,16	44,404
465,36	50,202
465,56	47,680
465,76	47,180
465,96	48,192
466,17	50,684
466,37	46,203
466,57	50,525
466,77	47,240
466,97	44,947
467,18	53,289
467,38	51,948
467,58	50,416
467,78	54,917
467,98	52,727
468,19	50,597
468,39	52,903
468,59	49,513
468,79	49,511
468,99	49,590
469,19	44,368
469,40	49,199
469,60	39,764
469,80	51,774
470,00	51,072
470,20	48,079
470,41	46,255
470,61	51,746
470,81	51,954
471,01	48,320
471,21	49,500
471,41	45,034
471,62	49,969
471,82	46,282
472,02	49,375
472,22	50,549
472,42	47,502
472,62	52,311
472,83	48,677
473,03	51,941
473,23	47,901
473,43	51,931
473,63	50,942
473,83	49,013
474,03	49,473
474,24	52,526
474,44	46,131
474,64	47,467
474,84	48,071
475,04	49,465
475,24	53,672
475,45	48,974
475,65	46,127
475,85	52,505
476,05	44,820
476,25	49,097
476,45	49,851
476,65	52,745
476,85	47,727
477,06	45,088
477,26	49,555
477,46	48,572
477,66	48,412
477,86	48,341
478,06	49,136
478,26	56,961
478,46	48,661
478,67	48,905
478,87	48,295
479,07	47,242
479,27	50,176
479,47	47,273
479,67	44,728
479,87	48,288
480,07	47,558
480,28	49,410
480,48	46,493
480,68	46,858
480,88	52,153
481,08	48,636
481,28	49,061
481,48	49,118
481,68	46,560
481,88	44,966
482,08	47,750
482,29	50,934
482,49	48,904
482,69	47,106
482,89	47,675
483,09	49,229
483,29	45,036
483,49	46,031
483,69	48,167
483,89	46,545
484,09	45,536
484,29	45,728
484,50	48,898
484,70	48,099
484,90	47,212
485,10	46,142
485,30	47,675
485,50	50,579
485,70	47,749
485,90	45,172
486,10	41,844
486,30	43,680
486,50	46,343
486,70	46,515
486,90	45,752
487,10	49,780
487,30	48,467
487,51	46,871
487,71	43,337
487,91	45,359
488,11	47,842
488,31	42,375
488,51	46,436
488,71	47,153
488,91	46,768
489,11	44,392
489,31	47,165
489,51	48,749
489,71	48,622
489,91	44,213
490,11	44,301
490,31	47,807
490,51	49,004
490,71	47,189
490,91	43,962
491,11	46,869
491,31	49,680
491,51	46,483
491,72	45,376
491,92	47,873
492,12	49,112
492,32	47,827
492,52	48,694
492,72	47,392
492,92	46,681
493,12	50,470
493,32	44,813
493,52	45,130
493,72	47,271
493,92	49,360
494,12	46,952
494,32	48,806
494,52	48,055
494,72	49,156
494,92	47,966
495,12	48,446
495,32	51,692
495,52	45,593
495,72	48,353
495,92	48,916
496,12	49,294
496,32	45,855
496,52	44,358
496,72	45,376
496,92	47,600
497,12	47,724
497,32	48,462
497,52	49,609
497,72	51,661
497,92	51,355
498,12	47,320
498,32	49,635
498,52	51,521
498,72	46,867
498,92	47,470
499,12	49,424
499,32	47,443
499,52	47,940
499,72	53,781
499,92	49,109
500,12	50,410
500,32	51,500
500,52	48,896
500,72	52,639
500,91	51,535
501,11	50,824
501,31	45,741
501,51	50,737
501,71	52,971
501,91	52,186
502,11	49,655
502,31	51,348
502,51	52,953
502,71	51,394
502,91	47,509
503,11	50,616
503,31	50,595
503,51	45,949
503,71	49,252
503,91	52,126
504,11	50,658
504,31	48,229
504,51	51,673
504,71	52,335
504,91	49,698
505,10	51,614
505,30	50,416
505,50	49,710
505,70	50,426
505,90	48,390
506,10	44,961
506,30	50,524
506,50	51,581
506,70	52,980
506,90	50,974
507,10	53,145
507,30	51,960
507,50	51,057
507,70	51,015
507,89	50,824
508,09	49,899
508,29	47,592
508,49	54,202
508,69	50,291
508,89	47,657
509,09	48,160
509,29	49,360
509,49	51,524
509,69	54,693
509,89	51,253
510,09	49,992
510,28	49,147
510,48	51,621
510,68	49,153
510,88	48,056
511,08	46,259
511,28	48,396
511,48	51,036
511,68	48,306
511,88	48,220
512,07	50,826
512,27	53,996
512,47	52,363
512,67	51,033
512,87	48,145
513,07	50,773
513,27	47,390
513,47	47,055
513,67	47,562
513,86	53,117
514,06	48,595
514,26	47,201
514,46	52,856
514,66	51,399
514,86	51,597
515,06	53,676
515,26	52,138
515,45	49,880
515,65	47,906
515,85	50,937
516,05	51,643
516,25	49,403
516,45	50,117
516,65	49,394
516,84	49,426
517,04	49,933
517,24	46,696
517,44	51,164
517,64	52,787
517,84	52,401
518,04	50,590
518,23	53,625
518,43	54,386
518,63	48,176
518,83	46,759
519,03	49,918
519,23	51,293
519,42	50,610
519,62	50,354
519,82	51,890
520,02	50,357
520,22	50,320
520,42	48,719
520,61	50,214
520,81	53,443
521,01	53,758
521,21	48,025
521,41	51,488
521,61	55,492
521,80	47,772
522,00	50,116
522,20	54,511
522,40	52,204
522,60	51,163
522,79	48,400
522,99	51,740
523,19	48,051
523,39	52,032
523,59	51,646
523,78	54,572
523,98	49,287
524,18	50,555
524,38	48,008
524,58	50,774
524,77	53,592
524,97	52,206
525,17	50,248
525,37	51,147
525,57	55,078
525,76	48,481
525,96	53,284
526,16	47,487
526,36	47,782
526,56	51,607
526,75	49,821
526,95	50,702
527,15	49,572
527,35	50,711
527,55	50,901
527,74	51,298
527,94	47,915
528,14	49,230
528,34	48,072
528,53	51,132
528,73	51,834
528,93	50,429
529,13	49,495
529,32	48,598
529,52	50,941
529,72	46,535
529,92	49,077
530,12	49,141
530,31	47,890
530,51	49,880
530,71	54,367
530,91	52,564
531,10	48,214
531,30	46,524
531,50	48,699
531,70	52,825
531,89	52,296
532,09	47,496
532,29	46,130
532,49	46,841
532,68	51,090
532,88	49,232
533,08	49,394
533,28	48,369
533,47	50,158
533,67	49,575
533,87	47,425
534,06	53,633
534,26	48,913
534,46	50,672
534,66	48,276
534,85	49,739
535,05	44,398
535,25	46,268
535,45	50,146
535,64	49,288
535,84	45,213
536,04	48,631
536,23	46,909
536,43	49,914
536,63	47,725
536,83	49,081
537,02	46,608
537,22	44,231
537,42	48,281
537,61	49,338
537,81	46,588
538,01	45,272
538,20	46,316
538,40	46,425
538,60	47,636
538,80	45,568
538,99	47,521
539,19	44,954
539,39	42,051
539,58	44,239
539,78	41,381
539,98	43,149
540,17	40,256
540,37	44,505
540,57	37,860
540,76	40,701
540,96	38,442
541,16	40,508
541,36	38,546
541,55	35,555
541,75	35,917
541,95	35,792
542,14	35,906
542,34	35,422
542,54	35,438
542,73	36,730
542,93	38,611
543,13	35,710
543,32	36,533
543,52	35,229
543,72	34,289
543,91	36,033
544,11	34,894
544,31	35,367
544,50	35,890
544,70	37,165
544,89	37,016
545,09	37,028
545,29	35,939
545,48	38,657
545,68	37,001
545,88	40,202
546,07	37,864
546,27	38,114
546,47	40,854
546,66	41,517
546,86	42,380
547,06	39,437
547,25	41,341
547,45	42,467
547,64	42,322
547,84	46,089
548,04	42,360
548,23	46,761
548,43	44,312
548,63	45,990
548,82	46,539
549,02	44,486
549,21	44,739
549,41	44,627
549,61	44,262
549,80	47,076
550,00	43,728
550,20	44,354
550,39	46,768
550,59	44,279
550,78	48,722
550,98	46,109
551,18	46,789
551,37	47,760
551,57	46,277
551,76	45,221
551,96	47,331
552,16	43,665
552,35	46,868
552,55	45,385
552,74	47,559
552,94	47,473
553,14	46,518
553,33	46,481
553,53	48,398
553,72	47,809
553,92	51,001
554,12	46,362
554,31	48,347
554,51	47,719
554,70	45,573
554,90	48,342
555,09	50,162
555,29	49,982
555,49	49,629
555,68	48,807
555,88	48,209
556,07	47,238
556,27	50,826
556,46	46,442
556,66	47,544
556,86	51,731
557,05	48,513
557,25	48,271
557,44	46,917
557,64	47,900
557,83	49,074
558,03	47,943
558,22	43,342
558,42	47,903
558,62	51,065
558,81	47,827
559,01	47,357
559,20	50,609
559,40	46,766
559,59	47,010
559,79	47,904
559,98	50,166
560,18	50,616
560,37	49,368
560,57	47,503
560,76	47,143
560,96	46,399
561,16	48,062
561,35	48,182
561,55	50,716
561,74	49,170
561,94	51,141
562,13	51,540
562,33	50,583
562,52	47,230
562,72	47,473
562,91	48,290
563,11	48,916
563,30	50,852
563,50	45,329
563,69	47,832
563,89	49,109
564,08	48,923
564,28	45,569
564,47	45,908
564,67	49,371
564,86	48,027
565,06	48,531
565,25	48,779
565,45	47,216
565,64	50,081
565,84	46,680
566,03	47,130
566,23	51,639
566,42	49,380
566,62	48,303
566,81	49,352
567,01	50,177
567,20	49,701
567,40	46,977
567,59	47,285
567,79	50,753
567,98	52,755
568,18	49,119
568,37	49,629
568,57	49,168
568,76	49,384
568,96	49,095
569,15	47,574
569,35	50,119
569,54	50,110
569,73	51,977
569,93	47,862
570,12	49,358
570,32	52,090
570,51	49,191
570,71	50,880
570,90	51,132
571,10	49,068
571,29	49,242
571,49	49,209
571,68	49,507
571,87	48,559
572,07	48,400
572,26	46,132
572,46	49,189
572,65	49,471
572,85	46,235
573,04	47,824
573,24	49,890
573,43	51,641
573,62	50,515
573,82	48,353
574,01	47,159
574,21	47,463
574,40	46,597
574,60	45,705
574,79	51,475
574,98	49,013
575,18	50,845
575,37	45,560
575,57	51,386
575,76	49,913
575,96	50,076
576,15	47,958
576,34	48,849
576,54	50,450
576,73	47,432
576,93	48,609
577,12	48,631
577,31	48,808
577,51	47,758
577,70	47,794
577,90	48,550
578,09	46,834
578,28	46,426
578,48	49,197
578,67	49,317
578,87	48,483
579,06	46,796
579,25	48,344
579,45	48,303
579,64	46,274
579,84	46,200
580,03	46,365
580,22	49,317
580,42	45,551
580,61	46,591
580,81	46,915
581,00	48,875
581,19	48,584
581,39	47,430
581,58	47,690
581,77	46,503
581,97	49,273
582,16	47,117
582,35	46,308
582,55	46,570
582,74	48,620
582,94	47,381
583,13	44,556
583,32	48,098
583,52	47,483
583,71	46,895
583,90	46,150
584,10	47,177
584,29	48,204
584,48	47,518
584,68	47,135
584,87	47,740
585,06	46,119
585,26	45,156
585,45	45,922
585,65	48,511
585,84	45,510
586,03	46,593
586,23	45,558
586,42	46,216
586,61	46,591
586,81	47,305
587,00	46,763
587,19	44,259
587,39	47,526
587,58	45,735
587,77	46,059
587,97	45,331
588,16	45,294
588,35	46,601
588,54	47,325
588,74	46,574
588,93	47,993
589,12	48,011
589,32	45,564
589,51	47,940
589,70	45,781
589,90	46,552
590,09	46,665
590,28	50,414
590,48	45,150
590,67	46,300
590,86	46,784
591,06	46,150
591,25	48,312
591,44	47,099
591,63	46,981
591,83	46,141
592,02	46,710
592,21	44,767
592,41	45,323
592,60	46,931
592,79	46,923
592,98	45,302
593,18	46,725
593,37	46,675
593,56	50,210
593,76	45,918
593,95	45,782
594,14	46,297
594,33	49,848
594,53	48,159
594,72	46,938
594,91	50,981
595,10	47,376
595,30	47,390
595,49	46,986
595,68	47,704
595,88	48,336
596,07	46,023
596,26	48,404
596,45	46,355
596,65	46,923
596,84	46,253
597,03	47,014
597,22	47,152
597,42	49,132
597,61	48,516
597,80	46,893
597,99	48,609
598,19	47,913
598,38	48,442
598,57	48,065
598,76	48,218
598,95	49,005
599,15	49,830
599,34	48,088
599,53	48,109
599,72	47,422
599,92	49,764
600,11	47,324
600,30	48,315
600,49	48,978
600,69	46,065
600,88	48,308
601,07	47,876
601,26	47,602
601,45	48,472
601,65	47,443
601,84	47,521
602,03	48,295
602,22	48,215
602,42	48,555
602,61	47,752
602,80	46,794
602,99	47,555
603,18	46,016
603,38	49,307
603,57	48,483
603,76	47,712
603,95	47,201
604,14	48,734
604,34	46,889
604,53	47,733
604,72	49,074
604,91	47,693
605,10	48,442
605,29	49,015
605,49	46,553
605,68	48,168
605,87	50,041
606,06	47,149
606,25	45,386
606,45	48,625
606,64	47,586
606,83	46,316
607,02	46,664
607,21	48,154
607,40	46,975
607,60	43,477
607,79	44,074
607,98	43,774
608,17	43,610
608,36	43,282
608,55	43,381
608,75	42,570
608,94	44,723
609,13	40,270
609,32	38,679
609,51	41,141
609,70	39,135
609,89	41,012
610,09	38,869
610,28	40,859
610,47	38,700
610,66	39,018
610,85	37,739
611,04	39,659
611,23	39,476
611,43	37,596
611,62	38,919
611,81	38,204
612,00	40,019
612,19	38,374
612,38	39,196
612,57	40,924
612,77	40,483
612,96	40,183
613,15	41,748
613,34	42,192
613,53	43,344
613,72	44,113
613,91	44,669
614,10	44,024
614,29	46,209
614,49	43,307
614,68	42,785
614,87	43,996
615,06	47,140
615,25	43,079
615,44	44,272
615,63	44,606
615,82	43,444
616,01	43,916
616,21	44,588
616,40	45,200
616,59	46,564
616,78	45,218
616,97	44,848
617,16	46,010
617,35	46,962
617,54	45,688
617,73	46,218
617,92	46,189
618,11	48,262
618,31	44,261
618,50	44,914
618,69	44,139
618,88	45,068
619,07	43,970
619,26	44,378
619,45	44,151
619,64	44,319
619,83	42,568
620,02	42,494
620,21	45,412
620,40	45,852
620,59	43,619
620,78	43,706
620,97	45,933
621,17	44,816
621,36	45,389
621,55	45,497
621,74	44,954
621,93	45,189
622,12	43,737
622,31	44,447
622,50	44,947
622,69	44,925
622,88	46,484
623,07	46,872
623,26	46,869
623,45	47,102
623,64	43,547
623,83	45,150
624,02	45,174
624,21	46,113
624,40	45,693
624,59	43,764
624,78	45,600
624,97	48,958
625,16	43,751
625,35	44,596
625,54	43,013
625,73	46,046
625,92	45,208
626,12	46,095
626,31	45,946
626,50	44,899
626,69	44,878
626,88	43,719
627,07	45,313
627,26	44,420
627,45	44,137
627,64	46,167
627,83	45,261
628,02	42,974
628,21	44,711
628,40	43,736
628,59	45,932
628,78	41,270
628,97	44,185
629,16	42,629
629,35	44,221
629,54	46,058
629,73	43,771
629,92	43,603
630,10	44,788
630,29	44,536
630,48	43,706
630,67	41,699
630,86	45,930
631,05	44,122
631,24	45,903
631,43	42,935
631,62	44,745
631,81	44,050
632,00	43,676
632,19	43,464
632,38	44,247
632,57	42,456
632,76	44,299
632,95	44,326
633,14	47,404
633,33	45,704
633,52	46,122
633,71	45,503
633,90	46,135
634,09	43,941
634,28	44,821
634,47	43,692
634,66	45,265
634,85	47,353
635,04	46,166
635,22	45,755
635,41	44,974
635,60	48,366
635,79	46,666
635,98	43,026
636,17	47,553
636,36	44,520
636,55	44,035
636,74	43,534
636,93	44,609
637,12	45,804
637,31	44,646
637,50	43,655
637,69	45,546
637,87	46,629
638,06	45,915
638,25	44,631
638,44	47,238
638,63	42,498
638,82	44,958
639,01	45,065
639,20	45,083
639,39	45,368
639,58	43,275
639,77	46,709
639,95	43,805
640,14	46,811
640,33	43,610
640,52	44,754
640,71	45,533
640,90	45,458
641,09	47,244
641,28	43,606
641,47	45,902
641,66	44,674
641,84	44,277
642,03	44,773
642,22	45,580
642,41	47,244
642,60	44,775
642,79	44,479
642,98	45,007
643,17	44,715
643,35	44,458
643,54	44,703
643,73	45,777
643,92	45,261
644,11	42,814
644,30	45,519
644,49	47,540
644,67	43,586
644,86	43,192
645,05	44,530
645,24	44,065
645,43	47,393
645,62	43,865
645,81	45,649
645,99	47,604
646,18	44,577
646,37	43,908
646,56	44,221
646,75	47,160
646,94	45,547
647,13	44,750
647,31	45,204
647,50	44,975
647,69	47,838
647,88	46,061
648,07	43,959
648,26	49,620
648,44	44,803
648,63	44,221
648,82	44,702
649,01	47,772
649,20	43,294
649,38	44,724
649,57	45,157
649,76	44,059
649,95	44,776
650,14	42,748
650,33	43,384
650,51	43,971
650,70	46,691
650,89	45,080
651,08	44,507
651,27	44,317
651,45	43,611
651,64	43,146
651,83	45,815
652,02	44,006
652,21	45,921
652,39	44,852
652,58	46,221
652,77	45,315
652,96	46,517
653,15	43,783
653,33	44,556
653,52	45,273
653,71	48,197
653,90	46,844
654,09	46,809
654,27	46,859
654,46	48,291
654,65	48,269
654,84	46,026
655,02	47,347
655,21	47,061
655,40	48,413
655,59	47,621
655,77	47,074
655,96	45,945
656,15	46,601
656,34	48,431
656,53	45,229
656,71	47,649
656,90	46,508
657,09	48,236
657,28	47,203
657,46	46,110
657,65	46,433
657,84	45,108
658,03	47,364
658,21	45,873
658,40	42,742
658,59	45,957
658,78	45,742
658,96	43,022
659,15	44,499
659,34	44,034
659,52	45,235
659,71	46,663
659,90	43,358
660,09	43,690
660,27	45,077
660,46	47,123
660,65	44,420
660,84	44,610
661,02	45,624
661,21	44,703
661,40	43,695
661,58	46,242
661,77	45,718
661,96	41,950
662,15	44,204
662,33	43,436
662,52	43,261
662,71	46,823
662,89	41,273
663,08	43,767
663,27	45,226
663,45	45,099
663,64	43,961
663,83	43,033
664,02	45,042
664,20	45,469
664,39	43,830
664,58	45,830
664,76	43,665
664,95	45,512
665,14	44,530
665,32	43,721
665,51	44,935
665,70	43,887
665,88	45,698
666,07	44,033
666,26	46,755
666,44	45,498
666,63	43,565
666,82	41,937
667,00	44,883
667,19	42,863
667,38	43,092
667,56	44,395
667,75	43,739
667,94	44,072
668,12	41,842
668,31	45,854
668,50	45,235
668,68	45,380
668,87	43,996
669,06	44,257
669,24	44,488
669,43	43,197
669,62	42,166
669,80	41,712
669,99	44,150
670,18	44,435
670,36	44,311
670,55	45,087
670,74	44,346
670,92	42,767
671,11	43,465
671,29	43,343
671,48	43,846
671,67	45,225
671,85	46,392
672,04	44,130
672,23	42,169
672,41	44,625
672,60	44,800
672,78	43,213
672,97	43,850
673,16	44,028
673,34	43,299
673,53	42,246
673,71	45,045
673,90	45,567
674,09	43,934
674,27	42,209
674,46	42,744
674,64	44,125
674,83	43,285
675,02	42,316
675,20	44,698
675,39	43,567
675,57	43,998
675,76	42,565
675,95	46,752
676,13	44,197
676,32	44,843
676,50	45,156
676,69	43,679
676,88	44,470
677,06	44,126
677,25	44,756
677,43	47,324
677,62	43,726
677,80	44,737
677,99	42,086
678,18	45,780
678,36	46,418
678,55	43,763
678,73	42,488
678,92	45,101
679,10	45,403
679,29	43,768
679,48	42,397
679,66	44,212
679,85	43,605
680,03	43,778
680,22	43,799
680,40	42,588
680,59	42,686
680,77	45,602
680,96	46,189
681,15	43,387
681,33	46,286
681,52	42,637
681,70	43,659
681,89	46,180
682,07	46,112
682,26	44,693
682,44	44,447
682,63	44,878
682,81	44,161
683,00	44,585
683,18	42,119
683,37	44,908
683,55	43,603
683,74	44,683
683,92	48,634
684,11	44,583
684,29	45,028
684,48	42,154
684,67	43,898
684,85	45,204
685,04	45,864
685,22	43,763
685,41	42,901
685,59	45,514
685,78	42,869
685,96	42,401
686,15	43,801
686,33	43,402
686,52	43,687
686,70	43,846
686,89	43,877
687,07	44,972
687,26	44,797
687,44	45,914
687,62	43,218
687,81	45,106
687,99	43,533
688,18	43,905
688,36	44,949
688,55	45,446
688,73	45,580
688,92	43,268
689,10	43,371
689,29	44,701
689,47	44,604
689,66	43,280
689,84	43,648
690,03	45,364
690,21	43,394
690,40	44,787
690,58	43,034
690,76	42,889
690,95	46,258
691,13	44,319
691,32	43,747
691,50	44,823
691,69	44,707
691,87	43,244
692,06	44,121
692,24	42,596
692,43	45,410
692,61	41,448
692,79	43,195
692,98	42,568
693,16	46,522
693,35	43,190
693,53	44,225
693,72	46,238
693,90	46,661
694,08	42,177
694,27	44,272
694,45	47,186
694,64	46,651
694,82	44,253
695,01	41,736
695,19	41,982
695,37	43,342
695,56	44,306
695,74	44,659
695,93	44,692
696,11	43,490
696,29	45,786
696,48	44,060
696,66	43,955
696,85	44,750
697,03	41,838
697,21	44,181
697,40	45,042
697,58	45,527
697,77	45,038
697,95	45,317
698,13	45,816
698,32	43,931
698,50	45,223
698,69	44,109
698,87	43,754
699,05	43,799
699,24	43,237
699,42	43,972
699,60	43,216
699,79	43,461
699,97	43,743
700,16	42,682
700,34	46,392
700,52	43,145
700,71	43,070
700,89	42,116
701,07	45,346
701,26	43,728
701,44	42,662
701,63	43,083
701,81	44,290
701,99	46,313
702,18	41,271
702,36	40,890
702,54	44,972
702,73	44,124
702,91	42,751
703,09	42,931
703,28	44,666
703,46	45,143
703,64	44,785
703,83	43,210
704,01	45,806
704,19	44,587
704,38	43,904
704,56	43,825
704,74	44,699
704,93	43,720
705,11	45,197
705,29	42,418
705,48	47,766
705,66	44,655
705,84	44,123
706,03	42,129
706,21	44,269
706,39	42,402
706,58	44,445
706,76	41,619
706,94	45,012
707,12	43,379
707,31	42,074
707,49	42,193
707,67	43,986
707,86	44,474
708,04	43,089
708,22	42,580
708,41	43,037
708,59	43,227
708,77	41,785
708,95	43,607
709,14	45,740
709,32	43,888
709,50	42,248
709,69	42,265
709,87	44,029
710,05	42,319
710,23	44,157
710,42	42,106
710,60	43,752
710,78	44,751
710,97	43,563
711,15	43,376
711,33	45,681
711,51	41,815
711,70	40,981
711,88	43,095
712,06	45,359
712,24	44,647
712,43	44,648
712,61	42,945
712,79	43,773
712,97	42,708
713,16	42,677
713,34	42,745
713,52	43,350
713,70	42,715
713,89	42,614
714,07	43,960
714,25	43,871
714,43	45,036
714,62	42,626
714,80	44,363
714,98	40,228
715,16	43,302
715,35	40,049
715,53	41,803
715,71	45,246
715,89	44,740
716,07	43,898
716,26	46,651
716,44	43,913
716,62	44,712
716,80	43,337
716,99	44,114
717,17	44,529
717,35	43,792
717,53	41,799
717,71	40,724
717,90	42,557
718,08	43,722
718,26	43,067
718,44	45,169
718,62	43,431
718,81	45,254
718,99	41,577
719,17	43,968
719,35	44,452
719,53	44,392
719,72	43,119
719,90	46,085
720,08	43,346
720,26	44,454
720,44	41,161
720,62	43,763
720,81	43,837
720,99	46,902
721,17	42,200
721,35	45,562
721,53	43,722
721,72	44,211
721,90	43,252
722,08	43,094
722,26	46,097
722,44	44,000
722,62	43,488
722,81	42,405
722,99	42,615
723,17	41,170
723,35	43,779
723,53	43,708
723,71	44,671
723,89	46,254
724,08	40,012
724,26	42,876
724,44	43,556
724,62	43,489
724,80	42,714
724,98	44,560
725,16	47,238
725,35	44,528
725,53	43,397
725,71	42,536
725,89	43,936
726,07	45,385
726,25	46,592
726,43	44,651
726,61	44,461
726,80	45,274
726,98	43,396
727,16	43,917
727,34	43,285
727,52	44,048
727,70	42,584
727,88	43,898
728,06	42,535
728,25	41,416
728,43	42,092
728,61	43,052
728,79	43,881
728,97	44,793
729,15	42,635
729,33	43,948
729,51	44,053
729,69	44,375
729,87	44,508
730,06	43,680
730,24	43,896
730,42	47,280
730,60	42,622
730,78	43,366
730,96	42,419
731,14	44,623
731,32	43,388
731,50	43,855
731,68	43,782
731,86	44,294
732,04	44,533
732,22	43,947
732,41	46,678
732,59	44,407
732,77	42,897
732,95	46,278
733,13	45,077
733,31	43,898
733,49	41,729
733,67	44,726
733,85	44,549
734,03	44,618
734,21	43,902
734,39	43,173
734,57	46,410
734,75	44,651
734,93	41,371
735,11	44,791
735,29	43,593
735,47	47,035
735,65	42,822
735,84	42,874
736,02	46,323
736,20	45,500
736,38	44,599
736,56	42,540
736,74	44,592
736,92	42,956
737,10	45,276
737,28	45,219
737,46	44,902
737,64	43,125
737,82	43,628
738,00	45,417
738,18	45,136
738,36	44,688
738,54	43,774
738,72	41,306
738,90	43,269
739,08	44,825
739,26	42,840
739,44	44,451
739,62	44,049
739,80	43,231
739,98	41,850
740,16	43,146
740,34	45,178
740,52	45,086
740,70	44,078
740,88	42,142
741,06	44,006
741,24	45,480
741,42	43,157
741,60	42,820
741,78	43,428
741,96	43,893
742,14	44,487
742,32	42,275
742,50	43,698
742,68	45,468
742,86	42,469
743,04	41,082
743,21	45,405
743,39	45,398
743,57	41,133
743,75	42,111
743,93	41,359
744,11	41,198
744,29	42,865
744,47	44,042
744,65	41,994
744,83	42,096
745,01	42,702
745,19	44,468
745,37	45,966
745,55	42,852
745,73	43,957
745,91	42,451
746,09	42,196
746,27	42,338
746,45	40,109
746,62	40,578
746,80	43,882
746,98	44,488
747,16	42,373
747,34	41,798
747,52	43,639
747,70	42,463
747,88	42,169
748,06	42,974
748,24	46,296
748,42	43,863
748,60	44,737
748,78	40,233
748,95	44,822
749,13	47,379
749,31	43,446
749,49	42,811
749,67	45,908
749,85	45,203
750,03	43,990
750,21	43,043
750,39	42,978
750,57	44,693
750,74	41,992
750,92	41,700
751,10	44,179
751,28	41,042
751,46	45,047
751,64	43,700
751,82	44,472
752,00	44,986
752,17	44,996
752,35	42,704
752,53	43,682
752,71	45,004
752,89	42,383
753,07	43,148
753,25	42,957
753,43	41,905
753,60	43,373
753,78	43,850
753,96	44,762
754,14	43,688
754,32	43,186
754,50	45,019
754,68	43,756
754,85	43,507
755,03	42,992
755,21	44,783
755,39	45,928
755,57	44,897
755,75	44,876
755,92	42,541
756,10	44,781
756,28	45,788
756,46	42,364
756,64	43,304
756,82	44,803
756,99	43,611
757,17	42,766
757,35	41,097
757,53	46,815
757,71	44,124
757,89	42,207
758,06	42,328
758,24	42,446
758,42	43,341
758,60	41,915
758,78	43,338
758,95	43,690
759,13	45,809
759,31	42,860
759,49	41,490
759,67	44,905
759,84	43,983
760,02	44,584
760,20	43,728
760,38	43,603
760,56	43,439
760,73	44,734
760,91	44,496
761,09	44,026
761,27	44,197
761,45	43,657
761,62	43,148
761,80	44,548
761,98	43,315
762,16	42,272
762,33	41,114
762,51	44,707
762,69	43,459
762,87	41,545
763,05	42,623
763,22	41,939
763,40	40,410
763,58	41,176
763,76	42,540
763,93	46,651
764,11	45,035
764,29	43,273
764,47	43,629
764,64	44,179
764,82	48,286
765,00	42,073
765,18	41,493
765,35	44,083
765,53	43,795
765,71	42,983
765,89	42,824
766,06	42,831
766,24	42,936
766,42	45,069
766,60	41,850
766,77	42,108
766,95	43,427
767,13	43,667
767,30	43,347
767,48	43,955
767,66	42,857
767,84	43,220
768,01	44,922
768,19	42,966
768,37	44,127
768,54	43,137
768,72	43,854
768,90	42,918
769,08	43,919
769,25	44,839
769,43	42,676
769,61	41,288
769,78	44,777
769,96	43,042
770,14	45,789
770,31	44,938
770,49	47,042
770,67	43,144
770,85	43,097
771,02	44,641
771,20	44,358
771,38	44,665
771,55	44,421
771,73	44,011
771,91	40,641
772,08	45,269
772,26	43,768
772,44	42,508
772,61	43,236
772,79	42,240
772,97	42,503
773,14	41,538
773,32	44,194
773,50	42,381
773,67	43,112
773,85	45,985
774,03	45,140
774,20	43,602
774,38	44,288
774,56	42,758
774,73	42,323
774,91	43,482
775,09	42,046
775,26	44,760
775,44	43,777
775,61	43,485
775,79	43,073
775,97	44,703
776,14	42,950
776,32	41,064
776,50	42,322
776,67	44,114
776,85	42,715
777,03	42,817
777,20	44,282
777,38	45,302
777,55	45,216
777,73	42,696
777,91	39,248
778,08	43,450
778,26	41,977
778,43	43,881
778,61	40,247
778,79	42,985
778,96	42,117
779,14	41,572
779,32	43,183
779,49	42,616
779,67	47,212
779,84	42,427
780,02	44,682
780,20	40,583
780,37	45,576
780,55	39,194
780,72	44,741
780,90	45,255
781,07	45,098
781,25	44,705
781,43	44,512
781,60	46,408
781,78	45,794
781,95	43,249
782,13	43,687
782,30	47,428
782,48	45,787
782,66	40,497
782,83	41,311
783,01	50,092
783,18	45,483
783,36	44,896
783,53	45,395
783,71	46,337
783,89	43,811
784,06	43,903
784,24	42,611
784,41	46,805
784,59	42,752
784,76	46,433
784,94	42,940
785,11	42,090
785,29	44,731
785,46	42,584
785,64	43,954
785,82	43,438
785,99	46,095
786,17	44,518
786,34	42,985
786,52	44,320
786,69	47,217
786,87	44,725
787,04	42,366
787,22	41,699
787,39	46,454
787,57	43,532
787,74	44,382
787,92	48,194
788,09	47,014
788,27	44,278
788,44	41,414
788,62	44,095
788,79	44,048
788,97	45,507
789,14	45,140
789,32	44,730
789,49	44,576
789,67	43,823
789,84	42,040
790,02	43,571
790,19	42,489
790,37	43,972
790,54	43,868
790,72	46,820
790,89	48,996
791,07	46,884
791,24	40,457
791,42	44,902
791,59	44,933
791,77	45,678
791,94	42,445
792,12	44,307
792,29	47,508
792,47	44,042
792,64	47,438
792,81	46,506
792,99	44,484
793,16	43,622
793,34	45,010
793,51	43,255
793,69	46,233
793,86	41,936
794,04	42,613
794,21	46,254
794,39	42,054
794,56	44,881
794,73	46,745
794,91	48,095
795,08	44,457
795,26	45,884
795,43	43,984
795,61	46,688
795,78	48,589
795,95	44,583
796,13	45,043
796,30	46,245
796,48	43,729
796,65	46,521
796,83	46,603
797,00	49,379
797,17	38,697
797,35	43,821
797,52	43,749
797,70	48,594
797,87	44,602
798,04	41,060
798,22	46,281
798,39	44,778
798,57	45,632
798,74	47,575
798,91	43,300
799,09	39,954
799,26	47,139
799,44	44,974
799,61	43,676
799,78	45,705
799,96	45,055
800,13	41,204
800,31	45,476
800,48	47,217
800,65	46,408
800,83	45,225
801,00	42,178
801,17	45,459
801,35	48,545
801,52	44,068
801,70	45,809
801,87	43,487
802,04	48,328
802,22	43,357
802,39	44,037
802,56	47,122
802,74	45,973
802,91	45,175
803,08	44,856
803,26	45,941
803,43	51,410
803,61	45,122
803,78	45,086
803,95	47,108
804,13	47,900
804,30	42,426
804,47	47,931
804,65	47,330
804,82	45,282
804,99	45,660
805,17	43,271
805,34	50,296
805,51	50,810
805,69	40,672
805,86	40,793
806,03	50,116
806,21	46,964
806,38	44,642
806,55	48,308
806,72	49,117
806,90	48,378
807,07	46,670
807,24	42,546
807,42	43,405
807,59	46,126
807,76	45,862
807,94	42,551
808,11	46,342
808,28	50,124
808,45	47,765
808,63	44,822
808,80	50,835
808,97	49,436
809,15	44,748
809,32	45,865
809,49	44,042
809,67	47,265
809,84	47,052
810,01	47,226
810,18	53,947
810,36	46,660
810,53	48,566
810,70	47,142
810,87	50,218
811,05	46,845
811,22	49,566
811,39	44,804
811,57	49,303
811,74	47,485
811,91	43,965
812,08	46,607
812,26	45,766
812,43	45,719
812,60	50,006
812,77	46,204
812,95	52,318
813,12	48,690
813,29	43,305
813,46	47,169
813,64	47,519
813,81	47,036
813,98	44,789
814,15	47,323
814,32	47,352
814,50	49,310
814,67	46,753
814,84	53,571
815,01	50,298
815,19	39,830
815,36	42,444
815,53	48,458
815,70	42,575
815,87	52,571
816,05	41,678
816,22	50,671
816,39	50,950
816,56	50,632
816,74	45,435
816,91	46,440
817,08	52,288
817,25	50,187
817,42	50,333
817,60	49,945
817,77	44,879
817,94	49,115
818,11	46,550
818,28	45,247
818,45	48,971
818,63	47,966
818,80	53,811
818,97	45,696
819,14	51,264
819,31	53,717
819,49	48,268
819,66	46,137
819,83	50,183
820,00	52,910
820,17	48,016
820,34	47,360
820,52	51,659
820,69	51,790
820,86	45,534
821,03	49,300
821,20	50,605
821,37	50,492
821,55	44,152
821,72	47,793
821,89	53,048
822,06	50,211
822,23	45,057
822,40	46,425
822,57	48,844
822,75	52,911
822,92	46,515
823,09	47,313
823,26	50,240
823,43	54,170
823,60	45,279
823,77	46,122
823,94	57,029
824,12	58,118
824,29	44,889
824,46	45,433
824,63	56,754
824,80	54,193
824,97	50,417
825,14	49,498
825,31	52,946
825,49	46,187
825,66	47,133
825,83	46,466
826,00	49,186
826,17	57,472
826,34	45,952
826,51	41,449
826,68	47,603
826,85	51,466
827,02	49,486
827,20	45,147
827,37	47,296
827,54	49,166
827,71	51,847
827,88	50,209
828,05	55,357
828,22	52,640
828,39	59,038
828,56	52,892
828,73	47,128
828,90	51,174
829,07	44,096
829,25	46,599
829,42	52,115
829,59	45,074
829,76	50,063
829,93	43,800
830,10	52,314
830,27	46,606
830,44	50,232
830,61	47,563
830,78	63,527
830,95	50,391
831,12	46,175
831,29	51,662
831,46	43,351
831,63	47,650
831,80	48,760
831,97	45,511
832,14	57,813
832,31	58,830
832,48	47,151
832,65	50,917
832,83	49,858
833,00	52,828
833,17	46,391
833,34	54,395
833,51	50,667
833,68	57,588
833,85	49,126
834,02	50,876
834,19	50,009
834,36	53,728
834,53	46,672
834,70	46,586
834,87	56,629
835,04	50,346
835,21	52,382
835,38	47,485
835,55	48,350
835,72	65,622
835,89	48,753
836,06	55,574
836,23	67,485
836,40	47,705
836,57	36,816
836,74	46,385
836,91	48,300
837,08	59,843
837,25	49,426
837,42	44,329
837,59	47,390
837,76	46,257
837,93	48,889
838,09	40,432
838,26	55,347
838,43	55,574
838,60	46,952
838,77	47,501
838,94	62,849
839,11	49,069
839,28	46,364
839,45	43,526
839,62	49,878
839,79	53,750
839,96	57,134
840,13	58,063
840,30	47,170
840,47	37,210
840,64	56,425
840,81	57,197
840,98	42,178
841,15	61,094
841,32	47,950
841,48	53,634
841,65	49,688
841,82	51,305
841,99	53,159
842,16	42,977
842,33	53,777
842,50	60,236
842,67	52,170
842,84	44,964
843,01	56,286
843,18	54,807
843,35	44,457
843,52	45,500
843,68	58,884
843,85	50,284
844,02	48,952
844,19	57,288
844,36	57,088
844,53	56,368
844,70	55,891
844,87	60,085
845,04	53,050
845,21	52,580
845,37	52,895
845,54	49,089
845,71	50,061
845,88	72,214
846,05	42,660
846,22	40,420
846,39	46,117
846,56	59,033
846,72	41,217
846,89	50,130
847,06	67,134
847,23	61,244
847,40	49,616
847,57	45,573
847,74	55,201
847,90	62,241
848,07	54,792
848,24	52,632
848,41	54,474
848,58	60,588
848,75	45,955
848,92	41,835
849,08	53,476
849,25	48,916
849,42	45,658
849,59	54,083
849,76	51,069
849,93	56,040
850,09	56,076
850,26	38,583
850,43	63,585
850,60	52,628
850,77	49,685
850,94	55,427
851,10	53,771
851,27	40,759
851,44	52,118
851,61	51,373
851,78	53,051
851,95	61,056
852,11	45,858
852,28	44,826
852,45	66,201
852,62	63,978
852,79	52,160
852,95	52,332
853,12	60,905
853,29	48,404
853,46	40,536
853,63	59,081
853,79	51,944
853,96	52,078
854,13	57,742
854,30	38,046
854,46	87,349
854,63	56,752
854,80	48,713
854,97	49,739
855,14	69,091
855,30	63,506
855,47	51,807
855,64	56,131
855,81	61,574
855,97	69,547
856,14	68,387
856,31	44,261
856,48	58,843
856,65	67,651
856,81	56,706
856,98	39,324
857,15	45,720
857,32	60,458
857,48	51,066
857,65	57,699
857,82	60,268
857,99	64,133
858,15	50,584
858,32	52,711
858,49	62,193
858,65	75,754
858,82	72,661
858,99	45,815
859,16	74,357
859,32	63,370
859,49	46,591
859,66	61,098
859,83	57,345
859,99	52,430
860,16	53,720
860,33	61,029
860,49	61,292
860,66	66,884
860,83	52,496
861,00	54,202
861,16	71,729
861,33	59,625
861,50	42,179
861,66	70,555
861,83	81,057
862,00	69,591
862,16	70,656
862,33	42,881
862,50	90,018
862,67	62,845
862,83	45,539
863,00	77,075
863,17	86,736
863,33	62,033
863,50	40,811
863,67	48,695
863,83	73,008
864,00	66,748
864,17	34,736
864,33	49,216
864,50	75,769
864,67	58,141
864,83	43,913
865,00	50,091
865,17	48,951
865,33	73,697
865,50	41,490
865,67	47,158
865,83	70,850
866,00	83,846
866,17	64,176
866,33	64,326
866,50	91,578
866,66	75,738
866,83	52,239
867,00	72,744
867,16	76,451
867,33	83,373
867,50	41,359
867,66	53,396
867,83	67,127
868,00	92,180
868,16	48,373
868,33	61,092
868,49	74,315
868,66	69,633
868,83	58,239
868,99	64,331
869,16	75,905
869,32	87,297
869,49	53,359
869,66	40,682
869,82	67,758
869,99	72,151
870,15	55,329
870,32	88,566
870,49	72,982
870,65	127,310
870,82	59,906
870,98	63,984
871,15	94,656
871,32	64,324
871,48	22,779
871,65	47,722
871,81	66,036
871,98	37,947
872,15	55,314
872,31	38,032
872,48	134,329
872,64	78,003
872,81	47,123
872,97	68,968
873,14	100,603
873,31	77,623
873,47	63,327
873,64	70,859
873,80	98,839
873,97	114,099
874,13	46,308
874,30	63,965
874,46	89,295
874,63	87,261
874,80	49,768
874,96	33,494
875,13	126,996
875,29	79,779
875,46	99,141
875,62	26,220
875,79	110,341
875,95	63,577
876,12	50,340
876,28	18,264
876,45	122,989
876,61	63,764
876,78	52,247
876,94	50,401
877,11	117,932
877,27	100,061
877,44	73,096
877,60	64,472
877,77	121,101
877,94	104,469
878,10	47,570
878,27	87,108
878,43	112,812
878,60	66,519
878,76	67,160
878,93	12,808
879,09	104,238
879,26	75,626
879,42	58,798
879,58	98,908
879,75	103,886
879,91	126,736
880,08	-40,609
880,24	69,216
880,41	82,361
880,57	115,233
880,74	55,025
880,90	28,305
881,07	57,498
881,23	107,816
881,40	88,136
881,56	66,732
881,73	115,843
881,89	96,442
882,06	53,049
882,22	171,340
882,38	131,645
882,55	138,620
882,71	71,686
882,88	16,020
883,04	157,860
883,21	139,319
883,37	95,650
883,54	85,675
883,70	209,708
883,86	108,251
884,03	83,679
884,19	26,405
884,36	213,196
884,52	159,020
884,69	66,787
884,85	56,988
885,01	144,372
885,18	108,324
885,34	108,414
885,51	-29,074
885,67	104,066
>>>>> Data<<<<< Espectral Procesado Extremo
