Fichero De Datos De SpectraSuite
++++++++++++++++++++++++++++++++++++
Fecha: Wed Apr 22 11:52:33 CEST 2009
Usuario: evoflor
Presente Oscuro Del Espectro: Sí
La Referencia de Presente Del Espectro De: Sí
Muestreados de los componentes de Número de espectros: 1
Espectrómetros: USB4F02353
Tiempo de integración (usec): 500000 (USB4F02353)
Promedio de Espectros Hechos un: 5 (USB4F02353)
El Alisar Del Furgón: 0 (USB4F02353)
Párrafo de de Corregir del la del del de Eléctrica del obscuridad: Sí (USB4F02353)
Estrobo/Lámpara Permitido: No (USB4F02353)
Correct for Detector Non-linearity: No (USB4F02353)
Párrafo de de Corregir del la del del de Externa del luz: No (USB4F02353)
Procesado del espectro de Número de pixeles en: 3648
>>>>> Comienza Data<<<<< Espectral Procesado Del EL
177,79	394,357
178,00	394,357
178,22	394,357
178,44	1273,956
178,66	-135,623
178,88	360,033
179,09	-88,809
179,31	148,991
179,53	323,746
179,75	260,753
179,96	839,397
180,18	-454,677
180,40	292,898
180,62	446,870
180,83	78,802
181,05	-1758,171
181,27	-188270,000
181,49	-64,935
181,70	301,808
181,92	809,492
182,14	542,681
182,36	85,717
182,58	-811,700
182,79	760,134
183,01	27,737
183,23	79,036
183,45	-61,446
183,66	-80,398
183,88	191,588
184,10	-4257,636
184,32	62,797
184,53	296,777
184,75	-19,624
184,97	61,394
185,18	-184,718
185,40	-476,779
185,62	146,194
185,84	75,044
186,05	187,711
186,27	-76,782
186,49	2187,308
186,71	-32,639
186,92	135,151
187,14	-176,614
187,36	137,573
187,58	72,374
187,79	20,258
188,01	303,509
188,23	-238,267
188,45	28,666
188,66	-99,688
188,88	-2261,273
189,10	-2539,700
189,31	28,891
189,53	6,880
189,75	317,432
189,97	-44,346
190,18	-49,485
190,40	588,647
190,62	-118,312
190,83	-301,498
191,05	130,477
191,27	255,057
191,49	488,292
191,70	-788,317
191,92	-62,458
192,14	-92,869
192,35	664,111
192,57	2884,857
192,79	104,433
193,01	221,595
193,22	67,490
193,44	-80,154
193,66	98,881
193,87	31,199
194,09	-64,820
194,31	201,503
194,53	1146,643
194,74	94,629
194,96	136,023
195,18	118,390
195,39	-404,142
195,61	-116,578
195,83	-219,500
196,04	112,763
196,26	-312,915
196,48	3,155
196,70	238,310
196,91	75,038
197,13	93,848
197,35	-107,470
197,56	646,966
197,78	1431,866
198,00	794,196
198,21	276,068
198,43	-942,849
198,65	188,172
198,86	631,906
199,08	145,148
199,30	335,567
199,51	-416,840
199,73	244,180
199,95	347,946
200,16	658,346
200,38	226,271
200,60	18,217
200,81	347,259
201,03	230,353
201,25	-541,700
201,46	233,727
201,68	12,036
201,90	1578,864
202,11	-478,130
202,33	168,348
202,55	148,375
202,76	-3,284
202,98	144,843
203,20	-256,106
203,41	-664,053
203,63	52,667
203,85	-135170,000
204,06	108,979
204,28	-208,602
204,50	198,605
204,71	375,565
204,93	58,960
205,15	317,681
205,36	-156,922
205,58	370,000
205,80	-133,936
206,01	61,265
206,23	183,514
206,45	240,911
206,66	152,117
206,88	-47,176
207,10	417,659
207,31	356,649
207,53	201,057
207,75	64,797
207,96	1465,448
208,18	-229,130
208,39	79,667
208,61	2242,000
208,83	-433,393
209,04	135,268
209,26	73,871
209,48	388,608
209,69	175,919
209,91	477,939
210,13	78,184
210,34	159,492
210,56	178,760
210,77	-1326,535
210,99	150,318
211,21	8057,059
211,42	-65,942
211,64	-12,604
211,86	321,391
212,07	160,217
212,29	236,737
212,50	106,193
212,72	530,269
212,94	87,627
213,15	158,279
213,37	135,984
213,58	-225,876
213,80	-1066,786
214,02	12715,882
214,23	305,785
214,45	274,984
214,67	-1835,000
214,88	-362,987
215,10	-139,736
215,31	-84,127
215,53	-42,568
215,75	289,861
215,96	1499,193
216,18	-225,775
216,39	249,332
216,61	354,083
216,83	0,759
217,04	1862,584
217,26	-31,661
217,47	121,816
217,69	308,532
217,91	32,036
218,12	-14570,000
218,34	189,071
218,55	532,812
218,77	18,888
218,99	111,994
219,20	-56,778
219,42	282,881
219,63	-178,827
219,85	-120,069
220,06	-23,577
220,28	198,652
220,50	60,518
220,71	51,204
220,93	2227,736
221,14	-1774,700
221,36	-143,155
221,58	7,873
221,79	61,429
222,01	645,431
222,22	1143,882
222,44	-149,775
222,65	90,572
222,87	567,622
223,09	146,802
223,30	91,633
223,52	30,020
223,73	133,338
223,95	38,268
224,16	107,979
224,38	461,066
224,60	128,204
224,81	225,916
225,03	57,676
225,24	176,823
225,46	60,083
225,67	-18,764
225,89	9,647
226,10	361,054
226,32	973,360
226,54	36,198
226,75	12,580
226,97	108,477
227,18	144,075
227,40	76,051
227,61	61,468
227,83	48,117
228,04	89,021
228,26	51,582
228,47	58,094
228,69	263,567
228,91	49,325
229,12	-6,334
229,34	38,790
229,55	40,013
229,77	40,165
229,98	-8,651
230,20	53,016
230,41	-8,822
230,63	125,436
230,84	26,913
231,06	40,254
231,27	40,527
231,49	63,577
231,71	23,935
231,92	29,515
232,14	17,714
232,35	97,007
232,57	41,604
232,78	27,230
233,00	48,463
233,21	12,451
233,43	8,894
233,64	20,751
233,86	31,111
234,07	24,178
234,29	19,639
234,50	8,925
234,72	43,736
234,93	19,961
235,15	28,663
235,36	29,838
235,58	47,797
235,79	42,664
236,01	26,003
236,22	12,492
236,44	51,906
236,65	18,395
236,87	28,604
237,08	6,599
237,30	5,698
237,51	24,518
237,73	11,913
237,94	13,378
238,16	10,548
238,37	11,253
238,59	19,114
238,80	17,884
239,02	6,971
239,23	23,019
239,45	-0,588
239,66	22,735
239,88	34,307
240,09	24,383
240,31	8,346
240,52	8,544
240,74	12,346
240,95	15,712
241,17	4,825
241,38	11,013
241,60	15,484
241,81	21,122
242,03	15,774
242,24	8,390
242,46	21,949
242,67	7,472
242,89	8,361
243,10	14,964
243,32	17,430
243,53	10,743
243,75	9,493
243,96	11,902
244,18	10,131
244,39	12,487
244,60	10,868
244,82	-2,651
245,03	24,998
245,25	12,343
245,46	28,078
245,68	5,334
245,89	18,011
246,11	6,931
246,32	12,538
246,54	6,505
246,75	9,734
246,97	16,971
247,18	20,763
247,39	2,349
247,61	10,580
247,82	3,559
248,04	6,162
248,25	7,057
248,47	11,993
248,68	12,456
248,90	3,814
249,11	8,564
249,33	15,928
249,54	6,373
249,75	7,849
249,97	1,869
250,18	20,127
250,40	15,028
250,61	-4,273
250,83	6,518
251,04	1,279
251,25	13,097
251,47	3,179
251,68	9,451
251,90	9,619
252,11	12,143
252,33	0,202
252,54	4,361
252,76	7,659
252,97	4,200
253,18	2,536
253,40	5,473
253,61	0,769
253,83	11,842
254,04	5,700
254,25	6,069
254,47	3,335
254,68	10,997
254,90	6,134
255,11	7,102
255,33	8,411
255,54	3,153
255,75	5,244
255,97	4,659
256,18	3,487
256,40	6,728
256,61	7,562
256,82	-3,429
257,04	13,465
257,25	0,854
257,47	6,551
257,68	3,414
257,89	8,823
258,11	12,239
258,32	10,125
258,54	7,759
258,75	13,319
258,96	10,790
259,18	3,183
259,39	2,714
259,61	8,359
259,82	8,515
260,03	7,420
260,25	6,807
260,46	4,290
260,68	5,221
260,89	2,488
261,10	5,109
261,32	9,081
261,53	1,842
261,75	8,638
261,96	-0,450
262,17	11,736
262,39	13,064
262,60	5,337
262,81	0,755
263,03	9,885
263,24	8,424
263,46	1,894
263,67	6,587
263,88	8,508
264,10	8,616
264,31	0,423
264,52	5,723
264,74	8,713
264,95	5,698
265,17	7,752
265,38	8,278
265,59	10,169
265,81	9,968
266,02	3,911
266,23	1,772
266,45	13,264
266,66	9,507
266,87	12,129
267,09	5,338
267,30	10,858
267,52	6,741
267,73	2,427
267,94	7,740
268,16	8,142
268,37	4,476
268,58	7,169
268,80	5,010
269,01	5,057
269,22	8,456
269,44	6,043
269,65	7,134
269,86	6,129
270,08	9,716
270,29	2,203
270,50	5,230
270,72	7,344
270,93	5,036
271,14	2,235
271,36	4,116
271,57	10,754
271,78	6,760
272,00	8,411
272,21	5,969
272,42	6,543
272,64	7,783
272,85	3,893
273,06	1,028
273,28	6,250
273,49	7,219
273,70	8,815
273,92	7,213
274,13	8,642
274,34	7,064
274,56	6,171
274,77	4,920
274,98	6,724
275,20	9,312
275,41	7,091
275,62	6,750
275,84	8,007
276,05	11,432
276,26	2,475
276,47	3,790
276,69	9,910
276,90	6,743
277,11	7,207
277,33	2,747
277,54	7,978
277,75	9,522
277,97	4,363
278,18	0,006
278,39	5,980
278,61	5,768
278,82	6,212
279,03	3,539
279,24	7,829
279,46	4,993
279,67	10,112
279,88	7,308
280,10	9,224
280,31	4,993
280,52	5,853
280,73	2,445
280,95	9,759
281,16	5,565
281,37	9,298
281,59	8,313
281,80	13,491
282,01	4,327
282,22	3,807
282,44	4,025
282,65	8,585
282,86	9,559
283,08	4,904
283,29	6,239
283,50	3,966
283,71	7,463
283,93	4,112
284,14	9,664
284,35	3,820
284,56	9,866
284,78	4,165
284,99	6,282
285,20	11,448
285,42	6,721
285,63	6,385
285,84	3,267
286,05	4,843
286,27	7,874
286,48	3,159
286,69	4,712
286,90	3,666
287,12	7,202
287,33	2,609
287,54	4,980
287,75	8,802
287,97	6,329
288,18	3,485
288,39	2,466
288,60	4,987
288,82	5,982
289,03	2,337
289,24	5,619
289,45	10,604
289,67	6,774
289,88	4,720
290,09	4,796
290,30	6,777
290,52	4,285
290,73	2,239
290,94	2,808
291,15	3,264
291,37	6,894
291,58	5,175
291,79	3,234
292,00	5,867
292,21	7,889
292,43	2,545
292,64	2,946
292,85	5,067
293,06	8,469
293,28	1,609
293,49	2,935
293,70	7,402
293,91	2,693
294,12	4,447
294,34	7,085
294,55	5,154
294,76	5,085
294,97	6,535
295,19	2,904
295,40	6,615
295,61	6,187
295,82	0,134
296,03	7,837
296,25	6,947
296,46	2,893
296,67	1,718
296,88	0,233
297,09	8,973
297,31	5,212
297,52	5,105
297,73	2,508
297,94	9,401
298,15	8,976
298,37	4,725
298,58	7,616
298,79	6,443
299,00	3,584
299,21	4,015
299,43	4,576
299,64	6,761
299,85	6,324
300,06	0,924
300,27	2,967
300,49	8,422
300,70	5,234
300,91	3,436
301,12	3,012
301,33	7,526
301,54	3,976
301,76	4,520
301,97	4,233
302,18	4,507
302,39	7,868
302,60	12,283
302,82	4,523
303,03	8,509
303,24	4,739
303,45	5,053
303,66	4,994
303,87	4,972
304,09	8,113
304,30	5,570
304,51	4,687
304,72	3,568
304,93	3,141
305,14	5,772
305,36	0,346
305,57	2,917
305,78	4,425
305,99	3,553
306,20	3,419
306,41	4,008
306,62	1,348
306,84	2,979
307,05	0,886
307,26	4,787
307,47	8,942
307,68	2,799
307,89	4,645
308,11	6,783
308,32	4,392
308,53	6,735
308,74	1,950
308,95	3,561
309,16	5,734
309,37	7,957
309,59	3,452
309,80	5,225
310,01	5,383
310,22	7,011
310,43	3,892
310,64	3,776
310,85	5,796
311,06	3,294
311,28	7,417
311,49	5,112
311,70	7,258
311,91	3,419
312,12	5,335
312,33	4,689
312,54	6,399
312,75	4,325
312,97	3,443
313,18	6,395
313,39	3,729
313,60	6,673
313,81	5,094
314,02	5,689
314,23	4,704
314,44	2,077
314,65	4,863
314,87	2,111
315,08	4,434
315,29	6,519
315,50	5,122
315,71	6,313
315,92	8,377
316,13	7,110
316,34	5,123
316,55	5,406
316,77	2,124
316,98	4,056
317,19	4,355
317,40	7,249
317,61	7,356
317,82	2,976
318,03	3,026
318,24	6,869
318,45	8,090
318,66	2,483
318,87	2,326
319,09	6,090
319,30	4,619
319,51	6,468
319,72	6,345
319,93	7,062
320,14	5,573
320,35	7,542
320,56	4,250
320,77	4,033
320,98	9,392
321,19	4,277
321,40	5,878
321,62	5,189
321,83	5,903
322,04	4,422
322,25	5,321
322,46	7,822
322,67	6,043
322,88	7,247
323,09	4,580
323,30	7,300
323,51	5,511
323,72	6,509
323,93	5,004
324,14	5,125
324,35	1,691
324,56	2,356
324,77	3,797
324,99	5,613
325,20	1,599
325,41	3,730
325,62	2,836
325,83	4,426
326,04	3,049
326,25	6,992
326,46	2,989
326,67	5,396
326,88	7,796
327,09	3,070
327,30	2,565
327,51	6,278
327,72	4,389
327,93	5,311
328,14	2,989
328,35	5,523
328,56	6,633
328,77	4,128
328,98	7,456
329,19	5,139
329,40	5,340
329,61	5,904
329,82	2,741
330,04	2,773
330,25	4,578
330,46	4,703
330,67	1,868
330,88	3,918
331,09	3,791
331,30	2,605
331,51	4,134
331,72	6,035
331,93	6,285
332,14	5,868
332,35	6,363
332,56	2,560
332,77	6,106
332,98	0,478
333,19	2,344
333,40	8,043
333,61	5,372
333,82	7,735
334,03	5,103
334,24	7,230
334,45	6,386
334,66	6,993
334,87	5,864
335,08	4,616
335,29	4,193
335,50	5,199
335,71	2,837
335,92	7,175
336,13	7,651
336,34	2,233
336,55	4,804
336,76	9,849
336,97	6,724
337,18	3,881
337,39	3,793
337,60	7,108
337,81	2,183
338,02	3,702
338,23	1,954
338,44	5,993
338,65	5,826
338,86	8,555
339,07	5,808
339,28	6,396
339,49	2,661
339,70	3,923
339,91	4,358
340,11	8,869
340,32	2,448
340,53	0,273
340,74	0,032
340,95	3,311
341,16	5,180
341,37	3,836
341,58	2,303
341,79	3,466
342,00	5,163
342,21	2,733
342,42	5,203
342,63	6,817
342,84	2,185
343,05	5,618
343,26	6,729
343,47	3,139
343,68	4,574
343,89	4,775
344,10	5,181
344,31	8,323
344,52	3,877
344,73	4,495
344,94	4,471
345,14	7,312
345,35	7,853
345,56	2,298
345,77	5,477
345,98	5,986
346,19	4,278
346,40	6,909
346,61	1,816
346,82	4,370
347,03	4,904
347,24	5,558
347,45	5,942
347,66	6,983
347,87	3,666
348,08	4,676
348,28	2,287
348,49	4,416
348,70	7,883
348,91	4,898
349,12	2,715
349,33	17,614
349,54	4,965
349,75	7,592
349,96	4,320
350,17	7,267
350,38	5,121
350,59	6,118
350,80	5,464
351,00	2,915
351,21	8,731
351,42	6,085
351,63	5,724
351,84	8,211
352,05	9,603
352,26	5,749
352,47	3,801
352,68	7,240
352,89	6,843
353,09	7,575
353,30	2,233
353,51	4,949
353,72	7,776
353,93	4,974
354,14	2,656
354,35	5,264
354,56	11,386
354,77	4,556
354,98	2,578
355,18	8,616
355,39	12,984
355,60	3,325
355,81	5,345
356,02	6,293
356,23	6,002
356,44	5,013
356,65	6,944
356,85	9,772
357,06	7,540
357,27	6,199
357,48	4,983
357,69	7,109
357,90	8,107
358,11	5,635
358,32	2,005
358,52	5,318
358,73	5,294
358,94	4,883
359,15	5,872
359,36	7,432
359,57	4,041
359,78	6,792
359,98	4,959
360,19	2,325
360,40	7,203
360,61	6,243
360,82	7,013
361,03	9,081
361,24	6,690
361,44	2,940
361,65	8,846
361,86	4,427
362,07	6,400
362,28	4,739
362,49	3,870
362,70	6,671
362,90	7,613
363,11	4,574
363,32	4,012
363,53	7,806
363,74	11,351
363,95	6,510
364,15	6,753
364,36	7,633
364,57	7,724
364,78	4,671
364,99	5,338
365,20	7,384
365,40	9,256
365,61	3,534
365,82	9,412
366,03	7,791
366,24	6,483
366,45	6,446
366,65	6,035
366,86	9,296
367,07	7,802
367,28	5,936
367,49	6,389
367,69	9,423
367,90	6,880
368,11	7,425
368,32	4,065
368,53	8,260
368,73	6,162
368,94	6,246
369,15	6,805
369,36	9,557
369,57	6,116
369,78	3,909
369,98	6,998
370,19	10,202
370,40	7,423
370,61	6,563
370,82	5,507
371,02	8,552
371,23	11,706
371,44	7,582
371,65	9,747
371,85	10,734
372,06	5,881
372,27	4,932
372,48	8,438
372,69	7,826
372,89	10,010
373,10	7,294
373,31	4,861
373,52	10,815
373,73	10,784
373,93	9,352
374,14	7,554
374,35	12,216
374,56	9,102
374,76	8,862
374,97	5,452
375,18	8,869
375,39	9,134
375,60	9,549
375,80	7,780
376,01	7,523
376,22	10,003
376,43	7,274
376,63	6,667
376,84	7,790
377,05	10,583
377,26	5,379
377,46	7,565
377,67	8,954
377,88	11,437
378,09	7,491
378,29	5,925
378,50	9,051
378,71	9,651
378,92	8,334
379,12	10,060
379,33	11,321
379,54	10,529
379,75	11,926
379,95	6,126
380,16	11,243
380,37	13,147
380,58	8,810
380,78	12,277
380,99	9,400
381,20	7,448
381,41	9,545
381,61	7,727
381,82	11,849
382,03	10,206
382,24	9,202
382,44	11,410
382,65	10,603
382,86	9,917
383,06	8,724
383,27	10,673
383,48	9,657
383,69	12,054
383,89	13,697
384,10	14,890
384,31	10,500
384,51	13,709
384,72	14,096
384,93	11,417
385,14	10,659
385,34	11,941
385,55	13,034
385,76	9,556
385,96	12,241
386,17	11,987
386,38	11,025
386,59	11,599
386,79	10,863
387,00	17,898
387,21	18,231
387,41	9,820
387,62	13,480
387,83	19,000
388,03	12,392
388,24	10,700
388,45	13,309
388,66	15,172
388,86	12,826
389,07	11,344
389,28	17,712
389,48	16,051
389,69	13,209
389,90	12,068
390,10	15,825
390,31	17,082
390,52	9,233
390,72	11,393
390,93	14,226
391,14	11,655
391,34	14,997
391,55	15,377
391,76	19,343
391,96	15,799
392,17	10,332
392,38	18,034
392,58	16,534
392,79	14,559
393,00	13,291
393,20	14,223
393,41	13,461
393,62	18,284
393,82	13,946
394,03	14,359
394,24	14,815
394,44	17,774
394,65	18,054
394,86	12,704
395,06	18,680
395,27	18,627
395,48	13,127
395,68	17,680
395,89	17,194
396,10	18,076
396,30	15,744
396,51	13,154
396,72	20,477
396,92	14,244
397,13	16,792
397,34	15,030
397,54	15,110
397,75	14,490
397,95	12,099
398,16	18,973
398,37	17,995
398,57	16,608
398,78	17,562
398,99	17,948
399,19	19,836
399,40	21,505
399,60	16,046
399,81	15,650
400,02	18,942
400,22	21,482
400,43	16,408
400,64	16,618
400,84	15,813
401,05	16,628
401,25	24,879
401,46	19,200
401,67	20,671
401,87	21,514
402,08	16,337
402,29	18,638
402,49	23,235
402,70	22,775
402,90	16,271
403,11	19,448
403,32	23,020
403,52	16,921
403,73	21,002
403,93	21,083
404,14	23,106
404,35	21,763
404,55	14,060
404,76	17,176
404,96	19,832
405,17	23,795
405,38	23,079
405,58	18,513
405,79	22,798
405,99	24,404
406,20	21,253
406,40	18,266
406,61	23,382
406,82	20,487
407,02	24,053
407,23	20,113
407,43	22,011
407,64	22,005
407,85	23,384
408,05	18,202
408,26	26,766
408,46	26,405
408,67	17,241
408,87	21,854
409,08	23,361
409,29	25,491
409,49	25,891
409,70	22,715
409,90	22,891
410,11	22,084
410,31	25,813
410,52	26,516
410,72	19,783
410,93	25,594
411,14	20,780
411,34	17,720
411,55	24,574
411,75	25,251
411,96	24,811
412,16	24,398
412,37	22,623
412,57	24,107
412,78	24,858
412,99	19,642
413,19	24,070
413,40	24,504
413,60	17,983
413,81	23,978
414,01	25,360
414,22	21,058
414,42	19,437
414,63	21,677
414,83	24,446
415,04	29,036
415,24	25,701
415,45	22,928
415,65	20,661
415,86	22,365
416,07	21,503
416,27	25,932
416,48	27,604
416,68	25,706
416,89	21,305
417,09	20,253
417,30	27,112
417,50	24,944
417,71	26,176
417,91	24,477
418,12	20,305
418,32	22,391
418,53	22,449
418,73	23,338
418,94	25,278
419,14	28,227
419,35	22,742
419,55	23,560
419,76	27,268
419,96	24,317
420,17	21,539
420,37	22,730
420,58	30,834
420,78	25,144
420,99	26,864
421,19	25,587
421,40	25,928
421,60	31,411
421,81	20,819
422,01	24,472
422,22	25,062
422,42	24,792
422,63	26,536
422,83	26,612
423,04	27,594
423,24	29,214
423,45	21,131
423,65	28,569
423,86	29,096
424,06	28,869
424,27	22,342
424,47	24,244
424,67	20,761
424,88	26,902
425,08	23,163
425,29	28,327
425,49	24,905
425,70	21,544
425,90	27,307
426,11	22,367
426,31	26,458
426,52	25,339
426,72	24,066
426,93	23,535
427,13	27,714
427,33	25,950
427,54	25,366
427,74	30,173
427,95	29,222
428,15	23,889
428,36	25,991
428,56	24,170
428,77	29,497
428,97	24,475
429,18	29,109
429,38	23,114
429,58	26,884
429,79	27,063
429,99	26,416
430,20	20,864
430,40	28,667
430,61	22,828
430,81	23,769
431,01	26,752
431,22	24,827
431,42	30,366
431,63	22,964
431,83	25,164
432,04	27,393
432,24	28,273
432,44	22,630
432,65	22,276
432,85	24,054
433,06	25,889
433,26	25,186
433,47	24,761
433,67	23,767
433,87	24,109
434,08	20,825
434,28	23,048
434,49	24,247
434,69	24,177
434,89	21,677
435,10	24,916
435,30	27,295
435,51	25,224
435,71	23,262
435,91	23,414
436,12	25,641
436,32	27,213
436,53	22,840
436,73	23,358
436,93	25,926
437,14	23,721
437,34	28,266
437,55	23,161
437,75	26,536
437,95	29,343
438,16	23,868
438,36	24,412
438,57	23,514
438,77	24,100
438,97	27,822
439,18	27,774
439,38	26,646
439,58	24,049
439,79	23,866
439,99	21,157
440,20	26,665
440,40	27,618
440,60	28,772
440,81	24,815
441,01	29,838
441,21	26,479
441,42	25,468
441,62	31,689
441,83	30,783
442,03	22,605
442,23	27,225
442,44	26,403
442,64	26,697
442,84	24,781
443,05	28,478
443,25	23,490
443,45	24,085
443,66	24,108
443,86	22,282
444,06	21,105
444,27	26,178
444,47	24,778
444,67	24,885
444,88	29,232
445,08	24,141
445,28	26,726
445,49	23,896
445,69	22,346
445,90	27,729
446,10	33,354
446,30	29,417
446,51	26,831
446,71	29,625
446,91	26,655
447,12	32,064
447,32	25,422
447,52	25,680
447,72	24,174
447,93	25,592
448,13	25,055
448,33	31,690
448,54	28,685
448,74	24,944
448,94	28,400
449,15	30,547
449,35	28,547
449,55	24,840
449,76	29,716
449,96	27,540
450,16	29,928
450,37	25,791
450,57	24,012
450,77	25,992
450,98	25,719
451,18	28,166
451,38	27,323
451,58	28,660
451,79	27,933
451,99	31,928
452,19	27,697
452,40	29,314
452,60	25,245
452,80	22,706
453,00	29,882
453,21	29,757
453,41	27,434
453,61	26,994
453,82	26,955
454,02	26,999
454,22	31,224
454,42	26,977
454,63	25,134
454,83	23,481
455,03	30,255
455,24	28,635
455,44	27,498
455,64	26,371
455,84	26,181
456,05	26,292
456,25	22,213
456,45	29,525
456,65	22,842
456,86	26,635
457,06	30,074
457,26	34,863
457,47	36,933
457,67	28,465
457,87	25,726
458,07	25,960
458,28	29,815
458,48	30,365
458,68	25,735
458,88	28,691
459,09	32,232
459,29	29,686
459,49	27,608
459,69	28,664
459,90	30,763
460,10	24,686
460,30	26,729
460,50	27,541
460,71	33,342
460,91	21,933
461,11	26,363
461,31	23,342
461,52	33,176
461,72	30,312
461,92	25,861
462,12	33,264
462,32	25,204
462,53	24,590
462,73	26,864
462,93	29,426
463,13	26,813
463,34	28,747
463,54	26,297
463,74	31,281
463,94	29,415
464,14	28,731
464,35	23,387
464,55	31,654
464,75	26,017
464,95	31,892
465,16	22,226
465,36	32,703
465,56	29,074
465,76	28,418
465,96	28,504
466,17	28,523
466,37	25,927
466,57	32,729
466,77	27,410
466,97	27,501
467,18	30,984
467,38	31,674
467,58	25,120
467,78	36,217
467,98	33,112
468,19	29,380
468,39	30,300
468,59	29,463
468,79	28,417
468,99	27,921
469,19	25,542
469,40	30,323
469,60	20,336
469,80	24,635
470,00	32,743
470,20	32,624
470,41	32,207
470,61	31,883
470,81	28,728
471,01	25,045
471,21	34,879
471,41	26,749
471,62	27,495
471,82	25,035
472,02	26,047
472,22	27,172
472,42	28,060
472,62	28,765
472,83	29,328
473,03	30,086
473,23	28,164
473,43	35,413
473,63	32,785
473,83	29,718
474,03	26,306
474,24	33,744
474,44	30,178
474,64	26,997
474,84	26,725
475,04	31,848
475,24	32,572
475,45	28,284
475,65	27,204
475,85	35,040
476,05	27,755
476,25	28,408
476,45	30,547
476,65	32,881
476,85	30,302
477,06	28,500
477,26	27,353
477,46	28,481
477,66	28,864
477,86	30,061
478,06	27,040
478,26	35,352
478,46	29,237
478,67	33,838
478,87	29,950
479,07	28,068
479,27	33,025
479,47	28,549
479,67	23,247
479,87	27,638
480,07	31,502
480,28	28,897
480,48	27,900
480,68	32,370
480,88	36,661
481,08	32,164
481,28	33,968
481,48	32,850
481,68	29,535
481,88	29,451
482,08	28,059
482,29	33,501
482,49	26,131
482,69	30,676
482,89	28,648
483,09	32,645
483,29	28,770
483,49	28,631
483,69	31,194
483,89	27,579
484,09	27,227
484,29	27,730
484,50	28,876
484,70	30,986
484,90	29,728
485,10	29,623
485,30	31,411
485,50	31,327
485,70	28,721
485,90	26,137
486,10	26,005
486,30	29,733
486,50	29,313
486,70	29,083
486,90	26,984
487,10	33,644
487,30	27,939
487,51	31,026
487,71	27,177
487,91	27,350
488,11	29,975
488,31	25,736
488,51	31,501
488,71	29,863
488,91	32,480
489,11	26,957
489,31	29,263
489,51	30,904
489,71	29,629
489,91	30,330
490,11	29,705
490,31	30,716
490,51	32,480
490,71	30,903
490,91	28,687
491,11	30,764
491,31	34,347
491,51	29,406
491,72	28,969
491,92	33,064
492,12	32,342
492,32	32,924
492,52	31,839
492,72	32,326
492,92	29,690
493,12	32,513
493,32	30,156
493,52	28,235
493,72	31,801
493,92	29,899
494,12	32,920
494,32	32,259
494,52	28,729
494,72	32,025
494,92	27,472
495,12	32,088
495,32	34,068
495,52	31,113
495,72	32,366
495,92	34,441
496,12	35,782
496,32	32,448
496,52	32,099
496,72	34,843
496,92	32,507
497,12	33,270
497,32	33,704
497,52	34,467
497,72	34,259
497,92	32,375
498,12	32,732
498,32	31,687
498,52	32,986
498,72	29,813
498,92	31,005
499,12	34,600
499,32	32,364
499,52	32,530
499,72	33,904
499,92	34,864
500,12	34,330
500,32	34,661
500,52	33,485
500,72	37,975
500,91	37,391
501,11	33,863
501,31	28,878
501,51	35,392
501,71	36,397
501,91	36,070
502,11	32,580
502,31	34,146
502,51	37,347
502,71	32,343
502,91	33,225
503,11	34,125
503,31	35,231
503,51	33,023
503,71	32,989
503,91	35,487
504,11	36,153
504,31	35,863
504,51	36,099
504,71	36,832
504,91	33,597
505,10	35,208
505,30	36,374
505,50	34,024
505,70	32,711
505,90	33,833
506,10	32,547
506,30	35,159
506,50	35,224
506,70	36,807
506,90	33,473
507,10	37,168
507,30	33,214
507,50	35,340
507,70	36,955
507,89	37,352
508,09	33,903
508,29	33,997
508,49	35,649
508,69	34,757
508,89	34,144
509,09	31,697
509,29	36,111
509,49	38,219
509,69	39,987
509,89	34,864
510,09	33,069
510,28	35,274
510,48	37,470
510,68	34,654
510,88	32,625
511,08	33,298
511,28	36,341
511,48	32,064
511,68	33,228
511,88	32,662
512,07	33,887
512,27	35,551
512,47	34,976
512,67	34,932
512,87	32,963
513,07	35,277
513,27	32,338
513,47	33,649
513,67	30,607
513,86	33,785
514,06	36,443
514,26	34,418
514,46	37,733
514,66	34,970
514,86	37,187
515,06	38,195
515,26	36,704
515,45	34,695
515,65	31,527
515,85	35,765
516,05	36,026
516,25	34,482
516,45	37,584
516,65	33,835
516,84	35,424
517,04	38,394
517,24	33,906
517,44	34,652
517,64	37,719
517,84	37,524
518,04	35,783
518,23	37,557
518,43	37,795
518,63	34,763
518,83	33,658
519,03	37,252
519,23	35,733
519,42	35,200
519,62	34,139
519,82	35,569
520,02	34,978
520,22	35,042
520,42	33,924
520,61	37,620
520,81	37,932
521,01	39,868
521,21	32,730
521,41	36,257
521,61	37,612
521,80	31,276
522,00	33,921
522,20	39,289
522,40	36,387
522,60	34,154
522,79	36,738
522,99	36,795
523,19	33,742
523,39	34,558
523,59	35,205
523,78	39,878
523,98	34,798
524,18	35,501
524,38	32,718
524,58	34,482
524,77	40,638
524,97	36,943
525,17	34,837
525,37	35,301
525,57	37,461
525,76	36,062
525,96	35,965
526,16	34,403
526,36	33,808
526,56	36,067
526,75	34,161
526,95	37,294
527,15	33,994
527,35	36,293
527,55	33,853
527,74	37,220
527,94	32,497
528,14	34,437
528,34	34,011
528,53	36,084
528,73	34,086
528,93	34,586
529,13	34,170
529,32	36,283
529,52	36,501
529,72	32,121
529,92	34,901
530,12	34,293
530,31	32,974
530,51	36,085
530,71	35,887
530,91	37,586
531,10	30,107
531,30	32,890
531,50	34,485
531,70	34,987
531,89	33,692
532,09	35,073
532,29	34,465
532,49	35,024
532,68	35,291
532,88	33,284
533,08	32,213
533,28	34,160
533,47	32,943
533,67	34,404
533,87	30,692
534,06	38,765
534,26	35,335
534,46	32,353
534,66	32,626
534,85	35,188
535,05	29,021
535,25	31,627
535,45	32,508
535,64	34,546
535,84	34,685
536,04	32,204
536,23	32,311
536,43	35,665
536,63	32,900
536,83	34,418
537,02	32,983
537,22	31,721
537,42	31,034
537,61	31,229
537,81	34,158
538,01	35,727
538,20	34,492
538,40	31,094
538,60	32,849
538,80	33,384
538,99	33,194
539,19	31,773
539,39	30,939
539,58	31,747
539,78	30,719
539,98	31,502
540,17	29,551
540,37	29,936
540,57	27,596
540,76	28,181
540,96	28,539
541,16	30,706
541,36	26,694
541,55	24,738
541,75	26,321
541,95	26,670
542,14	26,715
542,34	26,050
542,54	24,973
542,73	26,173
542,93	27,755
543,13	25,365
543,32	25,683
543,52	26,467
543,72	24,456
543,91	27,059
544,11	26,317
544,31	26,331
544,50	27,536
544,70	26,435
544,89	26,293
545,09	28,639
545,29	27,291
545,48	27,483
545,68	24,992
545,88	28,224
546,07	26,621
546,27	26,347
546,47	30,386
546,66	30,945
546,86	29,563
547,06	28,614
547,25	28,344
547,45	30,421
547,64	31,693
547,84	31,865
548,04	31,758
548,23	31,798
548,43	34,208
548,63	32,963
548,82	31,158
549,02	30,656
549,21	28,999
549,41	31,289
549,61	33,587
549,80	31,499
550,00	33,285
550,20	29,630
550,39	33,208
550,59	31,370
550,78	33,144
550,98	30,027
551,18	33,187
551,37	32,597
551,57	31,159
551,76	31,272
551,96	33,659
552,16	32,806
552,35	32,425
552,55	33,465
552,74	34,741
552,94	34,554
553,14	32,270
553,33	32,137
553,53	34,040
553,72	32,067
553,92	34,161
554,12	31,758
554,31	33,992
554,51	32,920
554,70	31,885
554,90	33,766
555,09	36,126
555,29	32,414
555,49	33,123
555,68	35,717
555,88	31,410
556,07	35,881
556,27	33,630
556,46	32,158
556,66	31,046
556,86	36,359
557,05	33,922
557,25	32,876
557,44	31,952
557,64	33,526
557,83	33,403
558,03	33,733
558,22	32,682
558,42	33,566
558,62	34,767
558,81	32,287
559,01	34,207
559,20	33,459
559,40	32,710
559,59	33,070
559,79	29,415
559,98	35,145
560,18	34,688
560,37	34,178
560,57	36,195
560,76	32,401
560,96	31,764
561,16	34,652
561,35	32,911
561,55	36,917
561,74	34,455
561,94	32,939
562,13	33,357
562,33	36,180
562,52	33,285
562,72	32,115
562,91	32,028
563,11	33,609
563,30	36,030
563,50	32,987
563,69	31,884
563,89	32,636
564,08	34,875
564,28	32,158
564,47	32,259
564,67	31,803
564,86	32,277
565,06	34,187
565,25	32,323
565,45	33,513
565,64	36,363
565,84	31,765
566,03	32,078
566,23	33,404
566,42	32,993
566,62	34,019
566,81	33,427
567,01	33,073
567,20	34,776
567,40	32,727
567,59	32,620
567,79	35,429
567,98	37,290
568,18	34,984
568,37	33,409
568,57	34,685
568,76	36,409
568,96	34,245
569,15	31,563
569,35	34,095
569,54	36,905
569,73	33,964
569,93	33,687
570,12	31,753
570,32	34,063
570,51	33,204
570,71	33,592
570,90	37,654
571,10	31,971
571,29	32,673
571,49	31,971
571,68	33,489
571,87	34,145
572,07	33,372
572,26	30,923
572,46	34,058
572,65	33,964
572,85	30,336
573,04	33,731
573,24	34,213
573,43	36,080
573,62	36,021
573,82	33,346
574,01	35,013
574,21	33,920
574,40	30,838
574,60	30,000
574,79	35,641
574,98	34,095
575,18	34,520
575,37	30,848
575,57	34,231
575,76	33,584
575,96	34,479
576,15	32,553
576,34	33,953
576,54	35,270
576,73	35,158
576,93	34,349
577,12	33,054
577,31	33,678
577,51	32,983
577,70	32,875
577,90	34,212
578,09	32,976
578,28	33,017
578,48	32,970
578,67	34,522
578,87	32,470
579,06	32,463
579,25	33,603
579,45	33,462
579,64	31,536
579,84	33,574
580,03	31,375
580,22	34,899
580,42	31,778
580,61	34,165
580,81	31,628
581,00	33,547
581,19	34,014
581,39	33,252
581,58	32,704
581,77	33,256
581,97	34,521
582,16	32,116
582,35	31,778
582,55	32,215
582,74	34,948
582,94	34,008
583,13	30,220
583,32	32,470
583,52	33,354
583,71	32,650
583,90	32,628
584,10	31,703
584,29	34,758
584,48	31,360
584,68	32,046
584,87	33,178
585,06	33,601
585,26	32,259
585,45	31,047
585,65	34,531
585,84	31,236
586,03	31,905
586,23	32,522
586,42	32,254
586,61	32,607
586,81	31,230
587,00	31,574
587,19	30,535
587,39	34,269
587,58	32,039
587,77	32,638
587,97	31,214
588,16	32,024
588,35	32,370
588,54	32,909
588,74	31,443
588,93	33,722
589,12	32,028
589,32	32,990
589,51	33,440
589,70	31,053
589,90	31,833
590,09	33,660
590,28	36,111
590,48	30,554
590,67	32,889
590,86	31,765
591,06	31,471
591,25	33,925
591,44	33,346
591,63	31,662
591,83	34,341
592,02	32,749
592,21	32,540
592,41	29,678
592,60	33,979
592,79	32,633
592,98	31,578
593,18	33,237
593,37	31,255
593,56	32,737
593,76	31,796
593,95	32,451
594,14	32,235
594,33	34,620
594,53	32,911
594,72	32,498
594,91	35,406
595,10	33,779
595,30	32,855
595,49	31,917
595,68	33,627
595,88	33,583
596,07	32,665
596,26	32,520
596,45	32,225
596,65	28,588
596,84	31,597
597,03	32,710
597,22	33,635
597,42	35,123
597,61	33,827
597,80	32,237
597,99	33,354
598,19	32,986
598,38	32,428
598,57	32,896
598,76	34,983
598,95	34,977
599,15	33,557
599,34	33,060
599,53	32,864
599,72	34,789
599,92	35,169
600,11	33,168
600,30	33,205
600,49	34,405
600,69	32,868
600,88	33,363
601,07	33,214
601,26	35,100
601,45	33,277
601,65	32,697
601,84	33,351
602,03	33,494
602,22	33,972
602,42	33,914
602,61	34,443
602,80	33,876
602,99	34,043
603,18	30,702
603,38	34,191
603,57	32,143
603,76	32,054
603,95	31,993
604,14	33,850
604,34	33,881
604,53	33,292
604,72	33,492
604,91	32,947
605,10	34,769
605,29	33,594
605,49	31,483
605,68	32,657
605,87	33,646
606,06	32,200
606,25	32,123
606,45	33,362
606,64	32,740
606,83	33,196
607,02	32,970
607,21	34,406
607,40	33,913
607,60	32,065
607,79	31,531
607,98	29,875
608,17	31,804
608,36	30,104
608,55	30,951
608,75	32,067
608,94	31,986
609,13	27,691
609,32	27,800
609,51	28,992
609,70	27,904
609,89	29,646
610,09	28,545
610,28	30,350
610,47	28,287
610,66	28,215
610,85	27,819
611,04	28,601
611,23	26,868
611,43	28,804
611,62	28,207
611,81	27,275
612,00	29,274
612,19	26,947
612,38	28,325
612,57	29,682
612,77	29,379
612,96	28,052
613,15	29,536
613,34	31,347
613,53	31,555
613,72	31,087
613,91	29,573
614,10	30,455
614,29	31,459
614,49	29,494
614,68	30,167
614,87	32,251
615,06	34,496
615,25	28,678
615,44	31,796
615,63	31,388
615,82	30,234
616,01	30,241
616,21	29,744
616,40	30,793
616,59	32,483
616,78	30,921
616,97	32,349
617,16	32,820
617,35	33,044
617,54	31,454
617,73	32,801
617,92	30,841
618,11	33,199
618,31	29,216
618,50	33,002
618,69	31,070
618,88	30,910
619,07	31,136
619,26	29,123
619,45	32,150
619,64	30,349
619,83	31,085
620,02	30,415
620,21	32,867
620,40	32,806
620,59	30,895
620,78	29,964
620,97	32,289
621,17	31,889
621,36	29,962
621,55	30,772
621,74	32,534
621,93	30,902
622,12	31,803
622,31	30,114
622,50	30,808
622,69	33,500
622,88	30,926
623,07	34,225
623,26	30,854
623,45	34,178
623,64	30,155
623,83	30,796
624,02	32,894
624,21	32,614
624,40	32,249
624,59	30,211
624,78	32,444
624,97	33,697
625,16	30,757
625,35	29,271
625,54	28,979
625,73	30,831
625,92	31,755
626,12	32,483
626,31	33,351
626,50	31,367
626,69	31,696
626,88	30,925
627,07	32,044
627,26	31,960
627,45	29,879
627,64	29,949
627,83	33,267
628,02	31,010
628,21	30,147
628,40	30,246
628,59	33,752
628,78	28,930
628,97	29,658
629,16	30,445
629,35	29,128
629,54	33,337
629,73	30,542
629,92	30,821
630,10	31,052
630,29	31,096
630,48	31,142
630,67	30,840
630,86	31,698
631,05	30,536
631,24	32,195
631,43	29,118
631,62	30,528
631,81	30,672
632,00	32,185
632,19	29,763
632,38	30,003
632,57	27,029
632,76	28,913
632,95	31,432
633,14	32,643
633,33	32,932
633,52	30,660
633,71	31,394
633,90	29,908
634,09	33,008
634,28	30,626
634,47	31,990
634,66	31,085
634,85	29,563
635,04	32,983
635,22	30,577
635,41	30,072
635,60	32,271
635,79	32,759
635,98	28,914
636,17	30,575
636,36	29,745
636,55	30,094
636,74	28,957
636,93	31,816
637,12	31,448
637,31	31,836
637,50	30,319
637,69	32,037
637,87	32,359
638,06	29,266
638,25	31,412
638,44	31,407
638,63	29,687
638,82	32,165
639,01	32,633
639,20	29,763
639,39	30,999
639,58	29,748
639,77	32,269
639,95	29,430
640,14	32,408
640,33	30,668
640,52	31,257
640,71	32,588
640,90	30,918
641,09	33,244
641,28	29,658
641,47	31,982
641,66	30,164
641,84	32,206
642,03	30,974
642,22	32,045
642,41	33,510
642,60	31,493
642,79	31,155
642,98	31,384
643,17	30,422
643,35	30,639
643,54	31,664
643,73	30,318
643,92	31,566
644,11	30,280
644,30	30,231
644,49	31,554
644,67	31,207
644,86	29,269
645,05	32,538
645,24	30,823
645,43	32,579
645,62	31,881
645,81	31,482
645,99	32,593
646,18	32,440
646,37	30,495
646,56	30,845
646,75	33,015
646,94	32,870
647,13	29,560
647,31	30,935
647,50	31,467
647,69	33,637
647,88	31,297
648,07	30,821
648,26	35,210
648,44	30,317
648,63	30,707
648,82	30,924
649,01	33,355
649,20	29,837
649,38	31,755
649,57	30,571
649,76	30,335
649,95	32,705
650,14	28,408
650,33	30,136
650,51	30,115
650,70	32,521
650,89	31,445
651,08	30,176
651,27	31,871
651,45	28,824
651,64	29,240
651,83	31,270
652,02	29,780
652,21	30,344
652,39	32,205
652,58	31,307
652,77	30,401
652,96	32,513
653,15	31,716
653,33	30,735
653,52	31,844
653,71	33,839
653,90	30,936
654,09	31,486
654,27	32,145
654,46	34,359
654,65	32,177
654,84	32,441
655,02	32,997
655,21	33,057
655,40	33,384
655,59	31,534
655,77	33,160
655,96	32,102
656,15	32,782
656,34	33,973
656,53	32,372
656,71	32,840
656,90	33,205
657,09	33,007
657,28	33,566
657,46	31,963
657,65	32,433
657,84	31,178
658,03	33,068
658,21	31,960
658,40	30,637
658,59	31,249
658,78	32,996
658,96	30,508
659,15	32,076
659,34	30,379
659,52	32,590
659,71	32,066
659,90	28,652
660,09	30,642
660,27	30,290
660,46	32,187
660,65	32,134
660,84	30,626
661,02	32,103
661,21	30,841
661,40	29,782
661,58	30,811
661,77	30,175
661,96	29,515
662,15	31,392
662,33	31,041
662,52	29,135
662,71	31,532
662,89	29,361
663,08	31,325
663,27	30,222
663,45	29,435
663,64	30,697
663,83	29,716
664,02	31,265
664,20	31,762
664,39	31,268
664,58	30,986
664,76	30,732
664,95	29,995
665,14	29,476
665,32	28,984
665,51	30,839
665,70	32,924
665,88	32,711
666,07	31,798
666,26	32,148
666,44	31,619
666,63	30,692
666,82	30,478
667,00	32,730
667,19	28,280
667,38	30,426
667,56	31,992
667,75	31,621
667,94	32,337
668,12	29,847
668,31	31,219
668,50	32,709
668,68	32,564
668,87	30,406
669,06	31,674
669,24	33,282
669,43	30,733
669,62	29,026
669,80	28,332
669,99	30,415
670,18	30,957
670,36	28,949
670,55	31,281
670,74	31,754
670,92	29,315
671,11	30,736
671,29	29,894
671,48	30,161
671,67	31,694
671,85	31,013
672,04	30,373
672,23	28,294
672,41	30,140
672,60	29,059
672,78	31,334
672,97	30,529
673,16	29,737
673,34	30,098
673,53	30,439
673,71	30,444
673,90	32,759
674,09	29,093
674,27	29,790
674,46	30,372
674,64	31,691
674,83	31,778
675,02	29,181
675,20	29,787
675,39	30,095
675,57	31,385
675,76	28,975
675,95	32,396
676,13	30,393
676,32	31,203
676,50	30,591
676,69	28,803
676,88	30,263
677,06	29,243
677,25	30,468
677,43	34,038
677,62	31,077
677,80	31,499
677,99	30,399
678,18	30,418
678,36	33,363
678,55	30,130
678,73	29,007
678,92	32,214
679,10	30,764
679,29	30,168
679,48	29,043
679,66	29,863
679,85	30,719
680,03	31,221
680,22	30,685
680,40	29,632
680,59	30,055
680,77	30,635
680,96	30,844
681,15	29,753
681,33	32,671
681,52	30,262
681,70	30,073
681,89	30,513
682,07	31,591
682,26	29,869
682,44	30,525
682,63	31,604
682,81	30,807
683,00	30,777
683,18	29,076
683,37	31,389
683,55	28,842
683,74	31,808
683,92	36,006
684,11	31,358
684,29	30,764
684,48	29,276
684,67	30,731
684,85	30,892
685,04	30,085
685,22	31,138
685,41	30,097
685,59	29,438
685,78	30,252
685,96	29,150
686,15	29,094
686,33	29,749
686,52	29,784
686,70	30,618
686,89	30,590
687,07	30,497
687,26	29,588
687,44	30,514
687,62	30,197
687,81	31,660
687,99	28,041
688,18	29,178
688,36	32,595
688,55	30,616
688,73	30,082
688,92	28,951
689,10	31,161
689,29	32,321
689,47	31,539
689,66	30,622
689,84	29,930
690,03	32,979
690,21	29,479
690,40	31,051
690,58	30,074
690,76	29,829
690,95	31,811
691,13	30,330
691,32	31,251
691,50	31,603
691,69	31,610
691,87	30,850
692,06	29,786
692,24	29,193
692,43	30,800
692,61	29,000
692,79	30,306
692,98	30,325
693,16	31,770
693,35	28,256
693,53	31,822
693,72	32,369
693,90	31,456
694,08	29,882
694,27	30,018
694,45	33,328
694,64	34,012
694,82	30,867
695,01	29,216
695,19	29,407
695,37	30,641
695,56	30,083
695,74	30,671
695,93	31,864
696,11	31,056
696,29	31,104
696,48	31,102
696,66	30,806
696,85	31,352
697,03	29,800
697,21	32,421
697,40	31,260
697,58	29,855
697,77	31,075
697,95	31,737
698,13	31,702
698,32	30,033
698,50	30,427
698,69	29,889
698,87	32,073
699,05	30,385
699,24	28,220
699,42	31,569
699,60	29,549
699,79	30,579
699,97	30,754
700,16	29,659
700,34	32,345
700,52	31,046
700,71	29,526
700,89	29,877
701,07	28,745
701,26	31,764
701,44	29,775
701,63	28,770
701,81	31,240
701,99	32,523
702,18	27,660
702,36	30,042
702,54	30,400
702,73	29,506
702,91	30,846
703,09	29,636
703,28	30,892
703,46	32,285
703,64	30,282
703,83	28,878
704,01	31,427
704,19	30,481
704,38	30,256
704,56	28,849
704,74	30,354
704,93	30,843
705,11	30,323
705,29	30,597
705,48	33,853
705,66	31,719
705,84	29,069
706,03	27,747
706,21	30,343
706,39	28,333
706,58	29,899
706,76	28,408
706,94	32,892
707,12	31,451
707,31	29,843
707,49	29,916
707,67	30,542
707,86	32,055
708,04	29,798
708,22	29,925
708,41	31,816
708,59	29,706
708,77	28,896
708,95	30,396
709,14	33,478
709,32	30,737
709,50	29,336
709,69	28,599
709,87	30,806
710,05	29,172
710,23	29,954
710,42	29,043
710,60	30,931
710,78	31,440
710,97	29,533
711,15	29,455
711,33	32,553
711,51	30,190
711,70	29,542
711,88	28,947
712,06	32,115
712,24	32,176
712,43	30,511
712,61	30,254
712,79	28,863
712,97	29,858
713,16	30,564
713,34	29,969
713,52	30,375
713,70	30,075
713,89	29,267
714,07	29,474
714,25	30,604
714,43	32,139
714,62	28,429
714,80	30,200
714,98	28,417
715,16	31,523
715,35	28,331
715,53	28,628
715,71	30,657
715,89	32,956
716,07	30,231
716,26	33,277
716,44	32,867
716,62	29,829
716,80	30,561
716,99	30,648
717,17	32,351
717,35	31,176
717,53	29,357
717,71	31,116
717,90	30,625
718,08	30,947
718,26	27,580
718,44	31,522
718,62	32,196
718,81	30,518
718,99	29,185
719,17	30,275
719,35	29,425
719,53	28,321
719,72	28,537
719,90	30,080
720,08	29,628
720,26	32,511
720,44	29,273
720,62	29,925
720,81	31,289
720,99	32,860
721,17	28,584
721,35	30,756
721,53	30,460
721,72	32,298
721,90	31,058
722,08	29,552
722,26	31,868
722,44	31,217
722,62	31,238
722,81	28,953
722,99	30,605
723,17	30,526
723,35	30,639
723,53	30,124
723,71	33,096
723,89	32,711
724,08	25,835
724,26	30,511
724,44	31,361
724,62	30,205
724,80	29,702
724,98	29,337
725,16	32,508
725,35	30,031
725,53	30,026
725,71	30,126
725,89	31,385
726,07	31,342
726,25	33,931
726,43	31,023
726,61	30,233
726,80	31,461
726,98	30,230
727,16	29,621
727,34	31,187
727,52	30,690
727,70	28,949
727,88	29,678
728,06	29,516
728,25	28,788
728,43	29,417
728,61	29,183
728,79	30,986
728,97	30,084
729,15	29,909
729,33	30,822
729,51	31,414
729,69	31,735
729,87	29,839
730,06	30,238
730,24	29,190
730,42	33,213
730,60	29,009
730,78	29,379
730,96	30,197
731,14	30,005
731,32	30,335
731,50	29,338
731,68	31,615
731,86	30,246
732,04	31,548
732,22	27,541
732,41	34,241
732,59	31,398
732,77	31,085
732,95	31,799
733,13	32,083
733,31	31,112
733,49	28,406
733,67	32,157
733,85	31,757
734,03	31,418
734,21	30,746
734,39	28,946
734,57	32,809
734,75	31,983
734,93	30,097
735,11	31,177
735,29	28,309
735,47	31,771
735,65	29,942
735,84	28,870
736,02	30,163
736,20	33,826
736,38	31,722
736,56	28,633
736,74	30,581
736,92	30,994
737,10	29,663
737,28	31,773
737,46	30,542
737,64	30,535
737,82	32,299
738,00	31,040
738,18	32,609
738,36	30,440
738,54	30,402
738,72	28,925
738,90	30,753
739,08	32,702
739,26	27,639
739,44	29,949
739,62	31,553
739,80	31,896
739,98	30,546
740,16	31,616
740,34	31,456
740,52	33,189
740,70	30,305
740,88	29,654
741,06	31,641
741,24	31,609
741,42	31,614
741,60	30,701
741,78	31,229
741,96	30,441
742,14	30,249
742,32	27,793
742,50	31,894
742,68	31,507
742,86	30,291
743,04	28,386
743,21	32,131
743,39	28,824
743,57	29,029
743,75	29,230
743,93	27,793
744,11	28,856
744,29	28,962
744,47	31,370
744,65	30,376
744,83	29,711
745,01	31,116
745,19	30,741
745,37	33,069
745,55	31,547
745,73	30,335
745,91	28,507
746,09	30,232
746,27	30,560
746,45	28,731
746,62	29,641
746,80	29,803
746,98	31,985
747,16	27,809
747,34	30,072
747,52	29,614
747,70	30,778
747,88	28,038
748,06	31,615
748,24	31,354
748,42	31,520
748,60	29,723
748,78	28,991
748,95	31,512
749,13	31,704
749,31	30,252
749,49	29,241
749,67	31,292
749,85	32,581
750,03	30,592
750,21	29,607
750,39	30,305
750,57	30,233
750,74	32,078
750,92	28,366
751,10	32,469
751,28	30,257
751,46	30,050
751,64	31,327
751,82	31,436
752,00	31,772
752,17	31,372
752,35	29,900
752,53	32,287
752,71	31,601
752,89	29,353
753,07	30,326
753,25	31,685
753,43	27,275
753,60	31,764
753,78	27,228
753,96	31,766
754,14	29,947
754,32	29,972
754,50	31,998
754,68	32,288
754,85	32,210
755,03	31,223
755,21	30,379
755,39	31,530
755,57	31,153
755,75	30,452
755,92	29,595
756,10	32,009
756,28	31,919
756,46	30,637
756,64	31,059
756,82	31,372
756,99	32,066
757,17	30,638
757,35	28,486
757,53	33,077
757,71	32,306
757,89	28,369
758,06	30,124
758,24	33,089
758,42	29,689
758,60	29,606
758,78	29,820
758,95	31,097
759,13	30,050
759,31	30,436
759,49	30,260
759,67	31,867
759,84	30,443
760,02	31,304
760,20	29,701
760,38	30,042
760,56	29,070
760,73	31,400
760,91	30,584
761,09	31,962
761,27	29,679
761,45	28,620
761,62	29,052
761,80	31,227
761,98	32,443
762,16	29,631
762,33	28,978
762,51	32,104
762,69	30,259
762,87	31,950
763,05	29,471
763,22	29,890
763,40	30,065
763,58	28,920
763,76	29,551
763,93	32,119
764,11	32,779
764,29	29,866
764,47	31,610
764,64	31,499
764,82	33,223
765,00	30,209
765,18	28,467
765,35	30,125
765,53	30,981
765,71	29,587
765,89	28,718
766,06	28,928
766,24	31,482
766,42	30,513
766,60	27,339
766,77	30,814
766,95	28,514
767,13	30,589
767,30	30,055
767,48	31,614
767,66	30,316
767,84	29,242
768,01	30,455
768,19	32,000
768,37	29,463
768,54	32,021
768,72	30,553
768,90	31,255
769,08	33,367
769,25	31,629
769,43	29,681
769,61	27,673
769,78	30,663
769,96	31,665
770,14	32,310
770,31	33,230
770,49	32,396
770,67	32,084
770,85	30,705
771,02	31,715
771,20	30,486
771,38	30,703
771,55	30,054
771,73	31,118
771,91	32,262
772,08	33,744
772,26	31,911
772,44	28,872
772,61	29,240
772,79	31,470
772,97	29,114
773,14	28,513
773,32	31,901
773,50	28,445
773,67	29,952
773,85	32,412
774,03	31,821
774,20	31,641
774,38	31,518
774,56	30,800
774,73	29,584
774,91	30,105
775,09	31,033
775,26	30,626
775,44	31,812
775,61	30,900
775,79	29,530
775,97	32,737
776,14	31,565
776,32	30,850
776,50	32,217
776,67	30,763
776,85	30,450
777,03	28,527
777,20	31,540
777,38	30,969
777,55	32,358
777,73	27,156
777,91	29,895
778,08	31,990
778,26	31,440
778,43	31,801
778,61	27,031
778,79	31,424
778,96	28,864
779,14	29,105
779,32	29,194
779,49	30,629
779,67	32,226
779,84	32,077
780,02	32,176
780,20	28,721
780,37	31,584
780,55	24,859
780,72	34,006
780,90	30,758
781,07	32,859
781,25	31,414
781,43	30,194
781,60	30,312
781,78	33,677
781,95	29,889
782,13	32,783
782,30	31,823
782,48	31,542
782,66	28,534
782,83	29,136
783,01	37,909
783,18	34,345
783,36	32,291
783,53	31,463
783,71	29,615
783,89	30,173
784,06	31,990
784,24	30,609
784,41	32,702
784,59	30,190
784,76	33,796
784,94	30,403
785,11	32,535
785,29	31,707
785,46	29,682
785,64	28,236
785,82	32,558
785,99	33,323
786,17	30,003
786,34	28,715
786,52	31,737
786,69	32,816
786,87	29,983
787,04	29,913
787,22	28,335
787,39	34,662
787,57	32,532
787,74	32,039
787,92	36,386
788,09	32,540
788,27	31,415
788,44	30,252
788,62	32,304
788,79	30,657
788,97	32,752
789,14	31,561
789,32	30,799
789,49	31,101
789,67	31,993
789,84	29,953
790,02	34,013
790,19	30,159
790,37	31,454
790,54	30,881
790,72	35,244
790,89	35,842
791,07	32,416
791,24	28,047
791,42	30,590
791,59	32,902
791,77	31,184
791,94	30,116
792,12	29,774
792,29	32,068
792,47	32,832
792,64	32,711
792,81	33,588
792,99	32,079
793,16	33,167
793,34	33,190
793,51	31,786
793,69	32,873
793,86	30,350
794,04	31,759
794,21	36,441
794,39	30,883
794,56	32,016
794,73	32,137
794,91	34,400
795,08	33,313
795,26	32,071
795,43	32,267
795,61	37,866
795,78	34,565
795,95	32,342
796,13	33,806
796,30	34,592
796,48	29,648
796,65	34,887
796,83	32,233
797,00	36,561
797,17	30,354
797,35	30,224
797,52	34,073
797,70	35,765
797,87	30,840
798,04	29,267
798,22	31,561
798,39	30,009
798,57	35,631
798,74	33,576
798,91	29,332
799,09	30,535
799,26	34,620
799,44	30,690
799,61	28,741
799,78	32,168
799,96	37,506
800,13	29,463
800,31	33,615
800,48	32,666
800,65	37,130
800,83	31,575
801,00	31,163
801,17	33,533
801,35	32,002
801,52	32,584
801,70	33,300
801,87	31,922
802,04	35,486
802,22	29,129
802,39	32,815
802,56	36,647
802,74	34,582
802,91	29,408
803,08	32,840
803,26	33,088
803,43	34,771
803,61	31,523
803,78	32,860
803,95	31,777
804,13	31,448
804,30	32,251
804,47	34,692
804,65	34,950
804,82	33,634
804,99	35,247
805,17	33,361
805,34	36,685
805,51	35,883
805,69	31,652
805,86	31,550
806,03	39,362
806,21	33,820
806,38	33,722
806,55	36,528
806,72	35,290
806,90	34,683
807,07	32,253
807,24	31,295
807,42	32,644
807,59	33,892
807,76	26,964
807,94	33,025
808,11	36,803
808,28	35,909
808,45	35,348
808,63	37,777
808,80	35,740
808,97	36,152
809,15	32,423
809,32	35,255
809,49	28,907
809,67	30,714
809,84	32,962
810,01	37,464
810,18	40,659
810,36	35,229
810,53	36,677
810,70	33,413
810,87	38,481
811,05	34,645
811,22	37,518
811,39	37,694
811,57	35,140
811,74	37,114
811,91	31,775
812,08	33,669
812,26	34,877
812,43	31,457
812,60	33,256
812,77	28,514
812,95	35,718
813,12	34,309
813,29	31,102
813,46	34,863
813,64	34,332
813,81	34,789
813,98	31,463
814,15	34,855
814,32	37,275
814,50	39,104
814,67	37,479
814,84	34,498
815,01	36,415
815,19	27,092
815,36	30,718
815,53	31,957
815,70	32,855
815,87	37,870
816,05	31,911
816,22	32,456
816,39	38,668
816,56	38,542
816,74	34,474
816,91	30,381
817,08	43,885
817,25	38,206
817,42	38,295
817,60	36,987
817,77	38,020
817,94	41,784
818,11	35,730
818,28	35,238
818,45	39,629
818,63	35,936
818,80	32,564
818,97	34,671
819,14	40,088
819,31	43,180
819,49	35,445
819,66	34,488
819,83	37,247
820,00	37,575
820,17	31,092
820,34	38,892
820,52	41,752
820,69	38,592
820,86	30,985
821,03	34,065
821,20	36,763
821,37	40,435
821,55	27,628
821,72	33,580
821,89	37,943
822,06	37,029
822,23	30,619
822,40	34,759
822,57	32,800
822,75	40,977
822,92	34,563
823,09	33,649
823,26	38,011
823,43	45,247
823,60	28,615
823,77	34,380
823,94	38,547
824,12	41,806
824,29	35,518
824,46	35,925
824,63	42,021
824,80	39,561
824,97	34,066
825,14	34,542
825,31	44,380
825,49	42,132
825,66	33,740
825,83	35,771
826,00	43,007
826,17	43,483
826,34	38,043
826,51	26,638
826,68	33,824
826,85	37,530
827,02	37,071
827,20	28,736
827,37	36,895
827,54	43,759
827,71	39,580
827,88	35,977
828,05	32,742
828,22	38,796
828,39	35,816
828,56	37,311
828,73	36,234
828,90	37,350
829,07	32,492
829,25	38,108
829,42	40,978
829,59	40,340
829,76	34,506
829,93	32,718
830,10	37,320
830,27	33,327
830,44	40,269
830,61	40,393
830,78	50,448
830,95	36,361
831,12	35,148
831,29	31,777
831,46	38,979
831,63	39,093
831,80	35,326
831,97	28,916
832,14	44,732
832,31	50,300
832,48	35,841
832,65	38,164
832,83	38,190
833,00	39,525
833,17	36,075
833,34	39,508
833,51	43,292
833,68	40,793
833,85	40,885
834,02	36,167
834,19	41,779
834,36	43,013
834,53	29,737
834,70	39,979
834,87	44,452
835,04	40,332
835,21	40,647
835,38	29,244
835,55	38,050
835,72	52,467
835,89	34,349
836,06	41,293
836,23	49,882
836,40	37,762
836,57	35,739
836,74	40,577
836,91	43,410
837,08	44,180
837,25	43,375
837,42	23,343
837,59	37,045
837,76	40,091
837,93	37,884
838,09	34,416
838,26	41,124
838,43	52,663
838,60	35,945
838,77	37,598
838,94	44,343
839,11	36,652
839,28	28,066
839,45	29,639
839,62	37,166
839,79	41,316
839,96	39,738
840,13	39,564
840,30	39,891
840,47	37,082
840,64	38,706
840,81	39,785
840,98	27,974
841,15	45,733
841,32	35,657
841,48	45,045
841,65	45,746
841,82	39,798
841,99	39,062
842,16	30,587
842,33	48,460
842,50	46,533
842,67	31,913
842,84	35,275
843,01	41,220
843,18	40,809
843,35	35,657
843,52	37,912
843,68	45,325
843,85	42,311
844,02	28,847
844,19	39,356
844,36	48,975
844,53	41,519
844,70	37,022
844,87	54,575
845,04	48,057
845,21	27,373
845,37	48,968
845,54	40,326
845,71	32,832
845,88	57,885
846,05	34,577
846,22	29,905
846,39	41,545
846,56	50,361
846,72	30,285
846,89	37,508
847,06	50,340
847,23	50,435
847,40	26,769
847,57	35,811
847,74	48,448
847,90	49,262
848,07	40,720
848,24	39,783
848,41	40,195
848,58	56,310
848,75	38,558
848,92	32,452
849,08	42,736
849,25	40,406
849,42	31,204
849,59	38,874
849,76	33,547
849,93	37,927
850,09	45,639
850,26	25,791
850,43	60,587
850,60	40,351
850,77	36,377
850,94	41,465
851,10	46,368
851,27	35,423
851,44	33,397
851,61	25,751
851,78	52,562
851,95	45,748
852,11	40,461
852,28	34,154
852,45	39,443
852,62	52,500
852,79	47,282
852,95	40,660
853,12	51,831
853,29	52,575
853,46	36,305
853,63	50,722
853,79	41,403
853,96	40,481
854,13	54,932
854,30	21,504
854,46	48,749
854,63	38,519
854,80	32,829
854,97	36,703
855,14	56,749
855,30	43,666
855,47	39,012
855,64	34,692
855,81	44,950
855,97	60,754
856,14	37,686
856,31	36,998
856,48	46,973
856,65	71,014
856,81	36,358
856,98	42,224
857,15	44,575
857,32	60,953
857,48	31,883
857,65	51,299
857,82	58,108
857,99	44,190
858,15	47,765
858,32	40,204
858,49	45,375
858,65	58,613
858,82	41,011
858,99	41,136
859,16	55,916
859,32	54,482
859,49	23,763
859,66	36,258
859,83	50,662
859,99	53,542
860,16	42,899
860,33	38,890
860,49	41,549
860,66	71,730
860,83	52,388
861,00	43,423
861,16	58,172
861,33	44,667
861,50	29,977
861,66	40,504
861,83	69,870
862,00	59,643
862,16	48,514
862,33	47,398
862,50	71,013
862,67	48,462
862,83	42,453
863,00	51,644
863,17	78,804
863,33	44,869
863,50	27,683
863,67	46,047
863,83	46,155
864,00	66,603
864,17	46,854
864,33	42,325
864,50	54,467
864,67	41,767
864,83	43,208
865,00	50,241
865,17	49,884
865,33	54,898
865,50	27,739
865,67	28,386
865,83	74,307
866,00	81,231
866,17	61,308
866,33	56,745
866,50	78,899
866,66	69,237
866,83	62,082
867,00	48,106
867,16	50,235
867,33	80,015
867,50	0,272
867,66	32,400
867,83	85,714
868,00	62,368
868,16	37,766
868,33	33,679
868,49	57,327
868,66	80,168
868,83	46,229
868,99	55,966
869,16	71,287
869,32	75,445
869,49	55,913
869,66	32,948
869,82	83,821
869,99	64,281
870,15	36,113
870,32	61,205
870,49	72,997
870,65	127,092
870,82	66,505
870,98	43,539
871,15	101,620
871,32	65,425
871,48	0,638
871,65	34,291
871,81	64,488
871,98	50,259
872,15	36,062
872,31	33,249
872,48	105,292
872,64	54,659
872,81	18,231
872,97	22,109
873,14	78,879
873,31	56,531
873,47	43,852
873,64	66,310
873,80	95,489
873,97	103,374
874,13	38,117
874,30	64,712
874,46	100,775
874,63	65,813
874,80	61,397
874,96	16,962
875,13	102,752
875,29	64,181
875,46	74,158
875,62	34,976
875,79	81,467
875,95	42,842
876,12	37,787
876,28	-8,263
876,45	113,487
876,61	52,045
876,78	27,924
876,94	28,352
877,11	71,475
877,27	90,557
877,44	67,393
877,60	44,859
877,77	80,536
877,94	112,208
878,10	39,170
878,27	41,663
878,43	117,936
878,60	43,576
878,76	42,309
878,93	45,475
879,09	106,860
879,26	90,478
879,42	71,932
879,58	75,401
879,75	115,710
879,91	103,592
880,08	-58,757
880,24	72,236
880,41	72,941
880,57	80,190
880,74	27,947
880,90	69,488
881,07	53,112
881,23	121,057
881,40	56,040
881,56	93,514
881,73	110,140
881,89	76,629
882,06	87,769
882,22	139,828
882,38	99,234
882,55	150,402
882,71	47,126
882,88	98,732
883,04	134,685
883,21	133,578
883,37	63,008
883,54	87,110
883,70	221,161
883,86	89,394
884,03	38,893
884,19	39,161
884,36	193,096
884,52	195,093
884,69	68,844
884,85	85,879
885,01	160,610
885,18	98,156
885,34	21,910
885,51	-23,867
885,67	99,021
>>>>> Data<<<<< Espectral Procesado Extremo
