Fichero De Datos De SpectraSuite
++++++++++++++++++++++++++++++++++++
Fecha: Wed Apr 22 11:56:03 CEST 2009
Usuario: evoflor
Presente Oscuro Del Espectro: Sí
La Referencia de Presente Del Espectro De: Sí
Muestreados de los componentes de Número de espectros: 1
Espectrómetros: USB4F02353
Tiempo de integración (usec): 500000 (USB4F02353)
Promedio de Espectros Hechos un: 5 (USB4F02353)
El Alisar Del Furgón: 0 (USB4F02353)
Párrafo de de Corregir del la del del de Eléctrica del obscuridad: Sí (USB4F02353)
Estrobo/Lámpara Permitido: No (USB4F02353)
Correct for Detector Non-linearity: No (USB4F02353)
Párrafo de de Corregir del la del del de Externa del luz: No (USB4F02353)
Procesado del espectro de Número de pixeles en: 3648
>>>>> Comienza Data<<<<< Espectral Procesado Del EL
177,79	224,026
178,00	224,026
178,22	224,026
178,44	978,626
178,66	-100,146
178,88	114,186
179,09	-210,830
179,31	286,513
179,53	780,325
179,75	192,605
179,96	248,664
180,18	-232,754
180,40	275,303
180,62	422,666
180,83	-92,789
181,05	-1284,695
181,27	-62145,000
181,49	-70,533
181,70	394,788
181,92	845,406
182,14	439,292
182,36	8,518
182,58	-414,450
182,79	779,665
183,01	-97,629
183,23	245,764
183,45	-119,215
183,66	-167,456
183,88	725,559
184,10	-3486,273
184,32	229,567
184,53	204,256
184,75	-291,494
184,97	124,649
185,18	-216,626
185,40	-545,409
185,62	103,821
185,84	-50,993
186,05	188,943
186,27	-190,931
186,49	1455,577
186,71	8,657
186,92	111,058
187,14	-83,062
187,36	181,946
187,58	61,652
187,79	-21,953
188,01	311,662
188,23	-143,310
188,45	-86,889
188,66	265,379
188,88	-3339,000
189,10	-1719,450
189,31	-46,152
189,53	0,082
189,75	360,102
189,97	169,788
190,18	50,408
190,40	704,382
190,62	-47,720
190,83	-296,002
191,05	131,709
191,27	66,986
191,49	378,824
191,70	-463,197
191,92	-969,025
192,14	-85,564
192,35	542,029
192,57	2752,714
192,79	129,218
193,01	184,728
193,22	37,249
193,44	-36,937
193,66	72,454
193,87	111,874
194,09	-16,697
194,31	118,278
194,53	1032,483
194,74	-33,315
194,96	105,940
195,18	130,646
195,39	-292,203
195,61	-69,399
195,83	-207,489
196,04	121,668
196,26	-348,467
196,48	67,276
196,70	345,417
196,91	270,085
197,13	150,494
197,35	0,076
197,56	381,873
197,78	1545,112
198,00	881,434
198,21	135,655
198,43	-1015,378
198,65	150,624
198,86	893,687
199,08	445,721
199,30	364,464
199,51	-176,042
199,73	215,756
199,95	245,161
200,16	692,481
200,38	79,917
200,60	186,227
200,81	424,079
201,03	105,285
201,25	-1674,450
201,46	135,263
201,68	45,848
201,90	4480,568
202,11	-151,317
202,33	40,476
202,55	214,312
202,76	-8,289
202,98	420,366
203,20	-78,101
203,41	-611,289
203,63	129,314
203,85	-123345,000
204,06	58,573
204,28	-240,831
204,50	72,922
204,71	286,299
204,93	317,160
205,15	214,292
205,36	-359,742
205,58	335,211
205,80	-202,943
206,01	135,267
206,23	82,513
206,45	247,694
206,66	131,998
206,88	51,353
207,10	221,011
207,31	252,775
207,53	-102,729
207,75	95,867
207,96	1229,440
208,18	-212,022
208,39	51,657
208,61	4269,857
208,83	-458,148
209,04	148,490
209,26	-381,774
209,48	247,008
209,69	307,815
209,91	659,949
210,13	0,701
210,34	95,993
210,56	204,829
210,77	-1935,000
210,99	102,825
211,21	7361,471
211,42	-102,547
211,64	24,954
211,86	260,794
212,07	248,475
212,29	212,633
212,50	149,011
212,72	460,558
212,94	164,750
213,15	90,685
213,37	81,858
213,58	-69,945
213,80	-3183,750
214,02	9902,647
214,23	367,965
214,45	430,967
214,67	-1548,110
214,88	-108,876
215,10	-199,727
215,31	-64,749
215,53	-167,625
215,75	280,252
215,96	1940,031
216,18	-620,493
216,39	261,676
216,61	414,727
216,83	538,594
217,04	1547,697
217,26	-71,056
217,47	177,876
217,69	264,344
217,91	64,832
218,12	23355,000
218,34	89,845
218,55	391,631
218,77	65,535
218,99	138,923
219,20	-131,210
219,42	216,837
219,63	-30,800
219,85	-73,710
220,06	-58,673
220,28	170,542
220,50	58,085
220,71	90,449
220,93	3838,585
221,14	-2025,450
221,36	-32,782
221,58	13,009
221,79	294,298
222,01	1552,112
222,22	248,980
222,44	-859,045
222,65	118,623
222,87	214,301
223,09	142,365
223,30	64,157
223,52	65,898
223,73	206,438
223,95	2,599
224,16	193,082
224,38	260,296
224,60	165,198
224,81	188,039
225,03	69,433
225,24	159,510
225,46	4,560
225,67	100,813
225,89	27,153
226,10	442,003
226,32	957,960
226,54	-26,455
226,75	-16,462
226,97	163,842
227,18	133,698
227,40	31,093
227,61	53,652
227,83	37,625
228,04	155,390
228,26	83,904
228,47	47,789
228,69	180,707
228,91	143,937
229,12	32,313
229,34	20,754
229,55	49,653
229,77	-6,090
229,98	15,081
230,20	49,486
230,41	5,390
230,63	51,635
230,84	-38,787
231,06	-12,837
231,27	24,661
231,49	55,556
231,71	31,960
231,92	25,085
232,14	14,942
232,35	109,898
232,57	70,287
232,78	15,244
233,00	59,970
233,21	57,215
233,43	7,385
233,64	22,961
233,86	47,132
234,07	36,339
234,29	25,219
234,50	13,099
234,72	42,065
234,93	18,495
235,15	31,718
235,36	29,318
235,58	28,979
235,79	54,448
236,01	6,852
236,22	19,340
236,44	53,239
236,65	36,080
236,87	27,839
237,08	10,152
237,30	-2,115
237,51	40,556
237,73	3,286
237,94	1,476
238,16	17,445
238,37	10,974
238,59	20,843
238,80	10,977
239,02	14,945
239,23	21,055
239,45	-9,519
239,66	25,393
239,88	31,773
240,09	26,636
240,31	1,500
240,52	12,841
240,74	17,629
240,95	9,211
241,17	9,286
241,38	14,761
241,60	12,055
241,81	23,912
242,03	5,659
242,24	5,721
242,46	23,203
242,67	9,659
242,89	13,022
243,10	18,002
243,32	18,180
243,53	19,239
243,75	15,288
243,96	13,452
244,18	9,684
244,39	6,974
244,60	9,318
244,82	8,269
245,03	15,732
245,25	17,741
245,46	24,304
245,68	7,712
245,89	18,989
246,11	18,138
246,32	17,235
246,54	6,305
246,75	13,626
246,97	20,998
247,18	22,086
247,39	9,606
247,61	6,767
247,82	9,829
248,04	9,992
248,25	11,616
248,47	14,693
248,68	16,320
248,90	9,094
249,11	13,731
249,33	17,730
249,54	10,439
249,75	12,948
249,97	5,420
250,18	15,104
250,40	22,231
250,61	-1,882
250,83	11,204
251,04	2,424
251,25	17,179
251,47	6,894
251,68	12,503
251,90	12,101
252,11	14,229
252,33	10,600
252,54	10,859
252,76	13,091
252,97	8,289
253,18	4,667
253,40	13,223
253,61	4,658
253,83	13,089
254,04	14,185
254,25	10,858
254,47	9,752
254,68	10,947
254,90	8,924
255,11	14,276
255,33	11,144
255,54	10,327
255,75	10,070
255,97	9,392
256,18	8,501
256,40	10,771
256,61	12,664
256,82	1,561
257,04	15,179
257,25	7,706
257,47	9,838
257,68	5,553
257,89	13,290
258,11	12,315
258,32	6,691
258,54	13,032
258,75	15,630
258,96	15,394
259,18	12,831
259,39	9,109
259,61	11,568
259,82	8,843
260,03	11,140
260,25	9,149
260,46	12,770
260,68	10,053
260,89	8,242
261,10	6,440
261,32	9,075
261,53	10,346
261,75	12,428
261,96	1,707
262,17	17,634
262,39	17,136
262,60	6,634
262,81	4,114
263,03	18,720
263,24	8,189
263,46	4,389
263,67	9,260
263,88	11,854
264,10	14,337
264,31	5,270
264,52	13,250
264,74	11,075
264,95	8,196
265,17	14,384
265,38	7,438
265,59	15,225
265,81	8,516
266,02	4,383
266,23	6,868
266,45	16,457
266,66	14,610
266,87	10,239
267,09	8,554
267,30	13,649
267,52	10,640
267,73	7,828
267,94	7,140
268,16	12,017
268,37	8,500
268,58	13,620
268,80	10,999
269,01	10,217
269,22	11,122
269,44	11,420
269,65	10,960
269,86	6,846
270,08	11,761
270,29	7,269
270,50	9,034
270,72	13,559
270,93	7,564
271,14	6,941
271,36	9,430
271,57	11,164
271,78	13,280
272,00	14,470
272,21	11,344
272,42	7,918
272,64	14,975
272,85	9,973
273,06	8,584
273,28	13,010
273,49	8,649
273,70	10,421
273,92	10,898
274,13	12,258
274,34	9,143
274,56	8,922
274,77	7,514
274,98	10,304
275,20	10,911
275,41	10,490
275,62	10,673
275,84	9,020
276,05	16,795
276,26	8,535
276,47	6,614
276,69	14,298
276,90	10,444
277,11	7,863
277,33	8,361
277,54	14,134
277,75	11,888
277,97	7,858
278,18	6,514
278,39	8,119
278,61	9,150
278,82	13,811
279,03	9,988
279,24	10,074
279,46	6,518
279,67	13,125
279,88	8,145
280,10	11,565
280,31	4,697
280,52	10,305
280,73	5,869
280,95	8,581
281,16	13,503
281,37	8,942
281,59	14,126
281,80	14,546
282,01	7,102
282,22	7,510
282,44	4,116
282,65	17,413
282,86	13,130
283,08	10,498
283,29	9,366
283,50	7,685
283,71	12,899
283,93	12,616
284,14	11,893
284,35	8,858
284,56	11,168
284,78	8,106
284,99	9,266
285,20	11,116
285,42	8,419
285,63	9,196
285,84	7,448
286,05	6,786
286,27	10,045
286,48	7,111
286,69	7,514
286,90	8,659
287,12	8,287
287,33	5,038
287,54	8,186
287,75	12,635
287,97	10,443
288,18	6,266
288,39	8,830
288,60	9,163
288,82	8,685
289,03	6,801
289,24	11,516
289,45	10,271
289,67	7,730
289,88	6,079
290,09	10,092
290,30	8,425
290,52	6,881
290,73	6,273
290,94	6,075
291,15	7,650
291,37	10,685
291,58	8,849
291,79	6,193
292,00	11,806
292,21	8,121
292,43	8,513
292,64	6,599
292,85	8,545
293,06	12,485
293,28	5,837
293,49	7,893
293,70	13,893
293,91	9,229
294,12	9,532
294,34	6,585
294,55	8,494
294,76	8,477
294,97	9,905
295,19	3,947
295,40	9,063
295,61	10,660
295,82	5,208
296,03	8,956
296,25	9,956
296,46	6,520
296,67	4,940
296,88	4,709
297,09	12,975
297,31	9,755
297,52	10,378
297,73	6,874
297,94	11,753
298,15	10,936
298,37	9,045
298,58	12,520
298,79	8,684
299,00	6,152
299,21	7,618
299,43	7,101
299,64	12,711
299,85	8,965
300,06	7,973
300,27	7,484
300,49	11,370
300,70	9,088
300,91	8,408
301,12	6,166
301,33	12,358
301,54	6,877
301,76	9,936
301,97	7,819
302,18	6,643
302,39	12,054
302,60	17,139
302,82	9,039
303,03	11,155
303,24	9,074
303,45	7,309
303,66	8,208
303,87	8,900
304,09	11,817
304,30	8,483
304,51	6,412
304,72	7,984
304,93	10,915
305,14	8,653
305,36	7,418
305,57	4,636
305,78	10,624
305,99	6,723
306,20	7,489
306,41	7,885
306,62	7,663
306,84	5,762
307,05	3,452
307,26	8,856
307,47	9,503
307,68	9,890
307,89	7,108
308,11	9,422
308,32	9,565
308,53	7,088
308,74	5,688
308,95	9,697
309,16	9,273
309,37	10,700
309,59	4,738
309,80	8,685
310,01	8,492
310,22	8,684
310,43	6,811
310,64	8,452
310,85	10,123
311,06	7,024
311,28	7,649
311,49	7,966
311,70	13,058
311,91	6,493
312,12	6,090
312,33	7,960
312,54	9,689
312,75	9,511
312,97	8,362
313,18	10,338
313,39	8,546
313,60	8,517
313,81	8,436
314,02	7,106
314,23	8,853
314,44	8,074
314,65	9,380
314,87	7,900
315,08	5,890
315,29	12,261
315,50	9,346
315,71	10,364
315,92	11,440
316,13	8,323
316,34	9,369
316,55	9,068
316,77	6,560
316,98	7,332
317,19	9,257
317,40	12,312
317,61	13,399
317,82	8,628
318,03	6,800
318,24	6,865
318,45	9,321
318,66	8,191
318,87	6,232
319,09	9,806
319,30	9,825
319,51	9,734
319,72	9,635
319,93	12,595
320,14	10,958
320,35	11,281
320,56	6,506
320,77	6,328
320,98	12,823
321,19	9,266
321,40	8,281
321,62	10,370
321,83	8,068
322,04	9,821
322,25	8,324
322,46	10,918
322,67	11,098
322,88	7,842
323,09	10,769
323,30	10,104
323,51	11,856
323,72	10,261
323,93	6,760
324,14	6,337
324,35	5,365
324,56	4,830
324,77	6,999
324,99	8,427
325,20	5,948
325,41	8,710
325,62	7,647
325,83	6,434
326,04	6,232
326,25	8,616
326,46	5,570
326,67	8,370
326,88	9,009
327,09	8,768
327,30	2,538
327,51	7,958
327,72	8,770
327,93	8,570
328,14	3,346
328,35	6,880
328,56	11,557
328,77	8,324
328,98	8,542
329,19	9,827
329,40	9,286
329,61	8,799
329,82	5,371
330,04	9,411
330,25	6,782
330,46	7,301
330,67	6,340
330,88	8,220
331,09	9,612
331,30	9,418
331,51	7,704
331,72	8,910
331,93	8,418
332,14	6,250
332,35	10,174
332,56	7,321
332,77	10,283
332,98	6,122
333,19	7,097
333,40	8,621
333,61	8,710
333,82	11,365
334,03	9,689
334,24	7,986
334,45	8,822
334,66	11,389
334,87	9,784
335,08	6,016
335,29	7,105
335,50	6,508
335,71	8,129
335,92	9,711
336,13	12,204
336,34	5,397
336,55	10,208
336,76	12,551
336,97	8,153
337,18	4,167
337,39	6,558
337,60	11,092
337,81	6,589
338,02	6,984
338,23	8,096
338,44	6,488
338,65	8,350
338,86	7,855
339,07	7,401
339,28	11,238
339,49	7,774
339,70	6,465
339,91	9,709
340,11	10,880
340,32	8,116
340,53	6,861
340,74	4,306
340,95	6,149
341,16	10,541
341,37	7,608
341,58	7,309
341,79	8,818
342,00	6,761
342,21	7,738
342,42	6,423
342,63	10,247
342,84	8,267
343,05	11,742
343,26	10,220
343,47	9,968
343,68	6,854
343,89	8,472
344,10	7,966
344,31	11,985
344,52	6,520
344,73	8,206
344,94	10,321
345,14	10,424
345,35	11,670
345,56	6,217
345,77	7,774
345,98	7,162
346,19	7,806
346,40	8,653
346,61	10,283
346,82	11,801
347,03	8,391
347,24	7,517
347,45	8,403
347,66	12,076
347,87	8,224
348,08	7,729
348,28	7,758
348,49	11,226
348,70	10,726
348,91	10,846
349,12	6,647
349,33	21,743
349,54	7,770
349,75	9,936
349,96	8,221
350,17	8,835
350,38	5,585
350,59	12,632
350,80	9,826
351,00	10,774
351,21	12,526
351,42	8,837
351,63	5,692
351,84	8,418
352,05	11,656
352,26	10,649
352,47	8,586
352,68	9,970
352,89	11,640
353,09	12,782
353,30	6,562
353,51	10,967
353,72	12,106
353,93	11,574
354,14	7,644
354,35	7,604
354,56	11,966
354,77	9,017
354,98	7,867
355,18	9,875
355,39	11,393
355,60	7,883
355,81	8,333
356,02	8,606
356,23	9,359
356,44	9,597
356,65	8,794
356,85	14,095
357,06	13,194
357,27	11,731
357,48	8,637
357,69	11,142
357,90	6,950
358,11	7,227
358,32	8,982
358,52	9,629
358,73	9,692
358,94	7,961
359,15	11,554
359,36	8,891
359,57	9,164
359,78	11,992
359,98	7,027
360,19	8,737
360,40	8,874
360,61	7,619
360,82	8,845
361,03	12,594
361,24	9,762
361,44	7,987
361,65	7,419
361,86	7,862
362,07	13,128
362,28	6,045
362,49	8,855
362,70	9,392
362,90	12,349
363,11	8,249
363,32	9,370
363,53	10,442
363,74	10,587
363,95	11,525
364,15	11,758
364,36	14,701
364,57	10,386
364,78	9,690
364,99	7,034
365,20	11,587
365,40	11,120
365,61	6,595
365,82	8,815
366,03	10,492
366,24	12,524
366,45	4,846
366,65	10,267
366,86	10,450
367,07	9,243
367,28	8,349
367,49	8,256
367,69	12,480
367,90	9,290
368,11	8,595
368,32	6,138
368,53	8,019
368,73	11,377
368,94	9,363
369,15	10,307
369,36	14,014
369,57	9,467
369,78	9,805
369,98	8,652
370,19	14,623
370,40	9,747
370,61	9,542
370,82	6,142
371,02	11,531
371,23	14,569
371,44	7,925
371,65	10,679
371,85	13,967
372,06	8,158
372,27	8,469
372,48	9,256
372,69	8,510
372,89	7,398
373,10	9,418
373,31	7,866
373,52	10,811
373,73	13,350
373,93	9,684
374,14	8,865
374,35	8,732
374,56	11,563
374,76	9,879
374,97	8,766
375,18	10,938
375,39	10,491
375,60	10,171
375,80	9,641
376,01	8,227
376,22	11,175
376,43	8,938
376,63	7,970
376,84	6,848
377,05	13,245
377,26	4,959
377,46	6,270
377,67	8,276
377,88	7,701
378,09	8,928
378,29	5,303
378,50	12,428
378,71	9,131
378,92	7,485
379,12	8,889
379,33	6,323
379,54	10,681
379,75	10,510
379,95	10,906
380,16	10,688
380,37	9,438
380,58	8,525
380,78	8,442
380,99	10,729
381,20	7,283
381,41	11,067
381,61	9,668
381,82	11,170
382,03	9,907
382,24	9,454
382,44	8,998
382,65	12,345
382,86	8,023
383,06	8,222
383,27	10,406
383,48	10,106
383,69	12,452
383,89	13,793
384,10	9,734
384,31	7,732
384,51	11,695
384,72	12,849
384,93	8,256
385,14	11,532
385,34	12,129
385,55	9,756
385,76	7,080
385,96	12,923
386,17	10,200
386,38	13,462
386,59	12,669
386,79	10,169
387,00	12,637
387,21	12,352
387,41	9,381
387,62	9,196
387,83	16,512
388,03	9,414
388,24	7,397
388,45	10,905
388,66	8,812
388,86	11,009
389,07	10,053
389,28	15,222
389,48	12,649
389,69	9,022
389,90	11,506
390,10	12,956
390,31	14,342
390,52	8,565
390,72	8,387
390,93	12,498
391,14	11,683
391,34	12,430
391,55	11,561
391,76	15,031
391,96	12,513
392,17	10,967
392,38	15,203
392,58	14,564
392,79	14,619
393,00	8,647
393,20	14,186
393,41	11,055
393,62	12,089
393,82	14,871
394,03	8,380
394,24	13,667
394,44	14,658
394,65	12,297
394,86	11,571
395,06	14,820
395,27	14,009
395,48	12,785
395,68	14,591
395,89	15,818
396,10	17,747
396,30	13,175
396,51	12,208
396,72	15,037
396,92	14,442
397,13	15,327
397,34	12,660
397,54	18,906
397,75	13,842
397,95	14,865
398,16	15,543
398,37	16,141
398,57	15,392
398,78	17,526
398,99	16,837
399,19	19,439
399,40	18,612
399,60	14,707
399,81	15,405
400,02	19,544
400,22	18,029
400,43	18,462
400,64	16,014
400,84	16,393
401,05	18,727
401,25	15,671
401,46	17,534
401,67	19,570
401,87	18,456
402,08	15,206
402,29	19,893
402,49	20,901
402,70	20,865
402,90	15,622
403,11	21,860
403,32	19,007
403,52	17,078
403,73	21,163
403,93	19,564
404,14	21,840
404,35	20,900
404,55	20,425
404,76	20,085
404,96	18,849
405,17	22,217
405,38	25,946
405,58	17,810
405,79	20,534
405,99	22,020
406,20	23,916
406,40	16,755
406,61	24,000
406,82	23,895
407,02	24,706
407,23	24,073
407,43	19,546
407,64	20,010
407,85	24,541
408,05	18,583
408,26	29,658
408,46	28,744
408,67	19,935
408,87	21,956
409,08	25,329
409,29	25,597
409,49	29,699
409,70	23,184
409,90	23,653
410,11	26,167
410,31	27,198
410,52	25,290
410,72	22,971
410,93	30,589
411,14	22,925
411,34	26,141
411,55	29,230
411,75	30,516
411,96	28,590
412,16	29,968
412,37	27,387
412,57	26,787
412,78	29,570
412,99	25,804
413,19	30,750
413,40	29,140
413,60	25,365
413,81	30,080
414,01	31,552
414,22	28,569
414,42	26,551
414,63	26,541
414,83	33,430
415,04	36,980
415,24	28,617
415,45	27,485
415,65	27,956
415,86	29,929
416,07	31,763
416,27	29,590
416,48	34,783
416,68	33,181
416,89	31,125
417,09	29,147
417,30	33,703
417,50	33,703
417,71	36,682
417,91	34,472
418,12	32,011
418,32	30,717
418,53	32,033
418,73	29,576
418,94	34,781
419,14	35,573
419,35	28,139
419,55	33,742
419,76	35,629
419,96	34,778
420,17	30,472
420,37	31,729
420,58	40,903
420,78	33,543
420,99	31,936
421,19	37,043
421,40	35,914
421,60	39,788
421,81	30,550
422,01	36,228
422,22	38,426
422,42	36,026
422,63	37,776
422,83	36,230
423,04	38,969
423,24	41,481
423,45	34,858
423,65	35,015
423,86	40,540
424,06	37,075
424,27	34,120
424,47	34,157
424,67	33,789
424,88	39,873
425,08	36,290
425,29	45,278
425,49	38,003
425,70	33,079
425,90	37,117
426,11	35,668
426,31	37,120
426,52	35,960
426,72	39,471
426,93	38,912
427,13	42,861
427,33	37,538
427,54	40,612
427,74	42,700
427,95	41,852
428,15	34,862
428,36	39,835
428,56	36,543
428,77	37,213
428,97	39,645
429,18	42,086
429,38	38,186
429,58	40,627
429,79	43,811
429,99	37,922
430,20	34,810
430,40	43,541
430,61	37,503
430,81	39,213
431,01	37,301
431,22	43,936
431,42	40,492
431,63	37,265
431,83	38,382
432,04	40,427
432,24	41,436
432,44	38,710
432,65	34,169
432,85	37,128
433,06	36,666
433,26	35,935
433,47	35,521
433,67	35,772
433,87	38,507
434,08	33,882
434,28	37,202
434,49	36,279
434,69	40,244
434,89	35,631
435,10	38,078
435,30	40,204
435,51	32,255
435,71	36,027
435,91	39,379
436,12	36,769
436,32	36,577
436,53	39,778
436,73	38,506
436,93	42,468
437,14	38,680
437,34	41,907
437,55	38,238
437,75	41,125
437,95	40,752
438,16	43,771
438,36	39,646
438,57	36,702
438,77	41,868
438,97	39,982
439,18	45,221
439,38	41,024
439,58	37,835
439,79	40,559
439,99	37,832
440,20	42,882
440,40	40,382
440,60	41,161
440,81	43,333
441,01	42,221
441,21	41,744
441,42	42,113
441,62	41,047
441,83	42,562
442,03	43,895
442,23	42,325
442,44	40,128
442,64	42,074
442,84	37,390
443,05	39,061
443,25	38,639
443,45	42,249
443,66	43,105
443,86	36,765
444,06	41,393
444,27	38,372
444,47	40,414
444,67	39,739
444,88	41,927
445,08	43,573
445,28	40,151
445,49	40,901
445,69	41,644
445,90	41,882
446,10	45,471
446,30	42,930
446,51	39,278
446,71	42,666
446,91	45,981
447,12	46,024
447,32	41,928
447,52	43,831
447,72	42,998
447,93	43,661
448,13	40,969
448,33	50,503
448,54	44,741
448,74	37,517
448,94	43,505
449,15	46,516
449,35	45,228
449,55	40,594
449,76	47,474
449,96	41,320
450,16	47,463
450,37	40,439
450,57	43,921
450,77	40,568
450,98	45,085
451,18	41,432
451,38	42,213
451,58	44,055
451,79	43,807
451,99	46,464
452,19	44,436
452,40	42,397
452,60	39,160
452,80	40,101
453,00	47,242
453,21	45,458
453,41	48,142
453,61	44,219
453,82	45,069
454,02	40,044
454,22	43,891
454,42	43,457
454,63	38,313
454,83	42,570
455,03	44,718
455,24	43,785
455,44	43,815
455,64	44,202
455,84	40,243
456,05	41,765
456,25	38,534
456,45	42,910
456,65	39,141
456,86	44,682
457,06	45,371
457,26	45,525
457,47	46,656
457,67	44,781
457,87	39,728
458,07	41,107
458,28	46,353
458,48	43,662
458,68	42,141
458,88	45,122
459,09	42,288
459,29	43,921
459,49	41,176
459,69	42,496
459,90	47,278
460,10	43,450
460,30	41,556
460,50	40,794
460,71	43,885
460,91	37,916
461,11	43,696
461,31	42,036
461,52	45,071
461,72	43,136
461,92	43,803
462,12	52,000
462,32	40,201
462,53	39,327
462,73	38,790
462,93	45,179
463,13	39,957
463,34	44,792
463,54	40,467
463,74	38,267
463,94	42,317
464,14	41,606
464,35	40,061
464,55	48,214
464,75	48,164
464,95	44,931
465,16	41,218
465,36	48,164
465,56	42,953
465,76	40,207
465,96	41,236
466,17	38,547
466,37	41,453
466,57	41,001
466,77	44,509
466,97	43,552
467,18	48,027
467,38	40,556
467,58	42,728
467,78	47,738
467,98	40,923
468,19	43,509
468,39	49,417
468,59	45,872
468,79	43,378
468,99	44,293
469,19	40,718
469,40	42,636
469,60	37,499
469,80	41,363
470,00	42,802
470,20	45,620
470,41	40,179
470,61	41,942
470,81	43,788
471,01	41,243
471,21	46,311
471,41	41,680
471,62	41,713
471,82	42,721
472,02	38,134
472,22	42,555
472,42	41,361
472,62	42,946
472,83	41,673
473,03	43,785
473,23	39,107
473,43	46,828
473,63	41,605
473,83	41,266
474,03	40,882
474,24	50,239
474,44	41,533
474,64	40,095
474,84	42,732
475,04	43,209
475,24	40,029
475,45	42,402
475,65	41,361
475,85	47,081
476,05	40,551
476,25	42,843
476,45	41,225
476,65	47,648
476,85	42,645
477,06	41,129
477,26	40,299
477,46	43,146
477,66	42,445
477,86	40,558
478,06	40,692
478,26	46,079
478,46	41,573
478,67	42,923
478,87	44,249
479,07	40,693
479,27	42,113
479,47	39,132
479,67	35,470
479,87	38,532
480,07	45,616
480,28	41,529
480,48	37,860
480,68	42,758
480,88	43,529
481,08	41,213
481,28	45,751
481,48	42,298
481,68	42,477
481,88	39,940
482,08	39,035
482,29	46,217
482,49	40,125
482,69	44,534
482,89	37,936
483,09	45,232
483,29	40,766
483,49	38,442
483,69	40,614
483,89	38,494
484,09	39,060
484,29	38,836
484,50	41,446
484,70	41,826
484,90	38,591
485,10	38,396
485,30	40,986
485,50	43,922
485,70	40,706
485,90	38,074
486,10	34,002
486,30	37,543
486,50	39,380
486,70	39,866
486,90	39,713
487,10	40,950
487,30	40,635
487,51	39,074
487,71	38,804
487,91	38,430
488,11	38,071
488,31	34,779
488,51	40,633
488,71	39,216
488,91	39,483
489,11	38,495
489,31	39,028
489,51	38,569
489,71	40,231
489,91	42,231
490,11	39,786
490,31	37,752
490,51	39,740
490,71	37,080
490,91	37,713
491,11	41,186
491,31	42,551
491,51	34,802
491,72	40,090
491,92	40,666
492,12	38,571
492,32	40,937
492,52	40,336
492,72	39,310
492,92	40,011
493,12	41,966
493,32	38,574
493,52	35,933
493,72	39,384
493,92	37,893
494,12	39,680
494,32	42,061
494,52	38,768
494,72	40,703
494,92	38,446
495,12	42,612
495,32	41,027
495,52	38,825
495,72	38,469
495,92	42,875
496,12	42,925
496,32	37,790
496,52	40,940
496,72	41,736
496,92	39,962
497,12	40,346
497,32	39,820
497,52	40,494
497,72	42,521
497,92	42,467
498,12	37,079
498,32	41,454
498,52	40,903
498,72	38,715
498,92	37,750
499,12	44,244
499,32	39,867
499,52	40,804
499,72	43,901
499,92	40,976
500,12	42,345
500,32	40,503
500,52	37,912
500,72	46,198
500,91	45,291
501,11	41,954
501,31	38,728
501,51	42,009
501,71	42,258
501,91	43,141
502,11	40,011
502,31	40,522
502,51	43,909
502,71	42,199
502,91	41,521
503,11	40,043
503,31	41,555
503,51	39,529
503,71	39,091
503,91	41,053
504,11	40,026
504,31	40,563
504,51	42,477
504,71	44,344
504,91	41,211
505,10	39,655
505,30	42,593
505,50	43,018
505,70	40,697
505,90	41,298
506,10	37,587
506,30	41,335
506,50	40,409
506,70	44,511
506,90	39,359
507,10	41,655
507,30	41,316
507,50	41,725
507,70	42,234
507,89	42,641
508,09	41,690
508,29	39,356
508,49	40,738
508,69	40,729
508,89	39,960
509,09	40,378
509,29	41,164
509,49	42,846
509,69	44,964
509,89	40,815
510,09	39,421
510,28	41,697
510,48	41,296
510,68	38,572
510,88	37,660
511,08	41,199
511,28	40,499
511,48	38,792
511,68	39,779
511,88	38,506
512,07	39,949
512,27	41,825
512,47	40,834
512,67	38,483
512,87	37,085
513,07	39,454
513,27	39,402
513,47	40,350
513,67	40,346
513,86	41,029
514,06	39,854
514,26	39,103
514,46	41,949
514,66	39,317
514,86	42,233
515,06	43,875
515,26	41,261
515,45	40,325
515,65	38,223
515,85	41,482
516,05	40,991
516,25	39,386
516,45	42,885
516,65	40,124
516,84	43,145
517,04	41,780
517,24	36,456
517,44	41,298
517,64	40,348
517,84	42,316
518,04	38,370
518,23	43,992
518,43	41,287
518,63	38,464
518,83	39,727
519,03	38,398
519,23	40,183
519,42	42,625
519,62	40,507
519,82	39,565
520,02	39,992
520,22	41,161
520,42	38,663
520,61	41,914
520,81	41,022
521,01	41,652
521,21	36,659
521,41	38,974
521,61	41,606
521,80	36,796
522,00	40,032
522,20	41,936
522,40	43,181
522,60	38,384
522,79	35,068
522,99	41,321
523,19	39,905
523,39	37,258
523,59	39,157
523,78	41,638
523,98	40,631
524,18	40,174
524,38	36,247
524,58	39,620
524,77	40,977
524,97	41,220
525,17	39,279
525,37	39,396
525,57	41,563
525,76	37,532
525,96	39,441
526,16	37,051
526,36	39,632
526,56	37,180
526,75	36,894
526,95	41,254
527,15	39,624
527,35	39,367
527,55	39,255
527,74	41,918
527,94	38,030
528,14	35,982
528,34	36,743
528,53	39,627
528,73	39,236
528,93	39,856
529,13	36,879
529,32	39,714
529,52	39,699
529,72	36,114
529,92	37,972
530,12	38,877
530,31	37,271
530,51	39,556
530,71	38,851
530,91	38,892
531,10	33,683
531,30	38,502
531,50	34,628
531,70	38,057
531,89	37,114
532,09	35,914
532,29	37,443
532,49	36,821
532,68	36,209
532,88	38,496
533,08	34,859
533,28	40,741
533,47	38,964
533,67	38,269
533,87	36,251
534,06	41,675
534,26	39,324
534,46	37,816
534,66	37,370
534,85	37,442
535,05	34,552
535,25	39,142
535,45	33,169
535,64	39,465
535,84	37,153
536,04	33,063
536,23	39,129
536,43	37,121
536,63	35,028
536,83	38,441
537,02	36,908
537,22	36,372
537,42	37,050
537,61	35,219
537,81	36,871
538,01	34,554
538,20	36,274
538,40	36,634
538,60	36,596
538,80	34,540
538,99	34,619
539,19	33,676
539,39	33,341
539,58	34,455
539,78	30,680
539,98	30,771
540,17	30,425
540,37	31,694
540,57	29,650
540,76	27,871
540,96	28,827
541,16	31,950
541,36	27,389
541,55	23,725
541,75	26,526
541,95	27,306
542,14	25,433
542,34	26,110
542,54	25,216
542,73	26,712
542,93	25,028
543,13	26,087
543,32	25,125
543,52	25,691
543,72	23,083
543,91	26,029
544,11	24,796
544,31	25,635
544,50	26,360
544,70	26,356
544,89	25,625
545,09	28,502
545,29	25,766
545,48	26,682
545,68	27,098
545,88	26,938
546,07	26,571
546,27	27,895
546,47	29,357
546,66	29,600
546,86	31,591
547,06	28,732
547,25	29,332
547,45	33,955
547,64	31,308
547,84	33,897
548,04	31,398
548,23	36,639
548,43	31,144
548,63	34,860
548,82	35,373
549,02	32,178
549,21	33,917
549,41	32,828
549,61	33,014
549,80	33,957
550,00	35,092
550,20	32,643
550,39	34,374
550,59	32,592
550,78	35,064
550,98	30,813
551,18	36,478
551,37	35,075
551,57	34,278
551,76	34,695
551,96	34,854
552,16	33,712
552,35	35,934
552,55	33,422
552,74	33,865
552,94	36,265
553,14	33,549
553,33	35,993
553,53	33,608
553,72	34,923
553,92	35,392
554,12	34,882
554,31	33,519
554,51	36,253
554,70	34,225
554,90	35,129
555,09	39,214
555,29	37,237
555,49	36,222
555,68	36,983
555,88	34,025
556,07	36,705
556,27	39,438
556,46	34,515
556,66	35,833
556,86	35,674
557,05	35,837
557,25	34,763
557,44	35,978
557,64	36,955
557,83	34,524
558,03	35,312
558,22	35,192
558,42	35,818
558,62	35,698
558,81	36,292
559,01	34,850
559,20	37,613
559,40	35,598
559,59	34,715
559,79	34,397
559,98	38,159
560,18	38,590
560,37	36,697
560,57	37,264
560,76	36,396
560,96	34,863
561,16	38,159
561,35	35,350
561,55	38,340
561,74	35,001
561,94	37,627
562,13	35,273
562,33	38,111
562,52	37,720
562,72	35,957
562,91	33,758
563,11	36,493
563,30	38,677
563,50	32,600
563,69	35,039
563,89	34,262
564,08	37,207
564,28	35,453
564,47	34,946
564,67	34,912
564,86	36,800
565,06	35,099
565,25	36,241
565,45	35,265
565,64	38,624
565,84	34,895
566,03	34,102
566,23	37,891
566,42	36,651
566,62	36,575
566,81	35,836
567,01	40,161
567,20	38,637
567,40	33,939
567,59	34,314
567,79	37,796
567,98	38,785
568,18	38,444
568,37	38,267
568,57	38,398
568,76	37,800
568,96	35,356
569,15	36,302
569,35	37,331
569,54	39,339
569,73	38,247
569,93	35,785
570,12	35,665
570,32	38,416
570,51	37,768
570,71	38,838
570,90	38,711
571,10	36,789
571,29	36,308
571,49	34,773
571,68	38,898
571,87	38,104
572,07	36,484
572,26	35,642
572,46	37,503
572,65	38,525
572,85	34,472
573,04	36,600
573,24	38,795
573,43	40,417
573,62	38,113
573,82	38,299
574,01	36,529
574,21	36,393
574,40	35,097
574,60	35,378
574,79	39,174
574,98	35,449
575,18	35,706
575,37	34,954
575,57	37,727
575,76	36,411
575,96	36,692
576,15	35,839
576,34	37,612
576,54	36,838
576,73	37,842
576,93	36,627
577,12	37,092
577,31	36,619
577,51	36,842
577,70	36,471
577,90	37,325
578,09	35,188
578,28	34,484
578,48	34,525
578,67	39,371
578,87	39,045
579,06	35,992
579,25	38,076
579,45	37,797
579,64	36,622
579,84	37,043
580,03	36,839
580,22	38,495
580,42	35,145
580,61	35,960
580,81	34,417
581,00	37,792
581,19	37,458
581,39	36,468
581,58	36,750
581,77	36,645
581,97	37,626
582,16	35,011
582,35	35,664
582,55	36,166
582,74	37,711
582,94	36,678
583,13	34,539
583,32	36,226
583,52	36,934
583,71	36,855
583,90	36,558
584,10	35,615
584,29	37,903
584,48	34,841
584,68	35,941
584,87	37,035
585,06	36,636
585,26	35,285
585,45	34,866
585,65	37,459
585,84	35,784
586,03	36,235
586,23	34,464
586,42	35,897
586,61	36,603
586,81	36,596
587,00	36,899
587,19	34,169
587,39	37,265
587,58	37,428
587,77	35,968
587,97	34,203
588,16	35,285
588,35	35,518
588,54	37,036
588,74	36,125
588,93	37,250
589,12	37,682
589,32	35,961
589,51	36,599
589,70	34,780
589,90	33,344
590,09	35,326
590,28	39,007
590,48	37,361
590,67	37,067
590,86	37,381
591,06	35,108
591,25	39,016
591,44	36,896
591,63	36,230
591,83	35,936
592,02	36,477
592,21	36,669
592,41	36,698
592,60	37,148
592,79	37,625
592,98	37,227
593,18	37,369
593,37	36,107
593,56	38,970
593,76	37,763
593,95	36,209
594,14	36,659
594,33	38,917
594,53	36,610
594,72	35,821
594,91	39,624
595,10	37,600
595,30	36,274
595,49	36,462
595,68	39,192
595,88	37,925
596,07	36,935
596,26	36,996
596,45	37,316
596,65	35,924
596,84	36,963
597,03	39,360
597,22	37,556
597,42	39,021
597,61	37,319
597,80	39,168
597,99	36,992
598,19	38,858
598,38	39,202
598,57	37,698
598,76	39,698
598,95	39,548
599,15	38,627
599,34	39,577
599,53	39,288
599,72	38,150
599,92	38,054
600,11	38,124
600,30	38,796
600,49	40,519
600,69	40,189
600,88	38,863
601,07	38,568
601,26	39,516
601,45	39,042
601,65	38,938
601,84	39,605
602,03	38,398
602,22	38,436
602,42	37,955
602,61	38,568
602,80	38,942
602,99	39,452
603,18	36,697
603,38	38,824
603,57	37,732
603,76	39,025
603,95	38,409
604,14	39,624
604,34	40,397
604,53	37,696
604,72	39,606
604,91	39,303
605,10	38,285
605,29	38,969
605,49	37,664
605,68	38,992
605,87	39,760
606,06	38,113
606,25	36,442
606,45	39,262
606,64	37,758
606,83	39,695
607,02	37,814
607,21	39,590
607,40	38,091
607,60	34,988
607,79	36,009
607,98	35,941
608,17	34,532
608,36	35,419
608,55	36,398
608,75	37,004
608,94	35,805
609,13	32,303
609,32	32,272
609,51	33,403
609,70	31,483
609,89	32,164
610,09	30,613
610,28	32,895
610,47	30,172
610,66	31,504
610,85	29,502
611,04	33,776
611,23	30,964
611,43	31,434
611,62	31,231
611,81	30,872
612,00	30,822
612,19	29,816
612,38	32,749
612,57	32,469
612,77	33,102
612,96	32,064
613,15	33,145
613,34	33,791
613,53	33,855
613,72	36,152
613,91	35,112
614,10	33,522
614,29	36,628
614,49	34,680
614,68	35,548
614,87	36,671
615,06	39,032
615,25	36,421
615,44	37,128
615,63	36,690
615,82	35,701
616,01	35,734
616,21	35,667
616,40	38,705
616,59	40,015
616,78	37,931
616,97	37,419
617,16	38,136
617,35	39,562
617,54	37,598
617,73	38,533
617,92	37,904
618,11	38,318
618,31	35,157
618,50	38,646
618,69	37,753
618,88	36,629
619,07	34,870
619,26	35,139
619,45	37,743
619,64	37,076
619,83	35,289
620,02	37,145
620,21	39,239
620,40	36,300
620,59	36,197
620,78	36,712
620,97	38,487
621,17	38,421
621,36	37,018
621,55	38,155
621,74	38,077
621,93	37,828
622,12	36,232
622,31	35,478
622,50	38,016
622,69	38,159
622,88	38,350
623,07	39,243
623,26	37,966
623,45	39,293
623,64	36,615
623,83	36,125
624,02	39,104
624,21	38,739
624,40	37,700
624,59	35,775
624,78	37,993
624,97	39,564
625,16	36,055
625,35	35,793
625,54	38,059
625,73	37,492
625,92	37,781
626,12	38,208
626,31	38,435
626,50	39,145
626,69	38,401
626,88	34,777
627,07	38,692
627,26	37,878
627,45	34,979
627,64	36,769
627,83	37,454
628,02	35,924
628,21	36,787
628,40	36,820
628,59	39,453
628,78	36,969
628,97	37,046
629,16	35,899
629,35	36,936
629,54	38,226
629,73	34,899
629,92	35,310
630,10	36,553
630,29	38,467
630,48	37,149
630,67	37,512
630,86	35,940
631,05	37,081
631,24	39,702
631,43	35,279
631,62	37,621
631,81	37,714
632,00	37,800
632,19	34,416
632,38	37,857
632,57	35,129
632,76	35,717
632,95	38,215
633,14	40,007
633,33	38,695
633,52	38,077
633,71	37,804
633,90	36,975
634,09	36,482
634,28	37,911
634,47	37,073
634,66	38,115
634,85	38,754
635,04	38,521
635,22	38,375
635,41	37,332
635,60	39,741
635,79	38,177
635,98	36,660
636,17	38,597
636,36	37,437
636,55	38,030
636,74	36,907
636,93	38,513
637,12	38,071
637,31	38,232
637,50	38,014
637,69	39,509
637,87	38,928
638,06	36,902
638,25	38,365
638,44	37,802
638,63	35,463
638,82	36,075
639,01	39,874
639,20	38,471
639,39	37,952
639,58	35,621
639,77	38,291
639,95	37,408
640,14	39,746
640,33	36,718
640,52	38,011
640,71	40,615
640,90	38,461
641,09	40,733
641,28	35,452
641,47	39,059
641,66	38,074
641,84	37,052
642,03	38,351
642,22	39,250
642,41	40,469
642,60	37,390
642,79	38,210
642,98	38,086
643,17	38,204
643,35	37,261
643,54	37,814
643,73	38,017
643,92	37,929
644,11	36,255
644,30	35,926
644,49	41,355
644,67	38,252
644,86	34,681
645,05	39,910
645,24	39,236
645,43	38,483
645,62	38,833
645,81	38,485
645,99	39,372
646,18	37,226
646,37	35,412
646,56	38,103
646,75	40,455
646,94	41,243
647,13	37,736
647,31	37,567
647,50	38,040
647,69	39,700
647,88	37,774
648,07	39,251
648,26	41,140
648,44	37,096
648,63	36,859
648,82	37,616
649,01	40,555
649,20	36,267
649,38	37,357
649,57	37,542
649,76	36,894
649,95	38,870
650,14	36,805
650,33	35,963
650,51	37,899
650,70	37,749
650,89	38,226
651,08	36,938
651,27	39,234
651,45	36,758
651,64	37,297
651,83	37,427
652,02	36,692
652,21	37,543
652,39	40,184
652,58	37,537
652,77	37,462
652,96	36,550
653,15	37,681
653,33	35,984
653,52	38,880
653,71	40,348
653,90	39,250
654,09	38,435
654,27	39,266
654,46	40,617
654,65	39,607
654,84	39,726
655,02	39,165
655,21	40,960
655,40	42,292
655,59	38,756
655,77	40,479
655,96	40,945
656,15	40,828
656,34	40,536
656,53	40,041
656,71	40,965
656,90	38,571
657,09	41,970
657,28	41,402
657,46	38,832
657,65	40,084
657,84	38,910
658,03	39,185
658,21	38,058
658,40	38,256
658,59	37,716
658,78	38,297
658,96	37,176
659,15	37,675
659,34	38,321
659,52	40,221
659,71	38,784
659,90	36,365
660,09	38,342
660,27	37,044
660,46	40,126
660,65	35,783
660,84	35,514
661,02	38,502
661,21	38,753
661,40	39,365
661,58	38,177
661,77	39,255
661,96	34,613
662,15	36,916
662,33	36,423
662,52	37,563
662,71	38,515
662,89	35,364
663,08	37,371
663,27	37,430
663,45	38,492
663,64	37,596
663,83	36,228
664,02	37,703
664,20	38,750
664,39	35,907
664,58	37,073
664,76	37,733
664,95	37,871
665,14	36,973
665,32	36,888
665,51	38,149
665,70	37,580
665,88	38,598
666,07	38,288
666,26	39,194
666,44	39,937
666,63	36,605
666,82	35,705
667,00	39,106
667,19	35,877
667,38	38,016
667,56	38,212
667,75	38,480
667,94	37,525
668,12	35,632
668,31	38,236
668,50	37,393
668,68	38,439
668,87	39,195
669,06	37,561
669,24	40,146
669,43	37,005
669,62	36,076
669,80	36,305
669,99	37,378
670,18	37,620
670,36	34,965
670,55	37,446
670,74	37,232
670,92	36,720
671,11	36,920
671,29	36,152
671,48	38,200
671,67	38,085
671,85	36,199
672,04	35,899
672,23	35,869
672,41	35,775
672,60	38,577
672,78	36,424
672,97	38,065
673,16	37,660
673,34	36,961
673,53	35,863
673,71	36,635
673,90	38,024
674,09	36,923
674,27	37,076
674,46	37,847
674,64	37,293
674,83	37,052
675,02	35,888
675,20	36,341
675,39	37,754
675,57	36,789
675,76	35,522
675,95	39,790
676,13	37,859
676,32	37,723
676,50	37,014
676,69	36,703
676,88	36,151
677,06	37,068
677,25	38,035
677,43	39,459
677,62	37,963
677,80	36,477
677,99	38,176
678,18	38,118
678,36	40,004
678,55	35,325
678,73	34,966
678,92	38,918
679,10	37,846
679,29	37,052
679,48	36,287
679,66	36,496
679,85	35,026
680,03	37,607
680,22	36,567
680,40	36,845
680,59	37,483
680,77	37,563
680,96	38,320
681,15	36,117
681,33	39,789
681,52	37,806
681,70	36,643
681,89	38,250
682,07	37,611
682,26	36,533
682,44	37,903
682,63	38,421
682,81	36,921
683,00	38,426
683,18	35,912
683,37	38,339
683,55	37,447
683,74	36,989
683,92	41,585
684,11	37,578
684,29	38,373
684,48	35,836
684,67	37,786
684,85	37,211
685,04	39,261
685,22	37,772
685,41	36,992
685,59	36,642
685,78	36,579
685,96	36,971
686,15	37,833
686,33	37,073
686,52	37,634
686,70	36,241
686,89	38,282
687,07	37,654
687,26	38,890
687,44	37,366
687,62	38,269
687,81	38,415
687,99	37,976
688,18	36,245
688,36	36,880
688,55	38,274
688,73	38,136
688,92	36,461
689,10	38,972
689,29	38,240
689,47	38,947
689,66	36,691
689,84	36,901
690,03	40,672
690,21	36,186
690,40	37,313
690,58	35,408
690,76	36,633
690,95	38,444
691,13	37,580
691,32	37,673
691,50	37,916
691,69	39,405
691,87	35,376
692,06	35,232
692,24	38,658
692,43	38,461
692,61	36,867
692,79	36,620
692,98	35,245
693,16	37,043
693,35	36,564
693,53	37,618
693,72	36,982
693,90	38,310
694,08	37,087
694,27	35,832
694,45	39,591
694,64	40,028
694,82	36,302
695,01	36,411
695,19	37,255
695,37	38,080
695,56	36,849
695,74	37,962
695,93	39,936
696,11	37,479
696,29	38,627
696,48	37,711
696,66	37,854
696,85	38,272
697,03	36,840
697,21	38,566
697,40	37,012
697,58	37,187
697,77	38,016
697,95	38,084
698,13	40,445
698,32	38,143
698,50	37,715
698,69	36,283
698,87	38,320
699,05	36,990
699,24	36,526
699,42	37,323
699,60	35,099
699,79	36,234
699,97	37,268
700,16	35,281
700,34	39,414
700,52	37,929
700,71	37,340
700,89	36,499
701,07	38,153
701,26	38,621
701,44	36,422
701,63	35,359
701,81	36,901
701,99	37,458
702,18	34,842
702,36	35,528
702,54	35,482
702,73	36,932
702,91	37,308
703,09	37,526
703,28	37,853
703,46	38,577
703,64	36,642
703,83	37,335
704,01	38,485
704,19	37,104
704,38	37,003
704,56	36,457
704,74	38,593
704,93	36,796
705,11	36,617
705,29	36,697
705,48	38,364
705,66	38,607
705,84	37,299
706,03	34,916
706,21	37,817
706,39	37,190
706,58	38,353
706,76	36,138
706,94	39,409
707,12	37,696
707,31	36,778
707,49	36,461
707,67	35,822
707,86	39,740
708,04	34,918
708,22	36,696
708,41	37,324
708,59	37,637
708,77	34,846
708,95	38,497
709,14	40,645
709,32	39,215
709,50	37,180
709,69	36,131
709,87	38,075
710,05	36,463
710,23	36,338
710,42	35,903
710,60	37,852
710,78	36,794
710,97	35,728
711,15	36,988
711,33	39,952
711,51	36,704
711,70	36,356
711,88	35,361
712,06	38,323
712,24	37,711
712,43	38,372
712,61	36,769
712,79	37,148
712,97	38,279
713,16	37,632
713,34	35,872
713,52	38,328
713,70	38,645
713,89	38,073
714,07	37,036
714,25	38,214
714,43	39,426
714,62	36,007
714,80	36,563
714,98	33,878
715,16	37,713
715,35	35,838
715,53	35,401
715,71	37,101
715,89	38,253
716,07	37,297
716,26	40,171
716,44	36,993
716,62	37,137
716,80	36,550
716,99	37,634
717,17	38,911
717,35	38,618
717,53	35,695
717,71	36,137
717,90	37,002
718,08	37,379
718,26	35,193
718,44	37,055
718,62	39,226
718,81	37,655
718,99	35,832
719,17	36,252
719,35	37,941
719,53	37,963
719,72	34,950
719,90	37,912
720,08	35,408
720,26	38,850
720,44	36,197
720,62	37,942
720,81	38,962
720,99	39,687
721,17	38,583
721,35	37,802
721,53	38,355
721,72	40,239
721,90	38,364
722,08	38,284
722,26	38,462
722,44	37,575
722,62	37,175
722,81	36,152
722,99	37,150
723,17	36,109
723,35	37,436
723,53	35,960
723,71	39,203
723,89	39,415
724,08	34,307
724,26	36,106
724,44	36,182
724,62	37,661
724,80	37,261
724,98	38,797
725,16	39,396
725,35	38,189
725,53	35,948
725,71	37,654
725,89	38,144
726,07	41,073
726,25	40,096
726,43	37,883
726,61	39,053
726,80	39,902
726,98	37,327
727,16	37,798
727,34	39,718
727,52	37,840
727,70	35,623
727,88	37,094
728,06	34,346
728,25	33,717
728,43	38,259
728,61	36,924
728,79	36,556
728,97	39,101
729,15	37,427
729,33	38,756
729,51	37,823
729,69	38,558
729,87	38,533
730,06	38,177
730,24	37,708
730,42	40,861
730,60	34,811
730,78	37,881
730,96	37,114
731,14	38,981
731,32	36,320
731,50	35,851
731,68	38,169
731,86	38,185
732,04	38,262
732,22	36,530
732,41	41,175
732,59	37,606
732,77	37,446
732,95	39,716
733,13	37,552
733,31	38,811
733,49	34,782
733,67	39,841
733,85	39,021
734,03	37,011
734,21	38,039
734,39	37,682
734,57	39,325
734,75	38,422
734,93	35,866
735,11	38,129
735,29	34,666
735,47	39,164
735,65	38,677
735,84	36,390
736,02	37,671
736,20	39,378
736,38	38,210
736,56	37,559
736,74	37,373
736,92	35,909
737,10	38,111
737,28	38,370
737,46	38,094
737,64	38,263
737,82	37,573
738,00	38,593
738,18	38,414
738,36	38,253
738,54	38,821
738,72	35,910
738,90	38,468
739,08	38,367
739,26	34,630
739,44	38,198
739,62	38,357
739,80	39,733
739,98	36,646
740,16	35,347
740,34	38,232
740,52	40,305
740,70	36,390
740,88	35,662
741,06	37,474
741,24	38,849
741,42	37,435
741,60	36,621
741,78	39,102
741,96	36,231
742,14	36,286
742,32	34,444
742,50	39,317
742,68	38,580
742,86	37,008
743,04	35,072
743,21	38,429
743,39	38,576
743,57	36,863
743,75	35,728
743,93	36,450
744,11	34,644
744,29	37,434
744,47	37,234
744,65	37,141
744,83	35,852
745,01	36,124
745,19	37,367
745,37	40,286
745,55	39,037
745,73	36,981
745,91	35,895
746,09	35,896
746,27	35,323
746,45	34,020
746,62	36,374
746,80	35,355
746,98	38,454
747,16	37,406
747,34	35,634
747,52	37,388
747,70	36,538
747,88	36,809
748,06	37,269
748,24	38,131
748,42	37,099
748,60	35,799
748,78	36,805
748,95	39,444
749,13	39,374
749,31	37,414
749,49	37,593
749,67	35,630
749,85	37,435
750,03	37,114
750,21	38,247
750,39	38,104
750,57	39,753
750,74	36,640
750,92	35,292
751,10	38,666
751,28	35,500
751,46	36,765
751,64	39,098
751,82	38,296
752,00	38,860
752,17	38,325
752,35	34,054
752,53	36,425
752,71	36,240
752,89	37,888
753,07	35,937
753,25	36,979
753,43	36,259
753,60	38,261
753,78	37,464
753,96	39,393
754,14	35,931
754,32	37,073
754,50	37,145
754,68	40,449
754,85	37,438
755,03	36,414
755,21	37,699
755,39	41,446
755,57	37,285
755,75	37,290
755,92	37,298
756,10	38,874
756,28	38,622
756,46	34,946
756,64	37,284
756,82	37,593
756,99	38,147
757,17	37,435
757,35	37,342
757,53	39,753
757,71	39,367
757,89	35,756
758,06	37,711
758,24	38,335
758,42	38,458
758,60	37,028
758,78	38,549
758,95	38,118
759,13	40,021
759,31	37,309
759,49	38,197
759,67	38,361
759,84	36,788
760,02	38,795
760,20	36,247
760,38	36,813
760,56	37,095
760,73	39,672
760,91	37,736
761,09	38,983
761,27	36,471
761,45	35,890
761,62	39,566
761,80	39,416
761,98	37,575
762,16	37,408
762,33	36,398
762,51	38,388
762,69	38,240
762,87	37,382
763,05	38,818
763,22	38,667
763,40	37,115
763,58	36,269
763,76	37,138
763,93	40,109
764,11	40,539
764,29	37,300
764,47	36,619
764,64	37,269
764,82	39,455
765,00	37,057
765,18	37,205
765,35	36,256
765,53	38,741
765,71	38,049
765,89	37,157
766,06	38,054
766,24	37,697
766,42	37,275
766,60	36,642
766,77	37,732
766,95	37,927
767,13	38,264
767,30	36,717
767,48	36,729
767,66	38,164
767,84	36,734
768,01	38,042
768,19	38,351
768,37	37,600
768,54	37,479
768,72	38,528
768,90	38,236
769,08	38,462
769,25	38,646
769,43	36,362
769,61	34,497
769,78	36,861
769,96	36,733
770,14	39,367
770,31	40,196
770,49	39,645
770,67	37,016
770,85	36,671
771,02	38,232
771,20	36,435
771,38	38,585
771,55	36,884
771,73	36,536
771,91	39,658
772,08	39,514
772,26	37,152
772,44	36,308
772,61	36,768
772,79	36,731
772,97	37,066
773,14	34,915
773,32	38,993
773,50	37,448
773,67	37,009
773,85	40,746
774,03	39,338
774,20	38,852
774,38	38,335
774,56	40,104
774,73	37,522
774,91	37,405
775,09	37,299
775,26	38,778
775,44	38,811
775,61	39,229
775,79	36,191
775,97	40,838
776,14	36,940
776,32	36,707
776,50	37,268
776,67	37,416
776,85	39,070
777,03	39,095
777,20	38,459
777,38	39,730
777,55	42,439
777,73	35,943
777,91	38,500
778,08	39,079
778,26	38,075
778,43	39,413
778,61	34,095
778,79	37,955
778,96	37,663
779,14	36,356
779,32	36,556
779,49	39,301
779,67	41,039
779,84	38,603
780,02	38,579
780,20	33,793
780,37	40,019
780,55	33,197
780,72	40,500
780,90	40,210
781,07	38,649
781,25	37,963
781,43	37,620
781,60	39,324
781,78	40,548
781,95	38,737
782,13	37,629
782,30	41,950
782,48	38,822
782,66	36,387
782,83	33,715
783,01	44,053
783,18	38,520
783,36	38,164
783,53	40,093
783,71	37,738
783,89	40,808
784,06	39,304
784,24	38,930
784,41	38,674
784,59	37,561
784,76	40,327
784,94	37,754
785,11	37,880
785,29	39,102
785,46	38,282
785,64	36,712
785,82	38,598
785,99	40,327
786,17	39,042
786,34	37,181
786,52	40,192
786,69	41,735
786,87	38,465
787,04	38,465
787,22	36,741
787,39	37,461
787,57	40,290
787,74	38,806
787,92	40,489
788,09	41,293
788,27	38,945
788,44	37,135
788,62	38,533
788,79	38,985
788,97	40,465
789,14	38,395
789,32	39,535
789,49	38,620
789,67	40,754
789,84	40,701
790,02	41,738
790,19	37,069
790,37	38,114
790,54	40,972
790,72	42,389
790,89	43,047
791,07	40,643
791,24	36,213
791,42	41,979
791,59	40,128
791,77	39,286
791,94	36,402
792,12	38,222
792,29	39,663
792,47	39,600
792,64	40,592
792,81	41,078
792,99	41,027
793,16	39,988
793,34	40,895
793,51	39,911
793,69	40,487
793,86	39,288
794,04	40,166
794,21	41,599
794,39	35,898
794,56	39,095
794,73	39,193
794,91	41,321
795,08	42,515
795,26	40,758
795,43	39,638
795,61	41,905
795,78	41,230
795,95	40,537
796,13	41,587
796,30	41,349
796,48	35,633
796,65	40,926
796,83	39,937
797,00	40,168
797,17	37,527
797,35	37,216
797,52	40,558
797,70	41,405
797,87	39,572
798,04	34,681
798,22	39,404
798,39	38,701
798,57	40,265
798,74	39,522
798,91	35,517
799,09	36,961
799,26	43,355
799,44	37,357
799,61	40,015
799,78	40,357
799,96	41,613
800,13	39,917
800,31	38,002
800,48	44,733
800,65	40,287
800,83	39,184
801,00	37,330
801,17	40,275
801,35	41,031
801,52	36,996
801,70	36,905
801,87	38,421
802,04	44,075
802,22	36,723
802,39	38,186
802,56	45,570
802,74	41,573
802,91	39,184
803,08	37,624
803,26	42,410
803,43	41,250
803,61	38,843
803,78	41,069
803,95	40,589
804,13	40,628
804,30	37,631
804,47	45,164
804,65	40,847
804,82	39,676
804,99	39,524
805,17	40,374
805,34	46,713
805,51	44,083
805,69	39,918
805,86	39,424
806,03	47,741
806,21	45,065
806,38	41,305
806,55	43,865
806,72	45,141
806,90	39,771
807,07	38,490
807,24	35,548
807,42	38,654
807,59	41,710
807,76	36,917
807,94	38,822
808,11	40,088
808,28	41,741
808,45	41,160
808,63	38,833
808,80	39,933
808,97	40,599
809,15	39,943
809,32	41,513
809,49	37,794
809,67	38,771
809,84	40,395
810,01	40,666
810,18	45,673
810,36	45,242
810,53	42,121
810,70	43,440
810,87	43,851
811,05	37,088
811,22	44,875
811,39	42,254
811,57	43,946
811,74	45,270
811,91	40,657
812,08	43,297
812,26	43,388
812,43	43,980
812,60	43,566
812,77	41,654
812,95	45,497
813,12	41,095
813,29	37,045
813,46	42,603
813,64	41,461
813,81	44,065
813,98	39,112
814,15	44,282
814,32	46,128
814,50	43,121
814,67	41,771
814,84	40,158
815,01	39,210
815,19	33,657
815,36	37,504
815,53	39,008
815,70	38,778
815,87	44,876
816,05	36,791
816,22	42,498
816,39	46,933
816,56	46,668
816,74	41,005
816,91	41,354
817,08	46,401
817,25	48,782
817,42	43,555
817,60	46,174
817,77	42,756
817,94	43,237
818,11	41,774
818,28	41,949
818,45	43,725
818,63	43,107
818,80	41,143
818,97	41,098
819,14	49,485
819,31	45,156
819,49	42,917
819,66	41,265
819,83	47,680
820,00	42,509
820,17	42,558
820,34	46,044
820,52	45,350
820,69	44,741
820,86	41,660
821,03	42,540
821,20	45,543
821,37	45,413
821,55	35,930
821,72	39,242
821,89	46,590
822,06	46,266
822,23	40,377
822,40	40,630
822,57	44,334
822,75	47,055
822,92	36,197
823,09	36,819
823,26	47,493
823,43	48,802
823,60	40,173
823,77	44,337
823,94	48,490
824,12	45,062
824,29	41,852
824,46	39,542
824,63	49,957
824,80	45,967
824,97	40,120
825,14	41,384
825,31	46,822
825,49	38,304
825,66	41,572
825,83	39,868
826,00	48,121
826,17	52,041
826,34	39,372
826,51	41,797
826,68	38,131
826,85	44,197
827,02	44,565
827,20	40,454
827,37	41,326
827,54	47,581
827,71	40,654
827,88	46,082
828,05	46,892
828,22	43,081
828,39	49,431
828,56	48,889
828,73	45,049
828,90	51,533
829,07	44,965
829,25	42,538
829,42	44,074
829,59	40,840
829,76	39,613
829,93	40,748
830,10	41,394
830,27	42,194
830,44	45,997
830,61	42,723
830,78	54,458
830,95	44,163
831,12	40,160
831,29	45,664
831,46	40,511
831,63	47,414
831,80	45,758
831,97	44,463
832,14	50,607
832,31	54,817
832,48	41,733
832,65	51,699
832,83	44,322
833,00	44,980
833,17	41,730
833,34	46,033
833,51	48,724
833,68	51,985
833,85	49,653
834,02	37,489
834,19	45,241
834,36	54,902
834,53	41,442
834,70	50,621
834,87	55,569
835,04	43,806
835,21	49,337
835,38	36,748
835,55	45,024
835,72	54,321
835,89	38,510
836,06	45,497
836,23	56,258
836,40	35,447
836,57	37,422
836,74	46,631
836,91	44,138
837,08	52,489
837,25	48,046
837,42	37,974
837,59	41,135
837,76	42,182
837,93	41,311
838,09	39,404
838,26	52,743
838,43	53,739
838,60	44,050
838,77	37,721
838,94	54,689
839,11	43,901
839,28	44,818
839,45	44,049
839,62	48,875
839,79	48,435
839,96	43,766
840,13	46,829
840,30	41,920
840,47	39,140
840,64	42,765
840,81	50,879
840,98	44,478
841,15	58,773
841,32	38,004
841,48	52,920
841,65	49,182
841,82	45,170
841,99	38,749
842,16	41,756
842,33	50,807
842,50	51,276
842,67	47,928
842,84	45,361
843,01	51,678
843,18	51,302
843,35	41,572
843,52	49,858
843,68	51,841
843,85	54,772
844,02	47,691
844,19	37,959
844,36	58,128
844,53	51,004
844,70	54,148
844,87	52,812
845,04	59,296
845,21	41,923
845,37	52,218
845,54	54,085
845,71	44,986
845,88	61,435
846,05	43,227
846,22	40,150
846,39	51,575
846,56	57,870
846,72	31,913
846,89	48,714
847,06	57,369
847,23	49,781
847,40	41,638
847,57	45,124
847,74	48,806
847,90	52,623
848,07	51,460
848,24	50,515
848,41	63,674
848,58	58,487
848,75	53,801
848,92	51,608
849,08	47,277
849,25	55,963
849,42	42,430
849,59	47,857
849,76	45,125
849,93	51,235
850,09	51,144
850,26	37,343
850,43	56,255
850,60	46,525
850,77	49,207
850,94	59,123
851,10	53,865
851,27	52,873
851,44	36,333
851,61	49,257
851,78	55,036
851,95	44,043
852,11	46,580
852,28	49,511
852,45	60,801
852,62	61,497
852,79	51,556
852,95	43,446
853,12	51,198
853,29	43,298
853,46	51,132
853,63	59,474
853,79	50,822
853,96	31,788
854,13	63,260
854,30	39,213
854,46	65,131
854,63	51,125
854,80	49,388
854,97	36,130
855,14	62,527
855,30	66,790
855,47	49,608
855,64	54,253
855,81	54,656
855,97	68,551
856,14	56,096
856,31	29,465
856,48	64,267
856,65	76,663
856,81	54,688
856,98	34,924
857,15	54,058
857,32	65,913
857,48	38,916
857,65	56,120
857,82	68,402
857,99	57,313
858,15	48,767
858,32	50,451
858,49	57,054
858,65	57,575
858,82	51,791
858,99	52,291
859,16	53,892
859,32	61,237
859,49	48,374
859,66	41,015
859,83	55,949
859,99	55,311
860,16	52,167
860,33	55,722
860,49	40,601
860,66	54,730
860,83	45,413
861,00	49,346
861,16	66,812
861,33	54,452
861,50	38,315
861,66	61,454
861,83	67,827
862,00	67,058
862,16	52,345
862,33	49,861
862,50	88,990
862,67	61,937
862,83	57,931
863,00	64,345
863,17	77,571
863,33	53,816
863,50	47,628
863,67	57,921
863,83	64,421
864,00	73,522
864,17	41,257
864,33	39,221
864,50	61,987
864,67	39,427
864,83	55,416
865,00	48,700
865,17	63,976
865,33	72,434
865,50	21,267
865,67	57,411
865,83	77,071
866,00	84,240
866,17	65,608
866,33	51,390
866,50	73,679
866,66	67,804
866,83	54,034
867,00	72,382
867,16	76,629
867,33	94,475
867,50	51,623
867,66	44,769
867,83	71,335
868,00	71,273
868,16	51,378
868,33	55,962
868,49	75,645
868,66	65,033
868,83	58,992
868,99	58,127
869,16	82,846
869,32	65,521
869,49	39,380
869,66	52,703
869,82	83,795
869,99	82,527
870,15	61,567
870,32	68,019
870,49	95,141
870,65	126,111
870,82	68,449
870,98	77,784
871,15	102,356
871,32	81,849
871,48	29,762
871,65	31,951
871,81	72,736
871,98	55,023
872,15	48,648
872,31	39,365
872,48	127,887
872,64	71,425
872,81	37,317
872,97	68,453
873,14	90,802
873,31	79,984
873,47	65,854
873,64	57,135
873,80	113,858
873,97	106,319
874,13	27,881
874,30	45,787
874,46	80,182
874,63	54,591
874,80	34,002
874,96	38,545
875,13	106,263
875,29	38,930
875,46	101,593
875,62	52,385
875,79	90,875
875,95	76,458
876,12	49,738
876,28	-2,132
876,45	106,895
876,61	97,209
876,78	50,178
876,94	46,932
877,11	91,134
877,27	79,591
877,44	56,962
877,60	76,729
877,77	92,809
877,94	95,911
878,10	37,966
878,27	84,613
878,43	119,804
878,60	51,996
878,76	57,517
878,93	69,194
879,09	116,072
879,26	80,422
879,42	109,592
879,58	72,600
879,75	111,093
879,91	146,800
880,08	-31,008
880,24	42,245
880,41	52,799
880,57	95,281
880,74	38,585
880,90	17,834
881,07	59,886
881,23	135,275
881,40	72,823
881,56	96,395
881,73	108,735
881,89	115,862
882,06	28,812
882,22	159,884
882,38	140,633
882,55	124,502
882,71	89,699
882,88	48,875
883,04	161,848
883,21	176,990
883,37	86,349
883,54	109,847
883,70	247,041
883,86	101,357
884,03	109,269
884,19	45,788
884,36	154,116
884,52	189,702
884,69	40,730
884,85	80,823
885,01	207,829
885,18	112,618
885,34	93,451
885,51	4,721
885,67	68,524
>>>>> Data<<<<< Espectral Procesado Extremo
