Fichero De Datos De SpectraSuite
++++++++++++++++++++++++++++++++++++
Fecha: Wed Apr 22 11:54:58 CEST 2009
Usuario: evoflor
Presente Oscuro Del Espectro: Sí
La Referencia de Presente Del Espectro De: Sí
Muestreados de los componentes de Número de espectros: 1
Espectrómetros: USB4F02353
Tiempo de integración (usec): 500000 (USB4F02353)
Promedio de Espectros Hechos un: 5 (USB4F02353)
El Alisar Del Furgón: 0 (USB4F02353)
Párrafo de de Corregir del la del del de Eléctrica del obscuridad: Sí (USB4F02353)
Estrobo/Lámpara Permitido: No (USB4F02353)
Correct for Detector Non-linearity: No (USB4F02353)
Párrafo de de Corregir del la del del de Externa del luz: No (USB4F02353)
Procesado del espectro de Número de pixeles en: 3648
>>>>> Comienza Data<<<<< Espectral Procesado Del EL
177,79	193,356
178,00	193,356
178,22	193,356
178,44	1174,615
178,66	-185,650
178,88	178,143
179,09	-272,809
179,31	122,452
179,53	577,430
179,75	22,319
179,96	513,879
180,18	-186,185
180,40	376,146
180,62	241,671
180,83	-345,000
181,05	-683,049
181,27	-15510,000
181,49	-23,935
181,70	-9,577
181,92	416,802
182,14	418,102
182,36	-14,168
182,58	-533,100
182,79	724,152
183,01	-43,554
183,23	137,849
183,45	-324,646
183,66	-427,035
183,88	345,353
184,10	-3194,727
184,32	120,817
184,53	282,529
184,75	-55,116
184,97	3,011
185,18	-272,763
185,40	-714,952
185,62	128,786
185,84	41,725
186,05	124,817
186,27	-125,660
186,49	1565,769
186,71	116,232
186,92	163,495
187,14	-114,424
187,36	97,096
187,58	81,080
187,79	-112,477
188,01	200,634
188,23	-335,540
188,45	2,556
188,66	233,973
188,88	-2262,000
189,10	-1784,100
189,31	24,215
189,53	120,274
189,75	483,205
189,97	104,654
190,18	97,468
190,40	461,824
190,62	155,894
190,83	-107,218
191,05	134,833
191,27	198,600
191,49	450,520
191,70	-70,240
191,92	-566,186
192,14	-5,782
192,35	497,109
192,57	2577,429
192,79	-57,366
193,01	191,607
193,22	172,943
193,44	-140,119
193,66	103,519
193,87	29,358
194,09	-0,229
194,31	154,686
194,53	1165,804
194,74	85,984
194,96	8,325
195,18	154,809
195,39	-458,865
195,61	-100,927
195,83	-291,978
196,04	153,535
196,26	-258,844
196,48	-31,683
196,70	376,163
196,91	197,377
197,13	114,456
197,35	-25,447
197,56	507,771
197,78	1532,910
198,00	171,399
198,21	433,544
198,43	-1194,244
198,65	159,487
198,86	272,698
199,08	-138,000
199,30	271,883
199,51	-205,896
199,73	326,405
199,95	379,233
200,16	783,115
200,38	216,857
200,60	88,887
200,81	339,636
201,03	186,440
201,25	-1487,100
201,46	179,327
201,68	55,335
201,90	3093,409
202,11	-193,168
202,33	161,957
202,55	767,625
202,76	-138,227
202,98	198,293
203,20	-169,760
203,41	-545,842
203,63	91,587
203,85	-42510,000
204,06	117,425
204,28	-160,988
204,50	235,522
204,71	331,113
204,93	-77,520
205,15	8,765
205,36	-150,115
205,58	78,138
205,80	-59,946
206,01	71,231
206,23	129,902
206,45	186,587
206,66	96,549
206,88	-23,042
207,10	215,250
207,31	252,993
207,53	250,029
207,75	22,859
207,96	794,104
208,18	-255,307
208,39	117,901
208,61	2217,429
208,83	-348,303
209,04	380,107
209,26	-200,046
209,48	410,159
209,69	191,952
209,91	639,223
210,13	41,520
210,34	54,988
210,56	202,660
210,77	-1418,976
210,99	138,739
211,21	5730,000
211,42	-119,869
211,64	-1,923
211,86	228,658
212,07	260,419
212,29	208,649
212,50	129,167
212,72	59,654
212,94	105,788
213,15	160,433
213,37	143,169
213,58	-144,146
213,80	-2064,643
214,02	6577,059
214,23	297,646
214,45	511,180
214,67	-1023,293
214,88	-178,893
215,10	-250,722
215,31	63,341
215,53	-114,068
215,75	211,670
215,96	1208,758
216,18	218,451
216,39	238,122
216,61	324,694
216,83	366,562
217,04	1205,730
217,26	3,242
217,47	214,728
217,69	311,580
217,91	198,943
218,12	-98310,000
218,34	167,443
218,55	380,133
218,77	-4,459
218,99	139,990
219,20	-110,976
219,42	332,332
219,63	24,499
219,85	-136,352
220,06	187,731
220,28	200,386
220,50	125,424
220,71	97,477
220,93	2330,377
221,14	-1586,100
221,36	3,040
221,58	7,800
221,79	-73,584
222,01	847,500
222,22	936,908
222,44	-614,494
222,65	146,015
222,87	316,154
223,09	129,427
223,30	111,998
223,52	65,180
223,73	54,016
223,95	75,085
224,16	161,876
224,38	456,896
224,60	114,238
224,81	171,717
225,03	144,945
225,24	234,861
225,46	10,814
225,67	7,162
225,89	111,008
226,10	453,343
226,32	1124,880
226,54	-14,546
226,75	-4,920
226,97	138,463
227,18	144,791
227,40	51,925
227,61	89,687
227,83	57,397
228,04	81,585
228,26	118,567
228,47	49,772
228,69	114,522
228,91	150,357
229,12	112,489
229,34	41,549
229,55	58,643
229,77	23,763
229,98	-16,400
230,20	49,591
230,41	6,691
230,63	58,051
230,84	50,249
231,06	5,719
231,27	62,611
231,49	48,861
231,71	-0,269
231,92	1,870
232,14	4,288
232,35	44,769
232,57	44,735
232,78	10,222
233,00	42,701
233,21	45,432
233,43	-19,358
233,64	12,032
233,86	19,541
234,07	16,599
234,29	24,425
234,50	27,632
234,72	56,910
234,93	9,701
235,15	13,813
235,36	32,992
235,58	30,581
235,79	48,392
236,01	22,501
236,22	12,659
236,44	40,895
236,65	15,779
236,87	26,825
237,08	3,891
237,30	1,989
237,51	37,087
237,73	-3,794
237,94	9,111
238,16	19,057
238,37	10,215
238,59	5,005
238,80	8,832
239,02	5,004
239,23	9,762
239,45	-5,345
239,66	23,665
239,88	31,574
240,09	25,332
240,31	8,777
240,52	12,188
240,74	10,080
240,95	8,394
241,17	13,128
241,38	5,327
241,60	15,963
241,81	18,849
242,03	1,597
242,24	5,494
242,46	15,483
242,67	8,575
242,89	3,157
243,10	20,918
243,32	17,571
243,53	16,418
243,75	11,995
243,96	5,590
244,18	14,065
244,39	6,547
244,60	7,020
244,82	11,219
245,03	18,807
245,25	10,183
245,46	21,510
245,68	3,222
245,89	19,919
246,11	10,628
246,32	14,728
246,54	6,826
246,75	16,424
246,97	11,769
247,18	14,837
247,39	5,448
247,61	1,343
247,82	3,015
248,04	6,334
248,25	6,891
248,47	9,576
248,68	6,761
248,90	2,094
249,11	6,243
249,33	15,620
249,54	8,105
249,75	12,287
249,97	3,358
250,18	10,731
250,40	16,472
250,61	-0,158
250,83	-2,309
251,04	3,587
251,25	10,046
251,47	1,471
251,68	13,621
251,90	11,232
252,11	9,123
252,33	7,863
252,54	6,703
252,76	7,292
252,97	5,964
253,18	1,129
253,40	3,621
253,61	0,819
253,83	7,993
254,04	5,341
254,25	5,303
254,47	0,238
254,68	3,629
254,90	10,486
255,11	8,515
255,33	6,221
255,54	6,252
255,75	7,930
255,97	5,059
256,18	-0,210
256,40	2,956
256,61	9,324
256,82	0,102
257,04	10,286
257,25	3,957
257,47	6,923
257,68	5,477
257,89	7,957
258,11	10,290
258,32	4,065
258,54	3,110
258,75	7,887
258,96	10,380
259,18	4,328
259,39	3,704
259,61	9,989
259,82	5,765
260,03	7,540
260,25	4,704
260,46	3,380
260,68	5,056
260,89	6,570
261,10	4,666
261,32	3,397
261,53	3,522
261,75	9,119
261,96	-0,697
262,17	11,349
262,39	11,336
262,60	3,468
262,81	-0,489
263,03	10,802
263,24	9,114
263,46	-0,072
263,67	6,551
263,88	2,421
264,10	5,470
264,31	-1,069
264,52	7,996
264,74	7,455
264,95	6,951
265,17	9,057
265,38	7,286
265,59	8,943
265,81	8,002
266,02	0,368
266,23	2,042
266,45	10,491
266,66	8,080
266,87	10,135
267,09	3,152
267,30	6,870
267,52	12,878
267,73	2,542
267,94	3,131
268,16	8,069
268,37	4,917
268,58	9,545
268,80	4,098
269,01	2,840
269,22	6,519
269,44	6,409
269,65	4,262
269,86	0,009
270,08	7,200
270,29	0,577
270,50	7,190
270,72	6,787
270,93	5,415
271,14	1,470
271,36	4,668
271,57	4,119
271,78	3,140
272,00	6,817
272,21	8,333
272,42	7,670
272,64	5,976
272,85	0,962
273,06	2,580
273,28	9,443
273,49	4,135
273,70	6,776
273,92	5,914
274,13	8,539
274,34	2,605
274,56	4,758
274,77	2,536
274,98	7,896
275,20	6,140
275,41	3,722
275,62	2,615
275,84	5,938
276,05	11,468
276,26	4,769
276,47	0,963
276,69	10,812
276,90	7,172
277,11	5,852
277,33	2,228
277,54	5,856
277,75	3,753
277,97	4,262
278,18	4,111
278,39	6,193
278,61	5,316
278,82	6,384
279,03	6,224
279,24	5,190
279,46	7,588
279,67	10,343
279,88	1,993
280,10	8,069
280,31	0,331
280,52	3,484
280,73	2,645
280,95	7,180
281,16	8,394
281,37	2,594
281,59	9,607
281,80	8,852
282,01	2,319
282,22	2,001
282,44	0,925
282,65	8,365
282,86	8,575
283,08	3,780
283,29	5,279
283,50	4,115
283,71	6,762
283,93	6,093
284,14	7,664
284,35	5,365
284,56	4,269
284,78	3,004
284,99	6,012
285,20	8,768
285,42	6,206
285,63	4,979
285,84	1,700
286,05	4,571
286,27	7,189
286,48	4,528
286,69	3,807
286,90	5,411
287,12	2,530
287,33	3,006
287,54	2,494
287,75	8,390
287,97	4,958
288,18	4,823
288,39	1,628
288,60	7,021
288,82	2,516
289,03	2,754
289,24	3,375
289,45	7,585
289,67	5,597
289,88	2,194
290,09	7,660
290,30	5,965
290,52	4,178
290,73	1,702
290,94	1,271
291,15	4,908
291,37	5,981
291,58	3,601
291,79	1,928
292,00	5,895
292,21	7,026
292,43	4,924
292,64	3,690
292,85	3,274
293,06	7,412
293,28	2,030
293,49	3,200
293,70	6,243
293,91	2,823
294,12	3,415
294,34	4,160
294,55	3,218
294,76	3,770
294,97	6,777
295,19	0,650
295,40	5,453
295,61	5,526
295,82	2,068
296,03	5,389
296,25	4,320
296,46	3,840
296,67	2,274
296,88	0,537
297,09	6,959
297,31	3,968
297,52	4,778
297,73	0,079
297,94	7,391
298,15	3,684
298,37	4,652
298,58	5,164
298,79	8,245
299,00	4,594
299,21	4,218
299,43	4,115
299,64	6,664
299,85	5,051
300,06	2,765
300,27	2,381
300,49	9,008
300,70	5,572
300,91	4,638
301,12	2,492
301,33	8,187
301,54	4,523
301,76	7,011
301,97	4,578
302,18	3,265
302,39	7,214
302,60	13,027
302,82	2,683
303,03	9,642
303,24	4,370
303,45	5,751
303,66	3,772
303,87	4,172
304,09	5,292
304,30	2,800
304,51	4,496
304,72	3,403
304,93	6,426
305,14	3,414
305,36	2,006
305,57	5,077
305,78	2,741
305,99	5,670
306,20	3,762
306,41	2,447
306,62	3,961
306,84	5,252
307,05	1,058
307,26	5,498
307,47	6,389
307,68	4,403
307,89	2,790
308,11	7,088
308,32	4,566
308,53	3,573
308,74	2,025
308,95	3,977
309,16	7,016
309,37	8,148
309,59	2,536
309,80	5,795
310,01	6,060
310,22	5,569
310,43	2,032
310,64	4,947
310,85	4,580
311,06	3,715
311,28	5,917
311,49	3,177
311,70	7,574
311,91	2,458
312,12	3,251
312,33	5,097
312,54	5,279
312,75	3,337
312,97	2,306
313,18	4,436
313,39	3,828
313,60	4,467
313,81	6,259
314,02	5,834
314,23	4,108
314,44	1,982
314,65	3,293
314,87	3,291
315,08	5,970
315,29	5,487
315,50	6,112
315,71	4,875
315,92	6,017
316,13	5,418
316,34	5,486
316,55	3,745
316,77	2,478
316,98	4,628
317,19	2,519
317,40	5,268
317,61	6,830
317,82	3,025
318,03	1,858
318,24	4,214
318,45	5,210
318,66	5,158
318,87	0,885
319,09	5,319
319,30	6,903
319,51	6,469
319,72	3,423
319,93	5,692
320,14	5,652
320,35	3,133
320,56	1,769
320,77	3,142
320,98	10,004
321,19	5,282
321,40	4,120
321,62	6,434
321,83	2,572
322,04	4,264
322,25	3,523
322,46	8,909
322,67	5,228
322,88	5,555
323,09	1,875
323,30	5,228
323,51	7,514
323,72	8,325
323,93	0,363
324,14	2,825
324,35	1,283
324,56	0,259
324,77	4,483
324,99	4,488
325,20	0,866
325,41	4,230
325,62	5,571
325,83	2,625
326,04	3,977
326,25	4,122
326,46	1,486
326,67	4,577
326,88	5,247
327,09	2,736
327,30	2,614
327,51	6,620
327,72	4,845
327,93	5,240
328,14	0,212
328,35	3,256
328,56	5,359
328,77	3,613
328,98	7,381
329,19	6,053
329,40	6,213
329,61	3,132
329,82	2,458
330,04	2,721
330,25	4,422
330,46	2,582
330,67	3,680
330,88	1,102
331,09	3,554
331,30	3,826
331,51	3,977
331,72	5,438
331,93	7,579
332,14	2,706
332,35	5,906
332,56	4,345
332,77	6,738
332,98	1,740
333,19	3,449
333,40	5,400
333,61	4,347
333,82	6,963
334,03	8,253
334,24	6,001
334,45	6,065
334,66	8,624
334,87	6,024
335,08	3,636
335,29	4,061
335,50	2,202
335,71	2,917
335,92	5,668
336,13	7,024
336,34	3,308
336,55	5,971
336,76	5,658
336,97	4,980
337,18	3,091
337,39	4,787
337,60	3,465
337,81	3,094
338,02	4,223
338,23	3,796
338,44	5,600
338,65	3,878
338,86	5,930
339,07	4,132
339,28	8,126
339,49	3,809
339,70	2,049
339,91	3,910
340,11	6,695
340,32	3,616
340,53	2,177
340,74	0,113
340,95	2,028
341,16	4,670
341,37	2,071
341,58	1,086
341,79	3,357
342,00	4,350
342,21	1,186
342,42	2,102
342,63	3,331
342,84	-0,163
343,05	4,616
343,26	6,703
343,47	3,056
343,68	3,306
343,89	3,735
344,10	4,512
344,31	5,451
344,52	5,411
344,73	2,446
344,94	3,613
345,14	4,832
345,35	7,803
345,56	5,393
345,77	3,121
345,98	3,381
346,19	5,247
346,40	3,988
346,61	2,152
346,82	4,259
347,03	3,216
347,24	3,568
347,45	3,143
347,66	7,938
347,87	3,755
348,08	7,055
348,28	0,178
348,49	3,315
348,70	4,622
348,91	4,756
349,12	1,404
349,33	14,850
349,54	4,011
349,75	5,990
349,96	4,239
350,17	4,695
350,38	2,608
350,59	6,612
350,80	3,797
351,00	5,364
351,21	7,887
351,42	5,149
351,63	0,626
351,84	4,700
352,05	6,976
352,26	5,022
352,47	4,708
352,68	5,219
352,89	8,736
353,09	7,926
353,30	-0,896
353,51	5,819
353,72	8,615
353,93	8,189
354,14	2,411
354,35	4,064
354,56	6,252
354,77	4,270
354,98	3,446
355,18	8,029
355,39	8,678
355,60	4,568
355,81	3,087
356,02	6,385
356,23	4,178
356,44	3,245
356,65	6,526
356,85	9,744
357,06	8,554
357,27	7,113
357,48	1,986
357,69	3,986
357,90	5,468
358,11	0,181
358,32	3,169
358,52	5,466
358,73	3,995
358,94	2,969
359,15	7,167
359,36	7,602
359,57	5,499
359,78	6,063
359,98	1,328
360,19	0,760
360,40	5,324
360,61	5,439
360,82	3,557
361,03	7,367
361,24	6,100
361,44	3,758
361,65	3,004
361,86	3,415
362,07	4,096
362,28	1,912
362,49	2,137
362,70	4,954
362,90	6,138
363,11	2,618
363,32	3,274
363,53	5,432
363,74	6,030
363,95	5,145
364,15	5,841
364,36	8,511
364,57	4,553
364,78	6,367
364,99	2,322
365,20	7,563
365,40	5,225
365,61	3,072
365,82	6,773
366,03	7,131
366,24	5,039
366,45	3,082
366,65	2,478
366,86	3,906
367,07	2,837
367,28	5,797
367,49	3,897
367,69	6,746
367,90	4,957
368,11	2,470
368,32	3,752
368,53	6,309
368,73	5,079
368,94	1,867
369,15	4,855
369,36	6,564
369,57	3,933
369,78	3,504
369,98	6,819
370,19	9,559
370,40	4,788
370,61	4,078
370,82	3,016
371,02	8,460
371,23	6,552
371,44	5,058
371,65	5,596
371,85	7,739
372,06	2,945
372,27	4,656
372,48	4,695
372,69	4,793
372,89	2,875
373,10	5,329
373,31	3,276
373,52	8,190
373,73	8,462
373,93	5,597
374,14	3,828
374,35	5,288
374,56	6,366
374,76	5,351
374,97	3,982
375,18	4,502
375,39	5,422
375,60	7,767
375,80	4,578
376,01	7,987
376,22	6,971
376,43	3,165
376,63	5,482
376,84	4,821
377,05	7,332
377,26	0,583
377,46	1,551
377,67	6,326
377,88	6,296
378,09	3,903
378,29	2,935
378,50	6,146
378,71	8,439
378,92	3,357
379,12	6,500
379,33	4,717
379,54	5,954
379,75	5,183
379,95	2,865
380,16	4,723
380,37	6,417
380,58	3,129
380,78	5,831
380,99	2,737
381,20	2,714
381,41	5,858
381,61	6,061
381,82	6,522
382,03	3,473
382,24	4,045
382,44	4,601
382,65	3,958
382,86	5,808
383,06	5,543
383,27	6,605
383,48	2,793
383,69	6,250
383,89	5,827
384,10	5,158
384,31	4,975
384,51	4,553
384,72	6,511
384,93	5,467
385,14	0,852
385,34	2,959
385,55	2,299
385,76	2,545
385,96	7,259
386,17	5,552
386,38	3,316
386,59	5,609
386,79	1,976
387,00	7,941
387,21	6,049
387,41	6,984
387,62	2,024
387,83	5,075
388,03	3,308
388,24	1,207
388,45	3,746
388,66	6,800
388,86	4,471
389,07	2,715
389,28	8,861
389,48	4,717
389,69	3,439
389,90	2,466
390,10	8,887
390,31	7,964
390,52	0,306
390,72	1,443
390,93	4,284
391,14	3,544
391,34	3,275
391,55	5,678
391,76	12,197
391,96	5,374
392,17	3,620
392,38	6,760
392,58	5,162
392,79	3,742
393,00	0,942
393,20	3,433
393,41	4,482
393,62	5,380
393,82	5,750
394,03	6,650
394,24	3,408
394,44	8,408
394,65	6,254
394,86	3,520
395,06	6,545
395,27	3,274
395,48	4,089
395,68	5,406
395,89	4,440
396,10	6,605
396,30	5,581
396,51	5,018
396,72	5,221
396,92	2,977
397,13	4,553
397,34	2,140
397,54	7,610
397,75	3,902
397,95	3,332
398,16	6,211
398,37	2,358
398,57	5,378
398,78	6,960
398,99	4,166
399,19	2,532
399,40	6,458
399,60	1,708
399,81	3,439
400,02	7,555
400,22	7,553
400,43	4,058
400,64	5,501
400,84	2,669
401,05	5,388
401,25	6,714
401,46	8,282
401,67	2,167
401,87	3,592
402,08	0,803
402,29	2,358
402,49	6,355
402,70	5,424
402,90	1,103
403,11	4,048
403,32	5,719
403,52	4,236
403,73	6,435
403,93	8,806
404,14	7,319
404,35	3,672
404,55	1,600
404,76	3,915
404,96	5,942
405,17	7,806
405,38	8,589
405,58	3,360
405,79	7,450
405,99	7,515
406,20	6,816
406,40	-1,204
406,61	5,852
406,82	0,372
407,02	7,475
407,23	2,921
407,43	5,527
407,64	4,386
407,85	1,341
408,05	2,010
408,26	13,595
408,46	7,546
408,67	1,290
408,87	4,356
409,08	2,685
409,29	9,556
409,49	5,220
409,70	3,697
409,90	7,497
410,11	4,879
410,31	7,333
410,52	1,961
410,72	3,637
410,93	7,526
411,14	4,345
411,34	2,733
411,55	8,719
411,75	7,830
411,96	6,361
412,16	6,698
412,37	3,059
412,57	8,949
412,78	7,787
412,99	4,349
413,19	1,568
413,40	6,807
413,60	2,605
413,81	4,056
414,01	6,346
414,22	5,919
414,42	1,566
414,63	-0,520
414,83	7,663
415,04	6,715
415,24	5,517
415,45	2,636
415,65	0,962
415,86	0,750
416,07	3,156
416,27	4,251
416,48	8,508
416,68	7,453
416,89	0,815
417,09	3,865
417,30	8,804
417,50	4,446
417,71	6,724
417,91	8,067
418,12	4,395
418,32	3,993
418,53	5,823
418,73	2,564
418,94	8,048
419,14	3,447
419,35	4,070
419,55	4,154
419,76	5,751
419,96	0,917
420,17	5,633
420,37	4,120
420,58	6,925
420,78	3,610
420,99	5,621
421,19	7,887
421,40	5,517
421,60	11,124
421,81	3,667
422,01	2,005
422,22	4,023
422,42	6,889
422,63	6,486
422,83	5,204
423,04	8,974
423,24	6,797
423,45	1,204
423,65	5,458
423,86	5,876
424,06	8,254
424,27	2,171
424,47	3,588
424,67	0,574
424,88	7,040
425,08	4,738
425,29	10,270
425,49	3,219
425,70	-3,580
425,90	6,116
426,11	5,735
426,31	6,423
426,52	6,735
426,72	-0,102
426,93	4,445
427,13	8,621
427,33	4,478
427,54	4,415
427,74	3,880
427,95	10,462
428,15	-1,196
428,36	4,714
428,56	4,112
428,77	6,436
428,97	5,922
429,18	6,999
429,38	7,381
429,58	5,768
429,79	6,388
429,99	4,052
430,20	0,975
430,40	7,619
430,61	0,699
430,81	3,437
431,01	7,365
431,22	7,743
431,42	8,412
431,63	-0,265
431,83	3,035
432,04	6,899
432,24	8,787
432,44	3,967
432,65	2,991
432,85	6,582
433,06	7,525
433,26	5,466
433,47	4,762
433,67	2,487
433,87	7,944
434,08	1,153
434,28	5,374
434,49	5,257
434,69	9,605
434,89	5,648
435,10	6,293
435,30	6,984
435,51	2,674
435,71	3,417
435,91	2,431
436,12	0,970
436,32	5,558
436,53	5,633
436,73	4,586
436,93	8,556
437,14	6,655
437,34	3,527
437,55	5,036
437,75	4,178
437,95	9,569
438,16	2,430
438,36	3,399
438,57	0,118
438,77	-0,655
438,97	4,112
439,18	6,718
439,38	5,499
439,58	-0,434
439,79	5,124
439,99	3,770
440,20	9,126
440,40	6,775
440,60	7,999
440,81	4,970
441,01	6,870
441,21	2,898
441,42	2,464
441,62	6,967
441,83	7,072
442,03	3,418
442,23	5,488
442,44	6,543
442,64	6,507
442,84	4,712
443,05	6,205
443,25	3,711
443,45	0,747
443,66	4,095
443,86	3,341
444,06	3,592
444,27	4,264
444,47	3,441
444,67	0,727
444,88	5,579
445,08	6,512
445,28	5,969
445,49	4,345
445,69	5,768
445,90	7,661
446,10	6,598
446,30	6,400
446,51	4,989
446,71	9,983
446,91	10,347
447,12	11,431
447,32	5,921
447,52	7,416
447,72	6,792
447,93	6,872
448,13	2,574
448,33	9,809
448,54	7,207
448,74	1,531
448,94	7,169
449,15	9,441
449,35	8,640
449,55	2,697
449,76	10,622
449,96	4,104
450,16	8,798
450,37	0,405
450,57	9,205
450,77	2,870
450,98	8,657
451,18	7,227
451,38	4,352
451,58	6,598
451,79	6,942
451,99	8,529
452,19	5,501
452,40	5,269
452,60	2,730
452,80	5,045
453,00	5,298
453,21	7,437
453,41	7,623
453,61	4,402
453,82	6,524
454,02	-1,243
454,22	9,281
454,42	7,180
454,63	4,972
454,83	2,737
455,03	9,307
455,24	7,587
455,44	4,851
455,64	4,877
455,84	1,971
456,05	2,096
456,25	6,255
456,45	8,339
456,65	4,609
456,86	9,035
457,06	9,544
457,26	4,896
457,47	12,505
457,67	8,996
457,87	1,502
458,07	4,671
458,28	10,479
458,48	10,140
458,68	0,090
458,88	7,577
459,09	9,540
459,29	8,267
459,49	7,646
459,69	5,237
459,90	7,387
460,10	4,754
460,30	6,087
460,50	3,060
460,71	7,616
460,91	3,269
461,11	6,588
461,31	5,376
461,52	12,063
461,72	5,716
461,92	8,139
462,12	16,950
462,32	4,284
462,53	3,960
462,73	-1,677
462,93	9,694
463,13	5,823
463,34	4,390
463,54	5,200
463,74	10,274
463,94	6,920
464,14	7,912
464,35	1,990
464,55	10,606
464,75	14,085
464,95	9,305
465,16	4,505
465,36	8,741
465,56	7,401
465,76	5,623
465,96	7,265
466,17	3,006
466,37	4,186
466,57	10,327
466,77	9,507
466,97	6,277
467,18	10,129
467,38	10,315
467,58	9,337
467,78	12,405
467,98	9,971
468,19	7,590
468,39	11,672
468,59	10,017
468,79	9,682
468,99	6,023
469,19	8,594
469,40	12,729
469,60	3,755
469,80	2,798
470,00	10,372
470,20	11,876
470,41	5,461
470,61	8,314
470,81	9,360
471,01	6,607
471,21	7,283
471,41	8,687
471,62	6,899
471,82	2,951
472,02	5,869
472,22	7,474
472,42	6,970
472,62	13,384
472,83	6,838
473,03	12,170
473,23	7,295
473,43	12,069
473,63	12,172
473,83	8,957
474,03	9,862
474,24	14,323
474,44	8,675
474,64	9,736
474,84	6,846
475,04	10,135
475,24	10,927
475,45	9,719
475,65	8,827
475,85	12,476
476,05	7,451
476,25	12,749
476,45	11,272
476,65	16,029
476,85	11,492
477,06	10,449
477,26	7,334
477,46	12,427
477,66	13,812
477,86	16,409
478,06	10,715
478,26	15,733
478,46	10,453
478,67	14,724
478,87	14,370
479,07	12,606
479,27	11,556
479,47	10,935
479,67	8,138
479,87	8,617
480,07	14,096
480,28	13,858
480,48	9,776
480,68	14,787
480,88	17,144
481,08	14,612
481,28	13,488
481,48	14,724
481,68	13,809
481,88	13,779
482,08	12,900
482,29	15,663
482,49	11,982
482,69	15,883
482,89	15,715
483,09	18,529
483,29	14,661
483,49	13,864
483,69	16,433
483,89	15,204
484,09	12,538
484,29	14,664
484,50	14,511
484,70	18,308
484,90	16,620
485,10	18,479
485,30	18,412
485,50	16,519
485,70	16,849
485,90	16,721
486,10	14,392
486,30	17,022
486,50	12,621
486,70	15,898
486,90	17,622
487,10	20,301
487,30	17,102
487,51	17,593
487,71	16,322
487,91	17,585
488,11	20,642
488,31	15,739
488,51	20,321
488,71	18,810
488,91	20,628
489,11	16,828
489,31	19,794
489,51	19,244
489,71	21,360
489,91	18,818
490,11	18,566
490,31	20,319
490,51	22,093
490,71	20,865
490,91	19,477
491,11	24,989
491,31	23,092
491,51	19,488
491,72	23,015
491,92	24,259
492,12	24,884
492,32	22,651
492,52	24,482
492,72	23,800
492,92	21,206
493,12	25,148
493,32	22,185
493,52	21,684
493,72	19,951
493,92	25,190
494,12	25,077
494,32	25,893
494,52	20,714
494,72	25,178
494,92	21,451
495,12	27,659
495,32	25,990
495,52	24,865
495,72	26,080
495,92	29,335
496,12	27,422
496,32	23,548
496,52	27,413
496,72	27,207
496,92	27,275
497,12	25,871
497,32	27,400
497,52	28,624
497,72	30,485
497,92	29,651
498,12	30,179
498,32	28,255
498,52	25,644
498,72	27,685
498,92	29,025
499,12	31,480
499,32	27,736
499,52	31,249
499,72	31,217
499,92	34,253
500,12	31,914
500,32	31,252
500,52	28,825
500,72	35,937
500,91	33,394
501,11	31,538
501,31	28,122
501,51	32,484
501,71	34,672
501,91	33,921
502,11	31,233
502,31	33,502
502,51	34,755
502,71	31,907
502,91	31,367
503,11	33,423
503,31	33,795
503,51	30,119
503,71	32,626
503,91	36,409
504,11	34,465
504,31	30,664
504,51	36,283
504,71	38,304
504,91	34,327
505,10	35,719
505,30	37,077
505,50	33,935
505,70	34,547
505,90	33,670
506,10	34,787
506,30	36,132
506,50	36,487
506,70	36,901
506,90	38,062
507,10	36,285
507,30	36,336
507,50	39,026
507,70	37,456
507,89	35,111
508,09	35,620
508,29	36,578
508,49	36,072
508,69	35,618
508,89	37,571
509,09	35,005
509,29	37,352
509,49	40,979
509,69	44,084
509,89	37,177
510,09	38,616
510,28	41,463
510,48	36,519
510,68	36,135
510,88	38,493
511,08	38,844
511,28	38,919
511,48	39,007
511,68	38,881
511,88	36,429
512,07	40,727
512,27	40,002
512,47	38,066
512,67	39,370
512,87	39,225
513,07	40,588
513,27	37,398
513,47	39,180
513,67	40,743
513,86	41,933
514,06	41,482
514,26	41,138
514,46	41,905
514,66	40,030
514,86	41,036
515,06	44,698
515,26	43,411
515,45	41,372
515,65	38,834
515,85	41,226
516,05	40,758
516,25	42,471
516,45	42,414
516,65	39,470
516,84	41,296
517,04	45,125
517,24	40,863
517,44	45,437
517,64	45,569
517,84	48,030
518,04	43,629
518,23	44,533
518,43	46,536
518,63	40,985
518,83	43,198
519,03	41,704
519,23	46,767
519,42	45,055
519,62	42,986
519,82	44,650
520,02	42,342
520,22	44,100
520,42	42,201
520,61	45,376
520,81	47,607
521,01	48,603
521,21	41,864
521,41	43,207
521,61	44,737
521,80	42,670
522,00	44,854
522,20	47,924
522,40	45,435
522,60	43,530
522,79	44,847
522,99	46,207
523,19	44,869
523,39	44,123
523,59	45,405
523,78	47,815
523,98	42,649
524,18	46,445
524,38	43,414
524,58	45,983
524,77	48,476
524,97	46,222
525,17	44,389
525,37	45,486
525,57	51,639
525,76	44,183
525,96	46,056
526,16	45,281
526,36	43,488
526,56	46,243
526,75	45,279
526,95	47,091
527,15	47,226
527,35	44,683
527,55	45,145
527,74	48,639
527,94	45,272
528,14	45,792
528,34	45,219
528,53	46,346
528,73	46,061
528,93	47,006
529,13	45,334
529,32	49,398
529,52	48,525
529,72	45,631
529,92	47,225
530,12	45,246
530,31	43,714
530,51	47,774
530,71	49,316
530,91	48,637
531,10	43,311
531,30	46,220
531,50	44,874
531,70	47,474
531,89	46,680
532,09	45,272
532,29	47,425
532,49	46,590
532,68	48,590
532,88	44,534
533,08	45,951
533,28	47,236
533,47	48,335
533,67	47,470
533,87	45,788
534,06	52,744
534,26	45,387
534,46	47,438
534,66	46,634
534,85	48,291
535,05	44,778
535,25	43,772
535,45	42,670
535,64	47,546
535,84	46,716
536,04	45,661
536,23	47,753
536,43	47,111
536,63	46,776
536,83	47,937
537,02	46,189
537,22	46,407
537,42	45,558
537,61	45,435
537,81	48,988
538,01	47,384
538,20	47,802
538,40	47,086
538,60	44,602
538,80	45,571
538,99	46,018
539,19	45,055
539,39	45,428
539,58	46,599
539,78	42,049
539,98	44,901
540,17	43,206
540,37	46,717
540,57	42,438
540,76	42,742
540,96	42,525
541,16	46,076
541,36	41,289
541,55	38,216
541,75	40,327
541,95	40,945
542,14	40,211
542,34	40,793
542,54	39,476
542,73	40,913
542,93	42,603
543,13	40,279
543,32	39,182
543,52	40,080
543,72	39,222
543,91	39,943
544,11	40,150
544,31	38,070
544,50	39,625
544,70	40,455
544,89	40,013
545,09	41,360
545,29	39,916
545,48	40,809
545,68	41,438
545,88	41,234
546,07	40,333
546,27	40,392
546,47	41,530
546,66	43,790
546,86	45,411
547,06	40,502
547,25	43,393
547,45	44,601
547,64	43,562
547,84	46,495
548,04	43,886
548,23	46,161
548,43	46,981
548,63	47,660
548,82	45,729
549,02	45,164
549,21	45,114
549,41	46,171
549,61	47,705
549,80	46,701
550,00	47,999
550,20	45,805
550,39	44,082
550,59	45,544
550,78	49,065
550,98	46,961
551,18	47,712
551,37	50,303
551,57	47,079
551,76	45,320
551,96	47,903
552,16	47,806
552,35	48,220
552,55	49,335
552,74	46,825
552,94	51,266
553,14	45,589
553,33	46,978
553,53	48,809
553,72	47,375
553,92	50,222
554,12	46,001
554,31	48,411
554,51	47,822
554,70	46,064
554,90	46,571
555,09	48,704
555,29	51,255
555,49	49,694
555,68	50,548
555,88	46,819
556,07	47,559
556,27	52,110
556,46	50,111
556,66	45,695
556,86	51,094
557,05	50,287
557,25	49,638
557,44	48,934
557,64	47,338
557,83	49,552
558,03	49,278
558,22	47,744
558,42	49,623
558,62	51,067
558,81	49,945
559,01	50,693
559,20	50,672
559,40	48,676
559,59	48,660
559,79	47,162
559,98	50,903
560,18	51,387
560,37	50,990
560,57	49,629
560,76	48,017
560,96	48,929
561,16	49,986
561,35	50,566
561,55	54,362
561,74	50,662
561,94	50,465
562,13	51,131
562,33	51,746
562,52	50,105
562,72	50,300
562,91	49,401
563,11	49,203
563,30	49,633
563,50	46,890
563,69	48,999
563,89	49,390
564,08	50,405
564,28	47,462
564,47	52,038
564,67	52,277
564,86	48,701
565,06	49,369
565,25	48,941
565,45	48,466
565,64	52,289
565,84	47,752
566,03	48,589
566,23	52,161
566,42	49,210
566,62	50,693
566,81	51,460
567,01	51,110
567,20	51,871
567,40	47,334
567,59	47,305
567,79	51,199
567,98	53,371
568,18	49,212
568,37	50,967
568,57	49,893
568,76	50,989
568,96	51,084
569,15	48,554
569,35	50,021
569,54	51,388
569,73	52,215
569,93	50,522
570,12	50,504
570,32	51,045
570,51	48,923
570,71	51,223
570,90	49,997
571,10	48,191
571,29	50,843
571,49	49,411
571,68	49,311
571,87	48,147
572,07	48,071
572,26	47,302
572,46	48,833
572,65	50,490
572,85	46,192
573,04	49,571
573,24	49,833
573,43	51,299
573,62	48,716
573,82	48,573
574,01	49,682
574,21	48,941
574,40	47,026
574,60	46,932
574,79	51,103
574,98	46,528
575,18	49,562
575,37	46,626
575,57	51,305
575,76	48,912
575,96	48,690
576,15	48,435
576,34	48,583
576,54	49,212
576,73	50,458
576,93	48,691
577,12	48,553
577,31	50,011
577,51	48,414
577,70	48,402
577,90	48,985
578,09	48,100
578,28	47,488
578,48	47,223
578,67	49,997
578,87	47,481
579,06	47,097
579,25	47,471
579,45	48,593
579,64	46,300
579,84	47,371
580,03	47,682
580,22	50,625
580,42	47,231
580,61	48,640
580,81	48,435
581,00	48,703
581,19	49,184
581,39	49,294
581,58	48,755
581,77	48,981
581,97	50,221
582,16	47,304
582,35	47,136
582,55	47,764
582,74	49,783
582,94	48,661
583,13	45,651
583,32	48,163
583,52	49,256
583,71	47,855
583,90	49,021
584,10	48,410
584,29	48,295
584,48	47,072
584,68	48,688
584,87	50,138
585,06	48,838
585,26	47,472
585,45	47,510
585,65	49,425
585,84	47,531
586,03	48,594
586,23	48,028
586,42	49,247
586,61	49,379
586,81	47,677
587,00	47,916
587,19	47,870
587,39	49,073
587,58	49,723
587,77	48,304
587,97	47,514
588,16	49,054
588,35	49,767
588,54	49,469
588,74	48,188
588,93	49,962
589,12	49,111
589,32	49,777
589,51	49,770
589,70	47,793
589,90	47,954
590,09	48,706
590,28	52,561
590,48	48,005
590,67	51,049
590,86	49,694
591,06	49,639
591,25	50,189
591,44	49,880
591,63	48,662
591,83	49,035
592,02	48,624
592,21	47,623
592,41	46,602
592,60	49,622
592,79	49,009
592,98	48,397
593,18	49,922
593,37	48,790
593,56	50,198
593,76	49,385
593,95	48,343
594,14	49,409
594,33	49,821
594,53	49,495
594,72	49,542
594,91	51,433
595,10	51,069
595,30	49,715
595,49	49,008
595,68	50,272
595,88	50,004
596,07	49,597
596,26	49,687
596,45	49,319
596,65	46,883
596,84	47,129
597,03	50,842
597,22	50,520
597,42	51,590
597,61	48,622
597,80	49,296
597,99	50,424
598,19	50,227
598,38	50,567
598,57	50,593
598,76	50,873
598,95	51,338
599,15	49,818
599,34	48,930
599,53	49,828
599,72	49,834
599,92	48,944
600,11	48,030
600,30	49,288
600,49	51,445
600,69	48,714
600,88	50,532
601,07	49,690
601,26	50,795
601,45	48,938
601,65	49,393
601,84	51,403
602,03	49,473
602,22	51,085
602,42	52,515
602,61	50,504
602,80	51,537
602,99	52,326
603,18	49,421
603,38	50,945
603,57	51,301
603,76	49,127
603,95	47,840
604,14	51,325
604,34	50,475
604,53	49,305
604,72	50,157
604,91	49,008
605,10	50,678
605,29	51,445
605,49	46,409
605,68	49,090
605,87	51,732
606,06	49,384
606,25	48,832
606,45	49,514
606,64	49,910
606,83	51,079
607,02	49,262
607,21	50,414
607,40	50,200
607,60	46,906
607,79	49,322
607,98	46,700
608,17	48,690
608,36	47,888
608,55	49,126
608,75	48,968
608,94	47,039
609,13	45,602
609,32	43,246
609,51	45,751
609,70	44,279
609,89	45,813
610,09	44,670
610,28	46,055
610,47	46,582
610,66	44,848
610,85	44,358
611,04	46,493
611,23	44,105
611,43	44,943
611,62	44,266
611,81	43,608
612,00	45,001
612,19	44,667
612,38	44,396
612,57	45,793
612,77	45,446
612,96	44,516
613,15	45,023
613,34	47,798
613,53	49,017
613,72	47,416
613,91	46,330
614,10	47,779
614,29	49,462
614,49	45,459
614,68	45,960
614,87	48,394
615,06	50,851
615,25	46,332
615,44	51,918
615,63	47,999
615,82	48,085
616,01	48,374
616,21	46,989
616,40	49,503
616,59	51,566
616,78	50,073
616,97	50,583
617,16	50,772
617,35	51,230
617,54	48,811
617,73	50,965
617,92	49,093
618,11	50,346
618,31	48,143
618,50	50,660
618,69	50,111
618,88	49,332
619,07	48,236
619,26	48,795
619,45	49,136
619,64	49,200
619,83	50,429
620,02	50,230
620,21	51,314
620,40	51,425
620,59	49,555
620,78	48,860
620,97	50,648
621,17	51,267
621,36	49,355
621,55	48,190
621,74	49,997
621,93	50,157
622,12	49,176
622,31	47,755
622,50	49,021
622,69	52,635
622,88	50,191
623,07	50,751
623,26	51,890
623,45	52,625
623,64	49,770
623,83	50,122
624,02	52,192
624,21	52,228
624,40	52,138
624,59	47,334
624,78	52,758
624,97	52,470
625,16	48,517
625,35	49,361
625,54	48,721
625,73	49,784
625,92	49,896
626,12	52,040
626,31	52,617
626,50	52,552
626,69	49,903
626,88	49,796
627,07	51,476
627,26	51,273
627,45	49,411
627,64	49,141
627,83	50,304
628,02	47,809
628,21	49,723
628,40	48,198
628,59	52,053
628,78	49,173
628,97	49,086
629,16	49,305
629,35	48,831
629,54	51,238
629,73	51,541
629,92	48,322
630,10	49,673
630,29	51,145
630,48	49,381
630,67	48,387
630,86	51,633
631,05	50,019
631,24	52,090
631,43	48,166
631,62	51,599
631,81	50,557
632,00	50,513
632,19	49,139
632,38	51,875
632,57	47,240
632,76	50,367
632,95	52,038
633,14	53,273
633,33	51,890
633,52	50,525
633,71	51,509
633,90	48,567
634,09	51,141
634,28	51,265
634,47	51,114
634,66	52,270
634,85	50,829
635,04	53,397
635,22	52,309
635,41	52,791
635,60	53,270
635,79	52,073
635,98	49,611
636,17	52,236
636,36	50,596
636,55	53,562
636,74	50,681
636,93	49,889
637,12	51,635
637,31	50,728
637,50	50,383
637,69	52,192
637,87	52,527
638,06	53,016
638,25	51,934
638,44	51,220
638,63	48,711
638,82	52,343
639,01	51,732
639,20	50,887
639,39	53,446
639,58	49,975
639,77	52,367
639,95	50,334
640,14	53,036
640,33	51,401
640,52	50,226
640,71	54,855
640,90	52,082
641,09	53,962
641,28	51,395
641,47	52,997
641,66	52,749
641,84	50,626
642,03	51,413
642,22	53,037
642,41	55,261
642,60	51,836
642,79	50,866
642,98	51,411
643,17	49,897
643,35	51,245
643,54	52,624
643,73	52,067
643,92	52,075
644,11	51,303
644,30	50,854
644,49	53,360
644,67	51,499
644,86	50,026
645,05	53,555
645,24	51,931
645,43	53,043
645,62	52,484
645,81	53,593
645,99	53,982
646,18	52,305
646,37	50,646
646,56	51,984
646,75	54,377
646,94	53,925
647,13	51,154
647,31	49,976
647,50	52,987
647,69	54,101
647,88	53,320
648,07	51,686
648,26	55,412
648,44	51,972
648,63	51,556
648,82	51,176
649,01	53,955
649,20	51,830
649,38	50,940
649,57	53,057
649,76	50,114
649,95	51,233
650,14	50,344
650,33	50,875
650,51	51,046
650,70	52,710
650,89	50,531
651,08	52,935
651,27	53,182
651,45	51,082
651,64	51,027
651,83	52,433
652,02	50,950
652,21	53,164
652,39	52,995
652,58	53,315
652,77	51,373
652,96	53,129
653,15	51,695
653,33	50,663
653,52	50,291
653,71	51,797
653,90	52,021
654,09	51,196
654,27	50,582
654,46	51,063
654,65	50,402
654,84	50,519
655,02	52,747
655,21	51,361
655,40	52,090
655,59	52,351
655,77	52,953
655,96	51,200
656,15	51,709
656,34	50,713
656,53	50,649
656,71	51,901
656,90	49,402
657,09	51,429
657,28	52,326
657,46	51,034
657,65	51,202
657,84	50,300
658,03	54,573
658,21	50,922
658,40	51,388
658,59	52,771
658,78	51,919
658,96	50,960
659,15	52,297
659,34	49,845
659,52	52,391
659,71	53,145
659,90	49,969
660,09	53,510
660,27	52,119
660,46	53,982
660,65	52,447
660,84	51,681
661,02	52,124
661,21	53,615
661,40	51,954
661,58	52,096
661,77	51,585
661,96	50,692
662,15	51,899
662,33	52,244
662,52	51,130
662,71	51,152
662,89	50,805
663,08	50,833
663,27	52,619
663,45	51,306
663,64	52,760
663,83	50,473
664,02	52,761
664,20	52,596
664,39	52,719
664,58	52,897
664,76	51,906
664,95	53,058
665,14	51,621
665,32	52,621
665,51	50,762
665,70	51,925
665,88	51,412
666,07	50,653
666,26	53,735
666,44	52,158
666,63	50,837
666,82	51,503
667,00	53,599
667,19	51,398
667,38	51,464
667,56	52,780
667,75	53,259
667,94	51,278
668,12	49,936
668,31	52,452
668,50	53,376
668,68	53,122
668,87	51,759
669,06	52,334
669,24	52,993
669,43	52,198
669,62	50,459
669,80	49,408
669,99	51,089
670,18	52,198
670,36	50,303
670,55	52,688
670,74	51,631
670,92	49,090
671,11	53,283
671,29	50,921
671,48	51,454
671,67	53,533
671,85	51,476
672,04	50,335
672,23	51,417
672,41	51,066
672,60	50,889
672,78	50,866
672,97	51,095
673,16	51,372
673,34	50,639
673,53	52,239
673,71	51,871
673,90	53,382
674,09	52,897
674,27	49,951
674,46	50,712
674,64	50,944
674,83	52,116
675,02	50,647
675,20	51,070
675,39	51,658
675,57	51,852
675,76	50,906
675,95	54,475
676,13	52,620
676,32	52,248
676,50	51,418
676,69	49,890
676,88	51,596
677,06	50,550
677,25	53,472
677,43	55,825
677,62	52,892
677,80	51,325
677,99	51,984
678,18	53,619
678,36	54,844
678,55	49,814
678,73	51,371
678,92	52,438
679,10	52,893
679,29	52,380
679,48	51,866
679,66	51,652
679,85	52,226
680,03	52,079
680,22	51,441
680,40	49,593
680,59	52,585
680,77	52,801
680,96	52,052
681,15	51,764
681,33	52,796
681,52	51,887
681,70	51,606
681,89	52,742
682,07	52,495
682,26	50,851
682,44	51,410
682,63	52,007
682,81	53,182
683,00	51,457
683,18	49,037
683,37	53,248
683,55	51,249
683,74	51,442
683,92	56,912
684,11	53,780
684,29	51,843
684,48	49,455
684,67	50,530
684,85	51,109
685,04	51,095
685,22	51,545
685,41	51,026
685,59	53,640
685,78	49,292
685,96	49,912
686,15	50,303
686,33	50,639
686,52	52,359
686,70	50,286
686,89	50,681
687,07	52,159
687,26	52,579
687,44	51,922
687,62	52,425
687,81	51,864
687,99	51,484
688,18	51,043
688,36	52,048
688,55	52,442
688,73	52,091
688,92	50,272
689,10	52,092
689,29	52,311
689,47	52,772
689,66	51,027
689,84	51,208
690,03	54,401
690,21	51,937
690,40	51,859
690,58	49,711
690,76	49,945
690,95	53,098
691,13	50,505
691,32	50,769
691,50	52,505
691,69	54,050
691,87	50,202
692,06	50,695
692,24	51,590
692,43	53,519
692,61	49,917
692,79	51,945
692,98	49,436
693,16	53,578
693,35	51,780
693,53	52,168
693,72	51,002
693,90	53,812
694,08	51,043
694,27	50,649
694,45	54,584
694,64	54,263
694,82	52,138
695,01	51,803
695,19	51,423
695,37	51,753
695,56	51,413
695,74	51,582
695,93	51,957
696,11	50,600
696,29	52,553
696,48	51,666
696,66	53,597
696,85	50,543
697,03	50,765
697,21	52,758
697,40	51,604
697,58	50,595
697,77	49,659
697,95	51,374
698,13	52,056
698,32	50,450
698,50	51,362
698,69	50,834
698,87	53,631
699,05	50,690
699,24	50,307
699,42	51,419
699,60	49,356
699,79	51,482
699,97	51,353
700,16	49,425
700,34	53,127
700,52	51,450
700,71	51,165
700,89	49,900
701,07	50,780
701,26	51,785
701,44	50,394
701,63	49,033
701,81	51,848
701,99	53,183
702,18	49,031
702,36	51,110
702,54	50,915
702,73	48,831
702,91	51,247
703,09	51,616
703,28	51,302
703,46	53,885
703,64	52,281
703,83	51,712
704,01	51,659
704,19	50,946
704,38	50,408
704,56	51,707
704,74	52,220
704,93	51,367
705,11	51,049
705,29	50,202
705,48	53,349
705,66	51,424
705,84	52,194
706,03	47,802
706,21	51,432
706,39	50,732
706,58	50,605
706,76	49,434
706,94	52,516
707,12	51,173
707,31	50,914
707,49	51,106
707,67	51,712
707,86	51,366
708,04	48,940
708,22	49,532
708,41	50,606
708,59	50,367
708,77	49,211
708,95	51,712
709,14	53,829
709,32	53,846
709,50	50,025
709,69	49,969
709,87	52,675
710,05	50,520
710,23	50,446
710,42	48,563
710,60	51,209
710,78	52,487
710,97	49,805
711,15	50,605
711,33	51,887
711,51	49,879
711,70	49,648
711,88	49,892
712,06	52,508
712,24	49,766
712,43	51,341
712,61	49,122
712,79	51,087
712,97	49,020
713,16	51,166
713,34	50,502
713,52	51,792
713,70	50,870
713,89	50,228
714,07	50,758
714,25	51,834
714,43	53,349
714,62	49,990
714,80	51,033
714,98	48,982
715,16	50,940
715,35	49,504
715,53	50,249
715,71	52,528
715,89	51,956
716,07	48,471
716,26	54,886
716,44	51,525
716,62	52,848
716,80	51,907
716,99	52,511
717,17	51,469
717,35	51,298
717,53	49,344
717,71	50,365
717,90	51,941
718,08	52,670
718,26	49,460
718,44	53,435
718,62	53,825
718,81	52,992
718,99	49,683
719,17	51,205
719,35	51,824
719,53	50,471
719,72	51,581
719,90	50,143
720,08	50,989
720,26	51,397
720,44	51,297
720,62	49,508
720,81	51,327
720,99	55,933
721,17	51,139
721,35	51,980
721,53	51,621
721,72	52,109
721,90	51,820
722,08	51,203
722,26	54,133
722,44	51,952
722,62	50,548
722,81	51,128
722,99	51,169
723,17	51,103
723,35	52,379
723,53	51,179
723,71	53,636
723,89	53,276
724,08	49,128
724,26	51,274
724,44	49,972
724,62	51,530
724,80	49,305
724,98	51,077
725,16	54,828
725,35	51,190
725,53	49,729
725,71	53,248
725,89	51,412
726,07	53,877
726,25	54,184
726,43	51,676
726,61	53,380
726,80	50,809
726,98	48,902
727,16	50,297
727,34	51,706
727,52	50,745
727,70	48,931
727,88	49,855
728,06	49,170
728,25	51,315
728,43	50,693
728,61	49,725
728,79	52,289
728,97	51,355
729,15	51,604
729,33	52,765
729,51	50,746
729,69	53,043
729,87	52,216
730,06	50,013
730,24	50,539
730,42	53,619
730,60	49,803
730,78	53,033
730,96	50,638
731,14	51,014
731,32	52,188
731,50	47,365
731,68	51,044
731,86	49,918
732,04	50,790
732,22	50,817
732,41	53,967
732,59	51,488
732,77	53,961
732,95	53,948
733,13	50,908
733,31	52,211
733,49	49,445
733,67	52,299
733,85	51,374
734,03	51,740
734,21	49,585
734,39	50,906
734,57	53,831
734,75	53,457
734,93	48,299
735,11	49,964
735,29	50,877
735,47	52,261
735,65	50,579
735,84	51,085
736,02	51,924
736,20	52,256
736,38	50,202
736,56	49,725
736,74	49,358
736,92	52,216
737,10	51,124
737,28	51,373
737,46	52,067
737,64	49,018
737,82	52,539
738,00	52,362
738,18	54,821
738,36	51,344
738,54	49,913
738,72	48,497
738,90	51,413
739,08	52,590
739,26	49,583
739,44	45,444
739,62	52,918
739,80	52,865
739,98	50,734
740,16	49,656
740,34	52,058
740,52	54,290
740,70	50,736
740,88	50,683
741,06	51,540
741,24	51,314
741,42	51,680
741,60	48,831
741,78	52,443
741,96	51,899
742,14	51,695
742,32	48,930
742,50	52,700
742,68	52,426
742,86	50,937
743,04	50,641
743,21	53,435
743,39	53,023
743,57	49,723
743,75	50,701
743,93	49,469
744,11	49,599
744,29	51,426
744,47	51,228
744,65	51,566
744,83	53,143
745,01	50,439
745,19	52,259
745,37	53,908
745,55	52,263
745,73	51,366
745,91	48,583
746,09	52,030
746,27	49,955
746,45	48,222
746,62	49,169
746,80	49,389
746,98	50,783
747,16	50,303
747,34	51,479
747,52	49,031
747,70	51,376
747,88	49,922
748,06	50,675
748,24	52,783
748,42	52,343
748,60	51,902
748,78	50,117
748,95	52,351
749,13	55,983
749,31	51,618
749,49	50,679
749,67	51,897
749,85	52,795
750,03	51,364
750,21	52,169
750,39	50,377
750,57	49,956
750,74	52,230
750,92	49,460
751,10	51,610
751,28	49,906
751,46	49,297
751,64	52,051
751,82	52,480
752,00	51,950
752,17	51,272
752,35	49,853
752,53	51,004
752,71	51,368
752,89	49,876
753,07	49,118
753,25	51,932
753,43	51,535
753,60	52,666
753,78	50,898
753,96	53,851
754,14	51,415
754,32	51,461
754,50	51,744
754,68	53,855
754,85	50,874
755,03	52,625
755,21	52,794
755,39	53,683
755,57	52,044
755,75	52,184
755,92	49,807
756,10	51,777
756,28	51,262
756,46	50,417
756,64	50,396
756,82	50,935
756,99	51,029
757,17	51,083
757,35	49,766
757,53	53,639
757,71	51,378
757,89	49,691
758,06	52,782
758,24	52,692
758,42	50,713
758,60	49,709
758,78	51,976
758,95	51,497
759,13	51,566
759,31	51,242
759,49	49,867
759,67	51,135
759,84	51,483
760,02	54,768
760,20	50,423
760,38	52,354
760,56	49,130
760,73	51,295
760,91	51,505
761,09	52,340
761,27	51,842
761,45	51,655
761,62	49,650
761,80	50,976
761,98	52,555
762,16	51,366
762,33	49,284
762,51	51,683
762,69	50,095
762,87	50,401
763,05	50,267
763,22	50,605
763,40	48,970
763,58	51,219
763,76	51,511
763,93	52,981
764,11	54,110
764,29	48,911
764,47	49,590
764,64	52,693
764,82	52,951
765,00	50,132
765,18	47,943
765,35	49,757
765,53	50,031
765,71	52,195
765,89	49,074
766,06	51,368
766,24	50,821
766,42	50,737
766,60	49,697
766,77	50,791
766,95	50,512
767,13	50,867
767,30	52,931
767,48	50,581
767,66	50,353
767,84	50,086
768,01	51,054
768,19	53,510
768,37	51,664
768,54	48,600
768,72	52,372
768,90	51,139
769,08	52,159
769,25	52,541
769,43	49,626
769,61	47,715
769,78	52,194
769,96	50,193
770,14	52,012
770,31	52,538
770,49	53,494
770,67	51,370
770,85	50,342
771,02	52,448
771,20	51,224
771,38	52,570
771,55	50,922
771,73	49,686
771,91	52,893
772,08	53,863
772,26	50,181
772,44	52,244
772,61	50,751
772,79	50,128
772,97	50,195
773,14	52,087
773,32	52,258
773,50	51,390
773,67	49,348
773,85	53,345
774,03	52,545
774,20	50,937
774,38	52,115
774,56	49,373
774,73	51,126
774,91	50,431
775,09	49,078
775,26	51,820
775,44	50,956
775,61	53,074
775,79	49,222
775,97	52,988
776,14	50,045
776,32	50,412
776,50	53,714
776,67	52,144
776,85	53,252
777,03	49,426
777,20	51,716
777,38	53,230
777,55	52,057
777,73	47,721
777,91	50,950
778,08	51,398
778,26	54,191
778,43	53,062
778,61	48,784
778,79	48,650
778,96	50,422
779,14	50,111
779,32	50,119
779,49	53,869
779,67	55,863
779,84	50,586
780,02	51,678
780,20	48,663
780,37	52,116
780,55	44,778
780,72	54,868
780,90	53,426
781,07	51,993
781,25	52,313
781,43	50,157
781,60	52,357
781,78	53,348
781,95	51,639
782,13	51,931
782,30	53,296
782,48	50,751
782,66	48,484
782,83	49,103
783,01	56,641
783,18	50,885
783,36	54,258
783,53	52,256
783,71	50,907
783,89	50,376
784,06	51,487
784,24	50,489
784,41	54,316
784,59	53,448
784,76	49,657
784,94	50,297
785,11	50,379
785,29	53,005
785,46	49,415
785,64	51,611
785,82	51,347
785,99	52,473
786,17	50,085
786,34	50,349
786,52	52,352
786,69	55,628
786,87	50,786
787,04	49,984
787,22	49,995
787,39	52,716
787,57	53,556
787,74	49,720
787,92	54,926
788,09	54,231
788,27	48,430
788,44	49,431
788,62	49,798
788,79	51,403
788,97	53,709
789,14	51,417
789,32	49,263
789,49	50,852
789,67	51,137
789,84	52,546
790,02	55,156
790,19	53,210
790,37	53,718
790,54	52,852
790,72	57,395
790,89	55,073
791,07	50,383
791,24	48,044
791,42	54,688
791,59	53,962
791,77	49,386
791,94	49,082
792,12	50,169
792,29	53,683
792,47	52,068
792,64	51,830
792,81	52,833
792,99	52,344
793,16	53,272
793,34	51,705
793,51	52,198
793,69	54,128
793,86	52,371
794,04	53,218
794,21	56,326
794,39	48,661
794,56	51,421
794,73	54,633
794,91	54,819
795,08	52,460
795,26	50,008
795,43	50,155
795,61	54,275
795,78	53,646
795,95	54,970
796,13	53,818
796,30	54,389
796,48	52,483
796,65	50,377
796,83	52,696
797,00	54,841
797,17	51,023
797,35	50,568
797,52	53,789
797,70	58,112
797,87	54,089
798,04	50,065
798,22	54,331
798,39	53,392
798,57	51,754
798,74	52,846
798,91	50,200
799,09	51,727
799,26	51,154
799,44	53,899
799,61	53,278
799,78	53,582
799,96	54,203
800,13	51,865
800,31	52,982
800,48	58,465
800,65	55,606
800,83	48,835
801,00	52,598
801,17	52,643
801,35	52,777
801,52	53,469
801,70	51,137
801,87	51,972
802,04	54,440
802,22	49,783
802,39	49,593
802,56	57,232
802,74	54,193
802,91	51,468
803,08	46,331
803,26	56,878
803,43	53,853
803,61	51,848
803,78	54,529
803,95	52,969
804,13	54,059
804,30	51,736
804,47	53,619
804,65	56,506
804,82	51,426
804,99	52,182
805,17	51,551
805,34	56,139
805,51	56,348
805,69	54,210
805,86	48,805
806,03	54,676
806,21	57,662
806,38	54,359
806,55	56,302
806,72	53,418
806,90	54,924
807,07	54,386
807,24	49,085
807,42	52,051
807,59	53,888
807,76	50,288
807,94	51,030
808,11	54,943
808,28	55,558
808,45	51,498
808,63	50,095
808,80	57,012
808,97	53,691
809,15	48,213
809,32	55,229
809,49	54,245
809,67	51,175
809,84	54,139
810,01	52,897
810,18	62,153
810,36	54,417
810,53	53,608
810,70	54,368
810,87	54,678
811,05	56,423
811,22	56,934
811,39	54,752
811,57	53,714
811,74	53,837
811,91	51,865
812,08	53,264
812,26	56,224
812,43	48,606
812,60	55,790
812,77	53,011
812,95	56,059
813,12	54,189
813,29	50,494
813,46	53,961
813,64	55,314
813,81	53,389
813,98	51,610
814,15	58,970
814,32	54,307
814,50	58,751
814,67	55,675
814,84	53,460
815,01	53,648
815,19	45,524
815,36	50,667
815,53	55,676
815,70	52,423
815,87	54,940
816,05	50,159
816,22	53,295
816,39	60,711
816,56	60,021
816,74	55,825
816,91	53,622
817,08	58,339
817,25	58,970
817,42	53,849
817,60	55,043
817,77	54,098
817,94	54,347
818,11	55,979
818,28	55,719
818,45	54,516
818,63	52,999
818,80	53,689
818,97	55,155
819,14	59,458
819,31	58,613
819,49	59,491
819,66	51,621
819,83	54,180
820,00	56,425
820,17	50,878
820,34	55,243
820,52	60,631
820,69	55,912
820,86	56,800
821,03	48,864
821,20	58,385
821,37	59,174
821,55	46,544
821,72	52,094
821,89	56,188
822,06	62,497
822,23	54,237
822,40	56,469
822,57	60,887
822,75	58,212
822,92	55,147
823,09	57,858
823,26	57,642
823,43	60,976
823,60	53,665
823,77	51,247
823,94	60,318
824,12	60,763
824,29	49,424
824,46	51,779
824,63	61,450
824,80	58,164
824,97	56,291
825,14	53,875
825,31	62,552
825,49	56,509
825,66	55,406
825,83	50,234
826,00	54,362
826,17	67,820
826,34	51,350
826,51	47,612
826,68	53,361
826,85	58,888
827,02	57,441
827,20	52,481
827,37	57,115
827,54	59,331
827,71	56,557
827,88	54,743
828,05	58,238
828,22	56,735
828,39	61,550
828,56	57,886
828,73	61,355
828,90	60,088
829,07	55,874
829,25	54,074
829,42	58,442
829,59	55,967
829,76	52,192
829,93	50,515
830,10	59,846
830,27	53,037
830,44	57,311
830,61	52,679
830,78	68,366
830,95	60,206
831,12	55,063
831,29	58,280
831,46	56,492
831,63	53,424
831,80	52,987
831,97	56,837
832,14	61,002
832,31	66,283
832,48	56,344
832,65	60,780
832,83	54,182
833,00	52,777
833,17	50,301
833,34	58,169
833,51	63,871
833,68	61,856
833,85	61,148
834,02	50,086
834,19	58,547
834,36	63,402
834,53	54,741
834,70	57,068
834,87	66,520
835,04	58,662
835,21	57,743
835,38	49,766
835,55	55,003
835,72	65,320
835,89	56,241
836,06	57,492
836,23	67,427
836,40	52,523
836,57	48,260
836,74	60,894
836,91	58,437
837,08	60,948
837,25	60,241
837,42	48,682
837,59	56,404
837,76	59,879
837,93	54,649
838,09	51,844
838,26	65,000
838,43	57,415
838,60	55,911
838,77	52,199
838,94	67,752
839,11	53,754
839,28	55,771
839,45	53,146
839,62	63,602
839,79	57,044
839,96	65,221
840,13	60,968
840,30	56,376
840,47	49,886
840,64	52,848
840,81	61,415
840,98	61,621
841,15	65,583
841,32	46,486
841,48	59,396
841,65	64,846
841,82	54,584
841,99	56,505
842,16	55,612
842,33	67,704
842,50	64,208
842,67	63,429
842,84	57,476
843,01	60,304
843,18	57,633
843,35	56,568
843,52	53,857
843,68	60,799
843,85	57,498
844,02	50,612
844,19	50,600
844,36	68,996
844,53	65,184
844,70	66,913
844,87	61,060
845,04	68,778
845,21	49,447
845,37	65,672
845,54	53,561
845,71	61,318
845,88	76,917
846,05	57,377
846,22	52,546
846,39	63,318
846,56	72,258
846,72	44,328
846,89	54,611
847,06	69,385
847,23	68,223
847,40	46,527
847,57	55,088
847,74	56,046
847,90	64,697
848,07	68,200
848,24	59,991
848,41	64,363
848,58	67,363
848,75	59,438
848,92	49,980
849,08	61,776
849,25	69,626
849,42	59,608
849,59	57,732
849,76	55,775
849,93	57,032
850,09	66,336
850,26	46,009
850,43	80,030
850,60	58,998
850,77	59,802
850,94	53,311
851,10	56,452
851,27	57,853
851,44	46,116
851,61	54,401
851,78	83,515
851,95	63,660
852,11	61,154
852,28	64,002
852,45	72,128
852,62	71,219
852,79	61,745
852,95	55,530
853,12	59,267
853,29	62,987
853,46	48,208
853,63	67,660
853,79	58,042
853,96	50,248
854,13	68,693
854,30	45,104
854,46	79,340
854,63	54,538
854,80	60,874
854,97	52,318
855,14	79,270
855,30	77,886
855,47	61,050
855,64	53,528
855,81	57,916
855,97	72,972
856,14	68,634
856,31	56,400
856,48	80,014
856,65	80,615
856,81	61,929
856,98	49,976
857,15	60,886
857,32	76,616
857,48	56,436
857,65	63,398
857,82	67,884
857,99	59,525
858,15	61,912
858,32	64,118
858,49	62,924
858,65	84,059
858,82	56,997
858,99	63,352
859,16	66,084
859,32	91,014
859,49	58,104
859,66	55,850
859,83	74,409
859,99	61,252
860,16	73,184
860,33	71,102
860,49	63,473
860,66	68,315
860,83	51,921
861,00	58,218
861,16	71,875
861,33	74,479
861,50	64,692
861,66	73,213
861,83	90,254
862,00	70,450
862,16	50,769
862,33	68,060
862,50	84,606
862,67	75,010
862,83	62,529
863,00	71,245
863,17	88,486
863,33	67,220
863,50	44,929
863,67	63,115
863,83	85,652
864,00	72,447
864,17	52,116
864,33	63,628
864,50	72,347
864,67	79,648
864,83	52,211
865,00	51,354
865,17	56,027
865,33	61,176
865,50	53,013
865,67	43,179
865,83	73,822
866,00	101,690
866,17	77,895
866,33	76,303
866,50	89,679
866,66	77,873
866,83	66,488
867,00	68,188
867,16	90,440
867,33	63,155
867,50	50,523
867,66	51,952
867,83	109,147
868,00	86,487
868,16	68,050
868,33	64,224
868,49	84,637
868,66	89,165
868,83	64,371
868,99	59,982
869,16	85,585
869,32	91,282
869,49	69,573
869,66	52,217
869,82	99,318
869,99	100,259
870,15	54,398
870,32	83,516
870,49	98,838
870,65	135,399
870,82	70,244
870,98	92,925
871,15	110,631
871,32	60,671
871,48	53,146
871,65	52,582
871,81	72,777
871,98	57,979
872,15	67,961
872,31	36,905
872,48	128,249
872,64	71,211
872,81	63,241
872,97	71,256
873,14	82,969
873,31	92,437
873,47	81,447
873,64	55,151
873,80	131,098
873,97	109,360
874,13	48,579
874,30	85,309
874,46	116,621
874,63	60,799
874,80	56,988
874,96	48,746
875,13	118,155
875,29	72,689
875,46	94,858
875,62	40,698
875,79	92,593
875,95	96,019
876,12	65,294
876,28	4,622
876,45	145,356
876,61	70,218
876,78	56,098
876,94	74,247
877,11	87,112
877,27	92,811
877,44	111,700
877,60	48,861
877,77	120,423
877,94	120,487
878,10	31,137
878,27	70,058
878,43	124,322
878,60	74,416
878,76	59,171
878,93	42,298
879,09	145,564
879,26	84,566
879,42	106,092
879,58	65,610
879,75	117,249
879,91	105,541
880,08	44,001
880,24	64,463
880,41	100,136
880,57	74,229
880,74	52,783
880,90	89,775
881,07	96,522
881,23	162,315
881,40	80,833
881,56	63,848
881,73	120,679
881,89	116,341
882,06	30,894
882,22	178,142
882,38	111,422
882,55	183,304
882,71	62,461
882,88	110,496
883,04	190,348
883,21	211,934
883,37	118,292
883,54	115,982
883,70	200,289
883,86	123,764
884,03	97,737
884,19	28,868
884,36	131,928
884,52	206,546
884,69	70,208
884,85	72,813
885,01	113,289
885,18	144,076
885,34	53,098
885,51	13,732
885,67	120,060
>>>>> Data<<<<< Espectral Procesado Extremo
