Fichero De Datos De SpectraSuite
++++++++++++++++++++++++++++++++++++
Fecha: Wed Apr 22 11:59:13 CEST 2009
Usuario: evoflor
Presente Oscuro Del Espectro: Sí
La Referencia de Presente Del Espectro De: Sí
Muestreados de los componentes de Número de espectros: 1
Espectrómetros: USB4F02353
Tiempo de integración (usec): 500000 (USB4F02353)
Promedio de Espectros Hechos un: 5 (USB4F02353)
El Alisar Del Furgón: 0 (USB4F02353)
Párrafo de de Corregir del la del del de Eléctrica del obscuridad: Sí (USB4F02353)
Estrobo/Lámpara Permitido: No (USB4F02353)
Correct for Detector Non-linearity: No (USB4F02353)
Párrafo de de Corregir del la del del de Externa del luz: No (USB4F02353)
Procesado del espectro de Número de pixeles en: 3648
>>>>> Comienza Data<<<<< Espectral Procesado Del EL
177,79	143,173
178,00	143,173
178,22	143,173
178,44	1409,945
178,66	-1,340
178,88	391,547
179,09	220,447
179,31	291,817
179,53	750,759
179,75	190,949
179,96	678,405
180,18	-164,600
180,40	236,290
180,62	550,119
180,83	-113,657
181,05	-1717,012
181,27	-111095,000
181,49	28,489
181,70	153,827
181,92	563,934
182,14	754,804
182,36	112,820
182,58	59,050
182,79	1106,674
183,01	-20,478
183,23	206,224
183,45	-147,985
183,66	-121,217
183,88	494,676
184,10	-2789,000
184,32	537,859
184,53	297,103
184,75	-219,669
184,97	77,980
185,18	-66,720
185,40	-728,822
185,62	143,668
185,84	-30,579
186,05	232,424
186,27	-169,168
186,49	3926,731
186,71	87,909
186,92	149,571
187,14	-278,091
187,36	148,098
187,58	65,877
187,79	-74,460
188,01	264,907
188,23	-233,793
188,45	-59,960
188,66	122,299
188,88	-2379,909
189,10	-1371,950
189,31	-117,398
189,53	-53,476
189,75	315,898
189,97	212,673
190,18	36,459
190,40	976,441
190,62	-168,753
190,83	-188,123
191,05	143,712
191,27	103,986
191,49	413,106
191,70	-209,591
191,92	-521,992
192,14	-9,143
192,35	552,507
192,57	1759,857
192,79	-93,587
193,01	207,410
193,22	150,979
193,44	-94,360
193,66	101,679
193,87	135,749
194,09	-71,921
194,31	149,580
194,53	525,140
194,74	-21,137
194,96	3,958
195,18	146,495
195,39	-207,639
195,61	-81,280
195,83	-176,946
196,04	99,131
196,26	-350,226
196,48	24,196
196,70	356,849
196,91	68,670
197,13	112,646
197,35	-110,126
197,56	798,127
197,78	2185,784
198,00	550,315
198,21	237,840
198,43	-708,692
198,65	155,314
198,86	331,637
199,08	204,902
199,30	142,905
199,51	-429,300
199,73	338,224
199,95	288,354
200,16	520,750
200,38	20,895
200,60	211,120
200,81	195,493
201,03	133,139
201,25	-885,950
201,46	106,629
201,68	36,847
201,90	2545,341
202,11	-197,309
202,33	231,768
202,55	83,688
202,76	-35,463
202,98	-48,798
203,20	-79,784
203,41	-300,500
203,63	194,811
203,85	-145295,000
204,06	48,944
204,28	31,578
204,50	153,166
204,71	247,164
204,93	-4,040
205,15	66,250
205,36	-179,723
205,58	92,313
205,80	-129,508
206,01	65,276
206,23	141,277
206,45	296,352
206,66	230,886
206,88	-18,815
207,10	201,352
207,31	294,960
207,53	-27,157
207,75	56,453
207,96	667,873
208,18	-91,288
208,39	60,315
208,61	4974,143
208,83	-446,974
209,04	49,026
209,26	-370,945
209,48	244,125
209,69	144,347
209,91	524,307
210,13	-7,713
210,34	203,620
210,56	159,705
210,77	-981,063
210,99	121,941
211,21	9182,059
211,42	-149,044
211,64	-6,210
211,86	280,516
212,07	199,559
212,29	212,955
212,50	120,594
212,72	-50,404
212,94	166,633
213,15	194,374
213,37	64,691
213,58	98,902
213,80	-1524,821
214,02	8282,059
214,23	322,619
214,45	387,852
214,67	-1365,793
214,88	-357,701
215,10	-295,414
215,31	-46,299
215,53	-97,284
215,75	332,513
215,96	1310,528
216,18	-95,845
216,39	247,142
216,61	533,395
216,83	616,496
217,04	1581,966
217,26	176,282
217,47	127,036
217,69	310,784
217,91	-128,595
218,12	-74195,000
218,34	105,728
218,55	449,854
218,77	125,774
218,99	154,604
219,20	-58,282
219,42	312,035
219,63	139,243
219,85	-79,189
220,06	15,365
220,28	276,056
220,50	114,279
220,71	137,650
220,93	3777,264
221,14	-1551,950
221,36	-11,080
221,58	59,827
221,79	170,932
222,01	1244,784
222,22	422,993
222,44	-248,371
222,65	126,776
222,87	663,601
223,09	161,253
223,30	117,632
223,52	103,117
223,73	183,711
223,95	11,965
224,16	160,402
224,38	436,007
224,60	124,180
224,81	167,970
225,03	90,633
225,24	74,370
225,46	-29,244
225,67	77,990
225,89	68,842
226,10	773,780
226,32	759,160
226,54	46,684
226,75	11,806
226,97	142,419
227,18	138,077
227,40	28,600
227,61	74,874
227,83	48,262
228,04	118,336
228,26	75,016
228,47	29,959
228,69	247,515
228,91	47,761
229,12	71,948
229,34	36,732
229,55	88,580
229,77	41,788
229,98	-20,672
230,20	24,981
230,41	29,447
230,63	71,325
230,84	-35,000
231,06	67,676
231,27	19,287
231,49	48,924
231,71	5,068
231,92	29,579
232,14	44,649
232,35	98,012
232,57	75,960
232,78	16,256
233,00	43,497
233,21	46,054
233,43	18,295
233,64	46,506
233,86	40,127
234,07	8,794
234,29	31,544
234,50	14,592
234,72	46,525
234,93	33,568
235,15	23,816
235,36	26,236
235,58	31,991
235,79	55,443
236,01	6,745
236,22	18,124
236,44	49,406
236,65	23,683
236,87	17,777
237,08	15,779
237,30	-0,453
237,51	23,921
237,73	-8,138
237,94	5,400
238,16	14,187
238,37	9,850
238,59	18,476
238,80	13,323
239,02	9,383
239,23	16,966
239,45	-5,686
239,66	24,303
239,88	25,791
240,09	24,029
240,31	-3,689
240,52	5,790
240,74	11,833
240,95	9,357
241,17	4,524
241,38	-0,826
241,60	10,764
241,81	17,641
242,03	3,377
242,24	17,187
242,46	22,339
242,67	10,710
242,89	14,736
243,10	18,248
243,32	13,991
243,53	13,905
243,75	7,527
243,96	6,794
244,18	-1,715
244,39	13,606
244,60	6,824
244,82	4,539
245,03	13,045
245,25	8,684
245,46	24,741
245,68	9,512
245,89	13,864
246,11	11,783
246,32	12,754
246,54	2,702
246,75	11,669
246,97	6,166
247,18	11,643
247,39	-1,741
247,61	7,998
247,82	3,900
248,04	3,016
248,25	5,888
248,47	13,045
248,68	14,018
248,90	3,710
249,11	4,458
249,33	16,458
249,54	9,065
249,75	11,885
249,97	1,510
250,18	14,966
250,40	18,223
250,61	-0,832
250,83	2,898
251,04	1,063
251,25	8,749
251,47	2,940
251,68	8,779
251,90	8,315
252,11	8,482
252,33	2,189
252,54	4,607
252,76	7,302
252,97	2,735
253,18	0,945
253,40	6,753
253,61	0,211
253,83	10,090
254,04	8,647
254,25	5,583
254,47	4,576
254,68	9,508
254,90	5,612
255,11	8,011
255,33	6,641
255,54	4,995
255,75	2,660
255,97	9,364
256,18	3,014
256,40	1,125
256,61	1,736
256,82	-1,951
257,04	13,992
257,25	0,819
257,47	5,821
257,68	0,018
257,89	9,485
258,11	10,380
258,32	4,993
258,54	4,711
258,75	8,486
258,96	10,471
259,18	5,142
259,39	2,253
259,61	9,956
259,82	8,192
260,03	7,509
260,25	6,048
260,46	3,309
260,68	2,896
260,89	4,258
261,10	4,633
261,32	6,268
261,53	7,395
261,75	4,373
261,96	-2,061
262,17	8,173
262,39	13,322
262,60	3,924
262,81	-1,809
263,03	8,819
263,24	6,482
263,46	1,986
263,67	3,996
263,88	10,276
264,10	5,288
264,31	-0,023
264,52	4,256
264,74	6,508
264,95	4,759
265,17	6,023
265,38	0,773
265,59	8,146
265,81	8,130
266,02	-0,779
266,23	0,170
266,45	9,112
266,66	9,266
266,87	4,821
267,09	1,887
267,30	9,487
267,52	5,954
267,73	5,385
267,94	4,589
268,16	6,696
268,37	2,434
268,58	3,022
268,80	4,861
269,01	3,651
269,22	6,307
269,44	6,744
269,65	5,266
269,86	-2,379
270,08	5,554
270,29	1,606
270,50	4,006
270,72	4,933
270,93	5,348
271,14	4,472
271,36	3,758
271,57	6,917
271,78	4,128
272,00	2,959
272,21	6,923
272,42	4,519
272,64	8,081
272,85	1,299
273,06	4,554
273,28	6,536
273,49	9,525
273,70	7,964
273,92	5,464
274,13	9,626
274,34	3,343
274,56	3,025
274,77	1,902
274,98	4,243
275,20	6,148
275,41	10,297
275,62	6,828
275,84	4,472
276,05	11,062
276,26	0,439
276,47	1,465
276,69	5,273
276,90	3,223
277,11	2,450
277,33	-0,574
277,54	7,012
277,75	7,161
277,97	4,646
278,18	0,894
278,39	6,130
278,61	5,218
278,82	2,981
279,03	5,586
279,24	5,230
279,46	4,104
279,67	4,411
279,88	6,072
280,10	9,199
280,31	1,277
280,52	3,143
280,73	1,069
280,95	8,058
281,16	9,290
281,37	3,782
281,59	10,357
281,80	11,194
282,01	3,464
282,22	4,562
282,44	-0,144
282,65	11,474
282,86	8,242
283,08	3,664
283,29	5,409
283,50	2,022
283,71	4,078
283,93	4,060
284,14	6,480
284,35	4,899
284,56	4,742
284,78	2,796
284,99	6,260
285,20	8,535
285,42	4,055
285,63	3,248
285,84	3,521
286,05	5,611
286,27	6,279
286,48	3,493
286,69	4,164
286,90	2,569
287,12	2,163
287,33	1,456
287,54	1,950
287,75	6,536
287,97	5,717
288,18	5,469
288,39	1,113
288,60	5,195
288,82	0,999
289,03	4,592
289,24	4,100
289,45	8,524
289,67	5,466
289,88	1,291
290,09	6,447
290,30	5,158
290,52	-0,124
290,73	3,027
290,94	1,661
291,15	5,048
291,37	4,829
291,58	5,293
291,79	4,309
292,00	3,316
292,21	3,652
292,43	2,687
292,64	3,943
292,85	2,931
293,06	6,703
293,28	1,904
293,49	0,513
293,70	7,254
293,91	4,793
294,12	2,956
294,34	4,557
294,55	3,674
294,76	2,354
294,97	5,264
295,19	3,501
295,40	6,448
295,61	5,226
295,82	0,733
296,03	5,011
296,25	4,554
296,46	1,315
296,67	1,649
296,88	-0,242
297,09	5,859
297,31	4,202
297,52	6,222
297,73	1,950
297,94	6,046
298,15	6,199
298,37	5,303
298,58	4,868
298,79	6,696
299,00	1,120
299,21	1,423
299,43	2,904
299,64	9,148
299,85	5,913
300,06	2,015
300,27	0,982
300,49	6,329
300,70	6,095
300,91	2,584
301,12	3,938
301,33	6,336
301,54	3,511
301,76	6,674
301,97	2,371
302,18	2,349
302,39	6,680
302,60	11,571
302,82	3,449
303,03	7,744
303,24	3,931
303,45	5,852
303,66	2,331
303,87	5,378
304,09	8,406
304,30	4,215
304,51	4,861
304,72	1,436
304,93	5,171
305,14	3,657
305,36	1,840
305,57	1,006
305,78	5,041
305,99	3,442
306,20	3,377
306,41	3,574
306,62	3,046
306,84	2,259
307,05	1,504
307,26	3,396
307,47	7,843
307,68	5,647
307,89	3,478
308,11	6,859
308,32	3,708
308,53	3,007
308,74	2,079
308,95	5,346
309,16	6,418
309,37	6,519
309,59	1,350
309,80	3,103
310,01	4,015
310,22	10,811
310,43	1,966
310,64	7,316
310,85	5,437
311,06	3,819
311,28	5,265
311,49	5,990
311,70	8,691
311,91	1,357
312,12	1,929
312,33	3,309
312,54	3,446
312,75	2,690
312,97	2,509
313,18	4,441
313,39	2,810
313,60	3,441
313,81	4,010
314,02	6,465
314,23	9,758
314,44	2,276
314,65	2,670
314,87	1,265
315,08	2,779
315,29	4,939
315,50	5,351
315,71	5,983
315,92	6,777
316,13	5,757
316,34	6,312
316,55	7,245
316,77	-0,115
316,98	2,894
317,19	3,587
317,40	7,035
317,61	5,781
317,82	3,893
318,03	1,863
318,24	1,840
318,45	6,426
318,66	3,899
318,87	3,163
319,09	4,478
319,30	3,558
319,51	4,705
319,72	4,518
319,93	5,797
320,14	6,250
320,35	5,677
320,56	2,990
320,77	1,688
320,98	11,205
321,19	5,107
321,40	3,401
321,62	4,859
321,83	4,905
322,04	4,083
322,25	4,280
322,46	7,246
322,67	5,098
322,88	2,799
323,09	2,523
323,30	4,997
323,51	7,335
323,72	5,658
323,93	3,735
324,14	3,140
324,35	-0,295
324,56	0,213
324,77	5,320
324,99	3,170
325,20	-2,140
325,41	5,848
325,62	4,269
325,83	2,607
326,04	4,624
326,25	6,376
326,46	2,149
326,67	4,652
326,88	2,888
327,09	4,490
327,30	1,686
327,51	2,208
327,72	3,724
327,93	4,441
328,14	0,654
328,35	1,976
328,56	5,714
328,77	3,103
328,98	6,068
329,19	6,267
329,40	5,500
329,61	2,456
329,82	0,863
330,04	4,624
330,25	2,797
330,46	4,684
330,67	1,823
330,88	3,560
331,09	5,386
331,30	2,399
331,51	1,282
331,72	3,353
331,93	6,239
332,14	2,326
332,35	5,428
332,56	5,708
332,77	6,375
332,98	2,113
333,19	2,903
333,40	5,908
333,61	2,248
333,82	5,732
334,03	5,510
334,24	3,677
334,45	1,728
334,66	7,620
334,87	5,075
335,08	2,688
335,29	1,363
335,50	3,626
335,71	1,218
335,92	3,874
336,13	3,887
336,34	2,052
336,55	3,326
336,76	4,337
336,97	5,194
337,18	2,569
337,39	5,759
337,60	3,629
337,81	4,863
338,02	2,175
338,23	4,506
338,44	4,476
338,65	2,224
338,86	3,175
339,07	3,445
339,28	4,071
339,49	3,395
339,70	3,258
339,91	2,913
340,11	8,473
340,32	3,567
340,53	0,869
340,74	-0,202
340,95	1,378
341,16	5,834
341,37	3,109
341,58	0,593
341,79	3,335
342,00	2,754
342,21	6,201
342,42	4,937
342,63	6,061
342,84	3,607
343,05	5,869
343,26	7,082
343,47	5,066
343,68	2,269
343,89	3,439
344,10	6,153
344,31	5,566
344,52	3,355
344,73	3,116
344,94	4,062
345,14	3,348
345,35	6,872
345,56	2,001
345,77	1,976
345,98	3,140
346,19	4,684
346,40	3,278
346,61	4,359
346,82	3,082
347,03	2,293
347,24	5,004
347,45	1,048
347,66	7,698
347,87	3,151
348,08	3,013
348,28	2,921
348,49	3,292
348,70	5,430
348,91	3,017
349,12	0,497
349,33	16,195
349,54	2,672
349,75	5,767
349,96	6,320
350,17	3,272
350,38	3,316
350,59	4,126
350,80	2,773
351,00	6,522
351,21	7,781
351,42	7,030
351,63	4,125
351,84	6,250
352,05	5,868
352,26	4,159
352,47	2,582
352,68	5,139
352,89	4,697
353,09	5,952
353,30	2,180
353,51	5,496
353,72	7,575
353,93	4,952
354,14	-0,110
354,35	3,198
354,56	9,964
354,77	3,411
354,98	-1,183
355,18	4,597
355,39	7,975
355,60	4,747
355,81	4,882
356,02	6,512
356,23	3,083
356,44	2,682
356,65	5,845
356,85	9,662
357,06	7,369
357,27	6,776
357,48	1,872
357,69	8,678
357,90	4,473
358,11	-0,103
358,32	4,488
358,52	5,795
358,73	6,099
358,94	2,078
359,15	6,572
359,36	7,129
359,57	0,924
359,78	4,000
359,98	2,655
360,19	-1,162
360,40	4,126
360,61	5,474
360,82	3,135
361,03	6,989
361,24	4,213
361,44	3,099
361,65	3,313
361,86	2,961
362,07	4,471
362,28	5,461
362,49	0,835
362,70	5,937
362,90	2,170
363,11	2,713
363,32	1,215
363,53	6,817
363,74	5,715
363,95	5,151
364,15	6,967
364,36	5,390
364,57	5,317
364,78	3,995
364,99	4,027
365,20	4,872
365,40	10,331
365,61	4,958
365,82	9,776
366,03	5,153
366,24	7,994
366,45	0,187
366,65	3,631
366,86	3,791
367,07	6,756
367,28	1,390
367,49	4,348
367,69	9,166
367,90	4,383
368,11	3,994
368,32	3,916
368,53	4,037
368,73	6,785
368,94	4,154
369,15	2,056
369,36	6,450
369,57	3,085
369,78	2,730
369,98	6,463
370,19	8,891
370,40	5,009
370,61	2,531
370,82	0,317
371,02	5,887
371,23	9,773
371,44	3,549
371,65	5,353
371,85	5,827
372,06	3,733
372,27	2,384
372,48	6,437
372,69	4,456
372,89	0,666
373,10	-0,308
373,31	4,804
373,52	4,331
373,73	7,323
373,93	5,084
374,14	4,273
374,35	8,347
374,56	7,254
374,76	5,837
374,97	2,142
375,18	5,639
375,39	5,892
375,60	5,270
375,80	3,496
376,01	3,803
376,22	6,947
376,43	3,737
376,63	3,055
376,84	1,514
377,05	3,500
377,26	4,747
377,46	0,675
377,67	3,735
377,88	5,332
378,09	3,020
378,29	2,974
378,50	4,195
378,71	6,413
378,92	0,013
379,12	6,664
379,33	7,347
379,54	4,933
379,75	6,256
379,95	4,083
380,16	4,698
380,37	5,522
380,58	5,509
380,78	4,561
380,99	4,552
381,20	0,852
381,41	3,257
381,61	9,526
381,82	5,245
382,03	5,801
382,24	3,539
382,44	6,919
382,65	6,047
382,86	4,788
383,06	5,981
383,27	2,935
383,48	4,257
383,69	1,961
383,89	5,363
384,10	8,276
384,31	6,594
384,51	6,998
384,72	8,334
384,93	4,322
385,14	8,849
385,34	3,928
385,55	5,055
385,76	2,753
385,96	3,039
386,17	2,325
386,38	7,467
386,59	5,257
386,79	1,950
387,00	6,609
387,21	9,127
387,41	4,721
387,62	2,986
387,83	8,539
388,03	4,034
388,24	-0,119
388,45	3,378
388,66	5,462
388,86	4,914
389,07	1,572
389,28	8,868
389,48	4,388
389,69	6,028
389,90	4,407
390,10	5,998
390,31	9,983
390,52	-1,048
390,72	3,277
390,93	5,417
391,14	0,825
391,34	4,114
391,55	7,544
391,76	9,012
391,96	5,012
392,17	3,946
392,38	7,206
392,58	5,233
392,79	2,525
393,00	2,685
393,20	2,987
393,41	6,627
393,62	4,011
393,82	3,997
394,03	5,255
394,24	4,787
394,44	10,247
394,65	4,880
394,86	5,235
395,06	6,250
395,27	4,426
395,48	4,433
395,68	6,216
395,89	7,891
396,10	7,879
396,30	6,221
396,51	2,570
396,72	6,054
396,92	3,422
397,13	4,949
397,34	3,646
397,54	7,482
397,75	2,782
397,95	1,481
398,16	5,507
398,37	5,404
398,57	4,730
398,78	7,379
398,99	6,755
399,19	9,749
399,40	6,061
399,60	3,383
399,81	4,681
400,02	7,663
400,22	6,024
400,43	3,069
400,64	5,607
400,84	2,546
401,05	10,153
401,25	9,663
401,46	10,833
401,67	6,161
401,87	5,093
402,08	3,426
402,29	4,886
402,49	8,658
402,70	9,410
402,90	4,684
403,11	3,986
403,32	11,171
403,52	4,598
403,73	3,376
403,93	8,651
404,14	10,820
404,35	6,849
404,55	3,477
404,76	6,561
404,96	6,252
405,17	8,173
405,38	9,932
405,58	5,358
405,79	7,324
405,99	7,153
406,20	8,705
406,40	1,853
406,61	11,081
406,82	2,594
407,02	11,100
407,23	6,191
407,43	5,112
407,64	5,334
407,85	11,670
408,05	4,406
408,26	13,119
408,46	7,950
408,67	5,681
408,87	8,070
409,08	8,012
409,29	11,309
409,49	11,803
409,70	8,171
409,90	9,873
410,11	8,406
410,31	15,512
410,52	10,654
410,72	10,575
410,93	11,636
411,14	10,403
411,34	4,605
411,55	10,087
411,75	14,248
411,96	8,974
412,16	9,702
412,37	8,080
412,57	11,853
412,78	11,596
412,99	11,728
413,19	9,077
413,40	11,779
413,60	11,145
413,81	9,576
414,01	10,192
414,22	10,378
414,42	9,064
414,63	5,075
414,83	14,061
415,04	14,424
415,24	10,109
415,45	10,710
415,65	11,058
415,86	16,990
416,07	11,855
416,27	12,997
416,48	15,770
416,68	16,981
416,89	9,731
417,09	7,951
417,30	14,839
417,50	14,501
417,71	14,907
417,91	16,903
418,12	11,690
418,32	11,425
418,53	12,494
418,73	12,612
418,94	12,389
419,14	11,951
419,35	8,972
419,55	10,059
419,76	12,352
419,96	11,717
420,17	10,333
420,37	13,947
420,58	21,708
420,78	14,676
420,99	12,990
421,19	14,033
421,40	15,050
421,60	18,326
421,81	8,374
422,01	10,978
422,22	13,457
422,42	16,371
422,63	15,774
422,83	16,229
423,04	15,430
423,24	18,107
423,45	15,234
423,65	18,160
423,86	17,333
424,06	15,285
424,27	15,304
424,47	17,616
424,67	16,062
424,88	19,444
425,08	16,748
425,29	20,502
425,49	15,732
425,70	13,526
425,90	13,575
426,11	15,756
426,31	16,125
426,52	17,691
426,72	12,175
426,93	17,544
427,13	22,846
427,33	18,312
427,54	20,373
427,74	19,552
427,95	22,758
428,15	12,748
428,36	16,284
428,56	15,117
428,77	20,029
428,97	16,034
429,18	18,240
429,38	13,708
429,58	19,214
429,79	18,508
429,99	15,985
430,20	15,071
430,40	24,150
430,61	15,787
430,81	15,811
431,01	18,991
431,22	22,670
431,42	22,132
431,63	17,114
431,83	15,987
432,04	18,886
432,24	24,490
432,44	19,953
432,65	17,116
432,85	15,785
433,06	21,182
433,26	16,032
433,47	16,111
433,67	15,436
433,87	17,781
434,08	15,694
434,28	17,966
434,49	16,264
434,69	24,251
434,89	16,586
435,10	16,026
435,30	18,769
435,51	18,807
435,71	14,296
435,91	14,424
436,12	16,505
436,32	19,842
436,53	18,844
436,73	19,356
436,93	19,171
437,14	21,024
437,34	19,657
437,55	19,168
437,75	18,421
437,95	21,027
438,16	18,392
438,36	20,956
438,57	18,056
438,77	19,360
438,97	19,697
439,18	24,249
439,38	19,039
439,58	19,339
439,79	21,135
439,99	22,266
440,20	19,204
440,40	23,917
440,60	22,673
440,81	24,530
441,01	18,363
441,21	23,456
441,42	25,730
441,62	24,629
441,83	21,350
442,03	22,921
442,23	23,160
442,44	22,080
442,64	22,484
442,84	17,821
443,05	21,794
443,25	18,939
443,45	22,543
443,66	22,685
443,86	20,879
444,06	20,785
444,27	18,952
444,47	21,000
444,67	17,749
444,88	24,043
445,08	24,547
445,28	25,086
445,49	19,793
445,69	21,447
445,90	24,190
446,10	26,082
446,30	23,628
446,51	23,531
446,71	27,322
446,91	29,467
447,12	28,389
447,32	22,439
447,52	26,161
447,72	25,666
447,93	26,499
448,13	20,349
448,33	29,311
448,54	31,984
448,74	20,060
448,94	26,476
449,15	29,254
449,35	24,836
449,55	22,646
449,76	31,018
449,96	26,891
450,16	31,428
450,37	22,355
450,57	28,837
450,77	23,658
450,98	30,187
451,18	27,461
451,38	26,265
451,58	25,545
451,79	28,562
451,99	25,311
452,19	25,800
452,40	25,671
452,60	24,940
452,80	25,534
453,00	32,339
453,21	31,464
453,41	28,222
453,61	28,567
453,82	33,287
454,02	24,463
454,22	29,736
454,42	32,053
454,63	25,377
454,83	28,139
455,03	30,998
455,24	29,333
455,44	29,187
455,64	29,613
455,84	24,274
456,05	28,889
456,25	29,203
456,45	30,067
456,65	30,533
456,86	33,452
457,06	30,045
457,26	36,298
457,47	34,623
457,67	33,736
457,87	26,845
458,07	31,953
458,28	37,425
458,48	30,374
458,68	29,858
458,88	34,153
459,09	35,381
459,29	33,326
459,49	30,982
459,69	33,942
459,90	36,066
460,10	28,650
460,30	31,861
460,50	29,545
460,71	35,335
460,91	28,113
461,11	35,235
461,31	30,304
461,52	36,218
461,72	32,408
461,92	35,162
462,12	40,316
462,32	27,927
462,53	31,895
462,73	34,042
462,93	35,073
463,13	37,397
463,34	35,063
463,54	35,290
463,74	36,773
463,94	34,960
464,14	32,107
464,35	30,601
464,55	41,392
464,75	41,639
464,95	34,976
465,16	33,813
465,36	40,191
465,56	35,466
465,76	38,149
465,96	43,291
466,17	33,886
466,37	31,541
466,57	35,820
466,77	35,643
466,97	35,318
467,18	38,320
467,38	37,695
467,58	35,951
467,78	41,047
467,98	42,624
468,19	42,571
468,39	40,647
468,59	40,162
468,79	41,069
468,99	34,852
469,19	37,674
469,40	40,267
469,60	33,534
469,80	41,182
470,00	40,085
470,20	42,687
470,41	39,571
470,61	40,871
470,81	40,575
471,01	40,340
471,21	40,138
471,41	42,327
471,62	40,548
471,82	41,391
472,02	40,819
472,22	39,099
472,42	37,945
472,62	42,573
472,83	39,617
473,03	43,079
473,23	39,975
473,43	42,956
473,63	43,322
473,83	41,864
474,03	43,924
474,24	47,396
474,44	40,659
474,64	44,202
474,84	41,377
475,04	40,777
475,24	45,517
475,45	43,462
475,65	47,232
475,85	48,652
476,05	42,494
476,25	43,152
476,45	40,868
476,65	49,904
476,85	45,582
477,06	42,998
477,26	43,493
477,46	46,826
477,66	43,144
477,86	45,747
478,06	44,615
478,26	47,845
478,46	44,364
478,67	46,775
478,87	45,183
479,07	44,738
479,27	45,812
479,47	46,684
479,67	41,392
479,87	43,978
480,07	47,595
480,28	44,802
480,48	45,087
480,68	46,787
480,88	53,997
481,08	45,697
481,28	46,800
481,48	49,737
481,68	46,283
481,88	46,303
482,08	45,643
482,29	49,057
482,49	45,765
482,69	46,560
482,89	46,742
483,09	47,348
483,29	46,016
483,49	44,028
483,69	48,061
483,89	47,756
484,09	46,472
484,29	44,238
484,50	44,971
484,70	42,977
484,90	45,545
485,10	45,360
485,30	47,042
485,50	48,123
485,70	49,022
485,90	45,782
486,10	43,647
486,30	47,903
486,50	46,868
486,70	45,663
486,90	43,815
487,10	47,754
487,30	47,083
487,51	49,037
487,71	44,981
487,91	45,162
488,11	48,650
488,31	46,463
488,51	47,355
488,71	45,834
488,91	50,649
489,11	47,268
489,31	49,195
489,51	44,899
489,71	50,488
489,91	48,411
490,11	46,710
490,31	47,193
490,51	48,989
490,71	45,911
490,91	45,748
491,11	50,117
491,31	50,288
491,51	46,444
491,72	49,284
491,92	51,742
492,12	52,409
492,32	50,322
492,52	51,250
492,72	49,163
492,92	52,598
493,12	52,614
493,32	47,027
493,52	46,540
493,72	48,247
493,92	51,574
494,12	49,735
494,32	51,719
494,52	50,757
494,72	52,622
494,92	50,197
495,12	54,704
495,32	55,891
495,52	49,774
495,72	52,250
495,92	54,651
496,12	55,623
496,32	49,930
496,52	52,794
496,72	49,764
496,92	53,448
497,12	51,924
497,32	55,640
497,52	55,369
497,72	53,441
497,92	55,983
498,12	53,760
498,32	54,689
498,52	56,440
498,72	51,019
498,92	53,927
499,12	56,881
499,32	52,432
499,52	55,642
499,72	55,751
499,92	55,436
500,12	59,249
500,32	56,843
500,52	53,311
500,72	57,711
500,91	57,669
501,11	54,526
501,31	53,861
501,51	57,112
501,71	59,908
501,91	58,328
502,11	54,914
502,31	55,646
502,51	56,633
502,71	54,551
502,91	56,066
503,11	56,114
503,31	56,466
503,51	52,151
503,71	53,884
503,91	60,128
504,11	59,037
504,31	55,381
504,51	56,805
504,71	56,960
504,91	58,616
505,10	58,598
505,30	56,162
505,50	58,126
505,70	55,914
505,90	56,997
506,10	52,725
506,30	56,017
506,50	59,886
506,70	59,449
506,90	54,482
507,10	58,455
507,30	56,020
507,50	58,840
507,70	58,518
507,89	57,095
508,09	55,959
508,29	53,478
508,49	59,277
508,69	56,728
508,89	55,526
509,09	56,829
509,29	57,464
509,49	57,963
509,69	61,846
509,89	59,129
510,09	54,999
510,28	57,151
510,48	59,907
510,68	57,694
510,88	56,585
511,08	54,827
511,28	59,586
511,48	57,305
511,68	53,610
511,88	56,207
512,07	58,180
512,27	57,997
512,47	58,840
512,67	56,409
512,87	52,974
513,07	59,238
513,27	55,288
513,47	53,719
513,67	55,595
513,86	59,083
514,06	57,725
514,26	57,045
514,46	59,576
514,66	56,749
514,86	56,875
515,06	60,419
515,26	60,461
515,45	58,747
515,65	55,978
515,85	59,147
516,05	58,364
516,25	57,674
516,45	59,507
516,65	57,695
516,84	56,701
517,04	61,505
517,24	58,816
517,44	61,714
517,64	60,594
517,84	59,775
518,04	61,058
518,23	62,168
518,43	60,475
518,63	56,208
518,83	56,527
519,03	57,484
519,23	58,707
519,42	58,047
519,62	57,159
519,82	57,935
520,02	57,199
520,22	59,562
520,42	57,201
520,61	58,274
520,81	59,117
521,01	60,687
521,21	56,507
521,41	58,445
521,61	57,778
521,80	57,053
522,00	58,336
522,20	64,365
522,40	61,431
522,60	57,296
522,79	56,516
522,99	61,437
523,19	57,207
523,39	60,103
523,59	56,406
523,78	61,756
523,98	57,899
524,18	58,054
524,38	56,847
524,58	60,122
524,77	61,070
524,97	57,806
525,17	57,511
525,37	56,396
525,57	63,272
525,76	56,803
525,96	59,431
526,16	55,254
526,36	57,173
526,56	59,264
526,75	55,546
526,95	62,749
527,15	58,258
527,35	60,176
527,55	61,190
527,74	59,366
527,94	58,584
528,14	56,439
528,34	59,263
528,53	57,981
528,73	60,257
528,93	59,283
529,13	55,799
529,32	60,052
529,52	58,347
529,72	55,957
529,92	56,308
530,12	58,325
530,31	56,159
530,51	60,881
530,71	58,725
530,91	59,217
531,10	54,598
531,30	56,157
531,50	57,242
531,70	59,916
531,89	59,007
532,09	54,583
532,29	56,185
532,49	57,537
532,68	59,743
532,88	56,957
533,08	56,716
533,28	59,036
533,47	59,533
533,67	57,598
533,87	56,727
534,06	62,333
534,26	58,415
534,46	58,116
534,66	59,589
534,85	59,003
535,05	55,334
535,25	58,698
535,45	54,523
535,64	60,727
535,84	57,920
536,04	55,423
536,23	58,409
536,43	57,799
536,63	55,282
536,83	57,996
537,02	56,669
537,22	56,947
537,42	53,434
537,61	56,437
537,81	54,211
538,01	56,163
538,20	57,977
538,40	52,569
538,60	55,331
538,80	51,528
538,99	54,251
539,19	50,599
539,39	49,990
539,58	50,650
539,78	46,525
539,98	49,280
540,17	48,340
540,37	49,093
540,57	45,938
540,76	45,915
540,96	44,185
541,16	47,275
541,36	45,346
541,55	44,599
541,75	42,694
541,95	43,325
542,14	40,846
542,34	39,768
542,54	40,907
542,73	41,984
542,93	42,501
543,13	40,445
543,32	40,794
543,52	42,551
543,72	38,729
543,91	41,756
544,11	41,672
544,31	40,155
544,50	40,185
544,70	42,311
544,89	44,645
545,09	44,662
545,29	43,665
545,48	42,378
545,68	42,425
545,88	44,422
546,07	45,888
546,27	44,544
546,47	48,418
546,66	46,230
546,86	49,217
547,06	46,629
547,25	47,237
547,45	50,966
547,64	50,937
547,84	53,666
548,04	50,470
548,23	54,250
548,43	51,625
548,63	53,984
548,82	53,009
549,02	51,476
549,21	51,784
549,41	50,970
549,61	54,453
549,80	55,041
550,00	53,747
550,20	53,231
550,39	54,920
550,59	52,536
550,78	55,316
550,98	51,355
551,18	55,909
551,37	57,215
551,57	54,711
551,76	52,617
551,96	53,841
552,16	56,167
552,35	57,391
552,55	57,193
552,74	54,800
552,94	57,801
553,14	56,057
553,33	57,311
553,53	55,420
553,72	55,718
553,92	58,678
554,12	55,144
554,31	59,172
554,51	58,239
554,70	57,374
554,90	56,320
555,09	61,497
555,29	58,986
555,49	59,024
555,68	58,898
555,88	56,110
556,07	57,947
556,27	61,664
556,46	56,226
556,66	56,068
556,86	59,115
557,05	56,921
557,25	55,167
557,44	59,140
557,64	54,290
557,83	60,322
558,03	58,937
558,22	57,153
558,42	58,277
558,62	59,688
558,81	57,577
559,01	53,970
559,20	59,534
559,40	56,243
559,59	55,896
559,79	58,025
559,98	60,263
560,18	59,824
560,37	60,076
560,57	56,101
560,76	58,510
560,96	56,083
561,16	59,892
561,35	56,795
561,55	61,613
561,74	57,643
561,94	59,132
562,13	57,634
562,33	60,180
562,52	60,489
562,72	56,993
562,91	58,636
563,11	57,502
563,30	59,741
563,50	57,234
563,69	56,879
563,89	56,270
564,08	57,570
564,28	56,133
564,47	58,190
564,67	57,799
564,86	59,299
565,06	58,585
565,25	56,687
565,45	59,484
565,64	62,103
565,84	56,255
566,03	57,468
566,23	58,809
566,42	58,415
566,62	57,878
566,81	56,805
567,01	57,449
567,20	58,849
567,40	57,798
567,59	56,065
567,79	60,994
567,98	59,908
568,18	59,079
568,37	57,790
568,57	60,201
568,76	63,169
568,96	58,213
569,15	57,923
569,35	59,540
569,54	61,218
569,73	59,898
569,93	57,875
570,12	58,207
570,32	59,759
570,51	58,376
570,71	60,684
570,90	59,163
571,10	58,086
571,29	59,735
571,49	58,581
571,68	59,023
571,87	59,142
572,07	57,372
572,26	57,855
572,46	58,103
572,65	59,450
572,85	55,555
573,04	57,768
573,24	60,214
573,43	59,636
573,62	59,817
573,82	59,502
574,01	57,850
574,21	56,135
574,40	55,921
574,60	56,252
574,79	62,028
574,98	58,060
575,18	57,769
575,37	55,555
575,57	57,146
575,76	58,172
575,96	58,766
576,15	57,608
576,34	57,355
576,54	56,916
576,73	58,436
576,93	57,757
577,12	57,683
577,31	58,044
577,51	56,243
577,70	57,513
577,90	56,821
578,09	57,259
578,28	55,281
578,48	56,819
578,67	59,740
578,87	58,453
579,06	56,593
579,25	56,779
579,45	57,760
579,64	55,268
579,84	56,721
580,03	55,427
580,22	58,606
580,42	55,004
580,61	55,742
580,81	56,156
581,00	55,170
581,19	58,163
581,39	56,253
581,58	55,111
581,77	57,011
581,97	58,265
582,16	55,714
582,35	56,478
582,55	56,990
582,74	56,969
582,94	56,449
583,13	54,115
583,32	56,254
583,52	56,553
583,71	55,058
583,90	55,573
584,10	56,305
584,29	54,553
584,48	54,360
584,68	55,740
584,87	55,115
585,06	55,721
585,26	55,120
585,45	53,604
585,65	56,033
585,84	54,639
586,03	55,005
586,23	53,400
586,42	55,448
586,61	57,051
586,81	56,564
587,00	55,895
587,19	53,866
587,39	56,365
587,58	53,846
587,77	56,583
587,97	54,884
588,16	55,527
588,35	56,558
588,54	56,884
588,74	56,493
588,93	56,243
589,12	56,374
589,32	56,351
589,51	56,719
589,70	54,705
589,90	52,835
590,09	55,327
590,28	58,771
590,48	55,404
590,67	56,132
590,86	54,807
591,06	56,809
591,25	57,077
591,44	58,094
591,63	55,878
591,83	55,859
592,02	56,633
592,21	55,325
592,41	55,052
592,60	54,617
592,79	55,901
592,98	55,564
593,18	55,868
593,37	56,620
593,56	56,615
593,76	56,800
593,95	55,882
594,14	57,256
594,33	59,406
594,53	57,043
594,72	56,975
594,91	60,471
595,10	57,755
595,30	56,618
595,49	57,210
595,68	58,612
595,88	58,637
596,07	58,144
596,26	58,534
596,45	57,585
596,65	57,011
596,84	54,671
597,03	55,023
597,22	58,218
597,42	59,340
597,61	56,693
597,80	56,608
597,99	57,720
598,19	59,061
598,38	56,822
598,57	57,533
598,76	59,447
598,95	59,760
599,15	59,421
599,34	58,012
599,53	56,713
599,72	59,408
599,92	55,728
600,11	57,244
600,30	58,310
600,49	60,311
600,69	56,082
600,88	58,706
601,07	57,080
601,26	57,670
601,45	57,618
601,65	56,108
601,84	58,112
602,03	58,728
602,22	57,164
602,42	58,478
602,61	57,120
602,80	58,312
602,99	58,493
603,18	56,807
603,38	58,199
603,57	57,061
603,76	57,992
603,95	56,702
604,14	58,047
604,34	57,992
604,53	57,760
604,72	57,625
604,91	59,059
605,10	58,840
605,29	58,518
605,49	58,311
605,68	59,873
605,87	58,977
606,06	57,899
606,25	56,089
606,45	58,578
606,64	57,817
606,83	57,952
607,02	54,725
607,21	57,195
607,40	56,008
607,60	55,204
607,79	54,259
607,98	54,019
608,17	53,047
608,36	52,396
608,55	52,970
608,75	53,053
608,94	51,922
609,13	48,264
609,32	47,205
609,51	47,885
609,70	48,079
609,89	48,871
610,09	48,209
610,28	49,922
610,47	46,093
610,66	45,760
610,85	45,338
611,04	47,677
611,23	46,749
611,43	46,744
611,62	45,971
611,81	46,284
612,00	47,936
612,19	46,029
612,38	47,610
612,57	50,045
612,77	48,160
612,96	49,314
613,15	49,332
613,34	51,076
613,53	52,472
613,72	53,146
613,91	51,995
614,10	52,744
614,29	52,529
614,49	52,900
614,68	52,374
614,87	53,846
615,06	54,920
615,25	52,526
615,44	55,856
615,63	55,587
615,82	55,549
616,01	54,789
616,21	54,559
616,40	53,754
616,59	56,377
616,78	56,152
616,97	55,974
617,16	55,898
617,35	56,747
617,54	56,264
617,73	55,798
617,92	57,324
618,11	56,084
618,31	54,623
618,50	56,083
618,69	54,985
618,88	56,028
619,07	52,603
619,26	53,607
619,45	54,008
619,64	53,016
619,83	53,774
620,02	53,239
620,21	55,317
620,40	55,394
620,59	57,400
620,78	54,821
620,97	57,714
621,17	55,668
621,36	54,976
621,55	54,456
621,74	53,963
621,93	55,294
622,12	55,748
622,31	54,498
622,50	55,466
622,69	56,710
622,88	56,537
623,07	57,382
623,26	55,942
623,45	58,010
623,64	57,542
623,83	53,568
624,02	56,599
624,21	57,408
624,40	55,934
624,59	53,739
624,78	56,099
624,97	58,384
625,16	53,749
625,35	53,500
625,54	53,718
625,73	54,873
625,92	55,984
626,12	57,454
626,31	57,244
626,50	55,967
626,69	58,413
626,88	54,771
627,07	56,132
627,26	56,012
627,45	54,430
627,64	55,102
627,83	55,725
628,02	54,141
628,21	56,199
628,40	56,019
628,59	56,499
628,78	56,115
628,97	55,031
629,16	53,910
629,35	55,470
629,54	57,164
629,73	53,849
629,92	53,463
630,10	57,347
630,29	55,331
630,48	56,345
630,67	53,254
630,86	58,038
631,05	55,584
631,24	56,495
631,43	55,135
631,62	57,023
631,81	56,059
632,00	56,663
632,19	54,713
632,38	56,439
632,57	58,343
632,76	56,244
632,95	56,051
633,14	59,332
633,33	55,158
633,52	58,794
633,71	59,078
633,90	56,335
634,09	56,503
634,28	57,900
634,47	56,862
634,66	56,645
634,85	56,912
635,04	59,626
635,22	58,010
635,41	56,156
635,60	60,103
635,79	57,200
635,98	55,702
636,17	57,094
636,36	57,184
636,55	56,321
636,74	55,020
636,93	55,171
637,12	57,230
637,31	57,332
637,50	55,155
637,69	57,133
637,87	57,590
638,06	56,576
638,25	57,841
638,44	56,997
638,63	53,741
638,82	56,787
639,01	58,096
639,20	57,313
639,39	57,602
639,58	56,441
639,77	58,528
639,95	57,628
640,14	58,391
640,33	54,865
640,52	55,019
640,71	57,148
640,90	56,196
641,09	59,188
641,28	55,643
641,47	58,852
641,66	58,810
641,84	56,171
642,03	56,065
642,22	56,973
642,41	58,947
642,60	55,503
642,79	56,495
642,98	58,104
643,17	54,793
643,35	57,064
643,54	56,616
643,73	58,992
643,92	57,101
644,11	56,630
644,30	56,264
644,49	58,565
644,67	56,820
644,86	56,021
645,05	56,699
645,24	56,353
645,43	55,563
645,62	56,332
645,81	56,681
645,99	57,970
646,18	59,599
646,37	55,885
646,56	56,832
646,75	57,895
646,94	58,823
647,13	55,430
647,31	57,990
647,50	56,015
647,69	58,518
647,88	57,702
648,07	54,998
648,26	59,860
648,44	58,024
648,63	55,978
648,82	55,642
649,01	59,020
649,20	54,682
649,38	56,423
649,57	56,959
649,76	52,834
649,95	58,543
650,14	54,845
650,33	56,007
650,51	56,901
650,70	59,434
650,89	56,010
651,08	56,043
651,27	58,030
651,45	54,806
651,64	54,914
651,83	55,702
652,02	56,146
652,21	58,190
652,39	58,590
652,58	57,725
652,77	55,198
652,96	58,173
653,15	56,852
653,33	55,733
653,52	57,755
653,71	58,048
653,90	57,920
654,09	57,108
654,27	57,489
654,46	58,650
654,65	58,007
654,84	57,752
655,02	59,009
655,21	58,212
655,40	61,345
655,59	57,202
655,77	59,671
655,96	58,718
656,15	58,173
656,34	59,315
656,53	57,560
656,71	56,882
656,90	57,942
657,09	59,844
657,28	60,285
657,46	58,277
657,65	58,732
657,84	56,273
658,03	59,151
658,21	57,078
658,40	57,212
658,59	57,678
658,78	59,148
658,96	56,533
659,15	57,094
659,34	57,195
659,52	57,267
659,71	57,257
659,90	56,666
660,09	58,520
660,27	57,671
660,46	56,766
660,65	56,911
660,84	56,308
661,02	55,396
661,21	56,385
661,40	58,458
661,58	56,200
661,77	58,340
661,96	54,613
662,15	55,959
662,33	56,462
662,52	56,048
662,71	56,108
662,89	55,211
663,08	55,894
663,27	56,791
663,45	54,536
663,64	57,711
663,83	53,885
664,02	55,949
664,20	55,829
664,39	56,111
664,58	56,488
664,76	55,794
664,95	58,345
665,14	56,044
665,32	56,839
665,51	58,828
665,70	58,726
665,88	58,010
666,07	58,277
666,26	57,912
666,44	57,974
666,63	57,221
666,82	57,361
667,00	58,329
667,19	56,644
667,38	58,669
667,56	56,708
667,75	58,112
667,94	56,087
668,12	56,857
668,31	56,971
668,50	57,658
668,68	58,478
668,87	56,480
669,06	56,381
669,24	58,443
669,43	56,812
669,62	55,009
669,80	55,098
669,99	57,946
670,18	57,471
670,36	57,274
670,55	57,179
670,74	57,508
670,92	55,167
671,11	56,558
671,29	56,439
671,48	57,438
671,67	57,567
671,85	56,416
672,04	55,728
672,23	55,929
672,41	57,042
672,60	57,958
672,78	54,356
672,97	56,601
673,16	56,157
673,34	58,804
673,53	57,161
673,71	57,006
673,90	58,531
674,09	58,322
674,27	57,626
674,46	56,696
674,64	57,418
674,83	58,528
675,02	55,925
675,20	57,416
675,39	57,714
675,57	58,365
675,76	55,626
675,95	60,178
676,13	59,587
676,32	59,776
676,50	57,887
676,69	55,658
676,88	55,990
677,06	57,691
677,25	56,721
677,43	61,453
677,62	58,204
677,80	56,599
677,99	56,419
678,18	57,479
678,36	59,437
678,55	55,970
678,73	56,774
678,92	57,443
679,10	57,838
679,29	56,452
679,48	56,908
679,66	56,245
679,85	57,410
680,03	58,852
680,22	57,422
680,40	54,251
680,59	55,909
680,77	56,610
680,96	56,663
681,15	55,853
681,33	59,349
681,52	54,990
681,70	56,551
681,89	59,644
682,07	59,093
682,26	56,257
682,44	59,563
682,63	58,600
682,81	58,417
683,00	57,604
683,18	55,102
683,37	57,057
683,55	54,679
683,74	57,103
683,92	62,175
684,11	57,043
684,29	57,730
684,48	55,090
684,67	57,496
684,85	58,174
685,04	57,099
685,22	55,842
685,41	57,556
685,59	58,784
685,78	57,672
685,96	55,907
686,15	54,618
686,33	56,218
686,52	55,140
686,70	57,067
686,89	57,673
687,07	56,632
687,26	55,872
687,44	57,482
687,62	54,742
687,81	58,149
687,99	56,827
688,18	57,820
688,36	57,735
688,55	57,823
688,73	56,096
688,92	55,460
689,10	55,758
689,29	60,621
689,47	58,990
689,66	57,087
689,84	58,450
690,03	60,315
690,21	58,097
690,40	58,340
690,58	55,699
690,76	55,981
690,95	57,177
691,13	57,522
691,32	55,132
691,50	56,617
691,69	55,825
691,87	55,128
692,06	56,904
692,24	57,887
692,43	58,544
692,61	55,765
692,79	56,103
692,98	54,569
693,16	60,034
693,35	56,513
693,53	59,101
693,72	57,387
693,90	58,403
694,08	55,372
694,27	55,604
694,45	58,193
694,64	59,348
694,82	57,319
695,01	55,896
695,19	56,750
695,37	58,712
695,56	57,982
695,74	57,365
695,93	58,112
696,11	57,054
696,29	58,033
696,48	58,200
696,66	57,463
696,85	56,349
697,03	55,258
697,21	57,974
697,40	55,668
697,58	57,660
697,77	57,214
697,95	55,948
698,13	60,197
698,32	57,132
698,50	56,320
698,69	57,492
698,87	57,831
699,05	56,950
699,24	54,926
699,42	57,782
699,60	53,206
699,79	57,142
699,97	57,055
700,16	55,026
700,34	57,267
700,52	57,949
700,71	57,871
700,89	54,636
701,07	57,934
701,26	58,883
701,44	57,128
701,63	55,725
701,81	57,235
701,99	58,440
702,18	55,153
702,36	55,424
702,54	57,348
702,73	56,779
702,91	56,264
703,09	57,551
703,28	54,175
703,46	56,130
703,64	55,348
703,83	58,299
704,01	56,414
704,19	56,125
704,38	54,627
704,56	55,508
704,74	57,799
704,93	57,529
705,11	55,160
705,29	57,795
705,48	59,093
705,66	57,202
705,84	56,063
706,03	54,022
706,21	55,125
706,39	55,388
706,58	54,228
706,76	56,070
706,94	58,539
707,12	57,247
707,31	56,618
707,49	55,531
707,67	56,695
707,86	59,217
708,04	56,412
708,22	55,035
708,41	55,104
708,59	54,809
708,77	54,679
708,95	56,769
709,14	58,827
709,32	57,187
709,50	54,828
709,69	54,845
709,87	56,188
710,05	55,612
710,23	57,368
710,42	55,414
710,60	55,220
710,78	57,400
710,97	57,756
711,15	57,136
711,33	56,117
711,51	54,880
711,70	56,325
711,88	55,359
712,06	57,266
712,24	57,138
712,43	58,149
712,61	55,087
712,79	55,190
712,97	54,436
713,16	57,856
713,34	55,727
713,52	57,790
713,70	59,069
713,89	55,420
714,07	57,357
714,25	55,663
714,43	59,268
714,62	55,547
714,80	56,009
714,98	53,918
715,16	56,546
715,35	55,514
715,53	55,315
715,71	58,218
715,89	58,431
716,07	55,805
716,26	59,942
716,44	58,109
716,62	55,813
716,80	56,853
716,99	56,853
717,17	59,972
717,35	56,729
717,53	56,058
717,71	55,496
717,90	56,882
718,08	56,487
718,26	54,435
718,44	57,540
718,62	56,704
718,81	58,341
718,99	54,312
719,17	55,531
719,35	57,144
719,53	54,715
719,72	54,030
719,90	58,042
720,08	54,773
720,26	58,312
720,44	55,003
720,62	55,147
720,81	57,411
720,99	59,455
721,17	57,028
721,35	57,656
721,53	56,353
721,72	58,758
721,90	55,391
722,08	54,456
722,26	56,740
722,44	56,233
722,62	57,042
722,81	55,263
722,99	55,973
723,17	55,466
723,35	55,332
723,53	56,711
723,71	59,299
723,89	57,530
724,08	53,426
724,26	57,297
724,44	58,404
724,62	56,457
724,80	57,066
724,98	56,875
725,16	58,776
725,35	58,208
725,53	56,970
725,71	53,894
725,89	56,834
726,07	58,539
726,25	58,883
726,43	56,260
726,61	57,636
726,80	58,725
726,98	56,443
727,16	57,798
727,34	57,165
727,52	57,239
727,70	54,995
727,88	55,032
728,06	55,562
728,25	55,668
728,43	58,197
728,61	56,399
728,79	57,324
728,97	56,166
729,15	55,206
729,33	57,709
729,51	56,040
729,69	57,232
729,87	56,609
730,06	56,586
730,24	57,313
730,42	59,165
730,60	56,144
730,78	58,091
730,96	56,230
731,14	57,580
731,32	57,496
731,50	56,531
731,68	58,131
731,86	56,735
732,04	58,462
732,22	56,370
732,41	59,393
732,59	57,423
732,77	56,869
732,95	58,599
733,13	56,465
733,31	57,685
733,49	55,911
733,67	57,743
733,85	56,872
734,03	57,793
734,21	57,723
734,39	55,067
734,57	57,551
734,75	58,366
734,93	55,177
735,11	55,515
735,29	56,586
735,47	59,337
735,65	56,707
735,84	56,701
736,02	57,779
736,20	58,931
736,38	56,799
736,56	54,455
736,74	57,366
736,92	56,741
737,10	55,536
737,28	57,594
737,46	54,923
737,64	56,228
737,82	55,276
738,00	58,287
738,18	56,365
738,36	56,839
738,54	54,919
738,72	55,957
738,90	55,945
739,08	58,466
739,26	52,306
739,44	56,654
739,62	57,786
739,80	58,038
739,98	57,788
740,16	56,935
740,34	55,885
740,52	58,220
740,70	54,678
740,88	54,520
741,06	56,582
741,24	57,744
741,42	59,157
741,60	56,397
741,78	60,029
741,96	57,147
742,14	55,267
742,32	55,109
742,50	57,049
742,68	56,180
742,86	55,090
743,04	54,804
743,21	57,106
743,39	56,659
743,57	55,293
743,75	55,660
743,93	54,832
744,11	54,106
744,29	55,743
744,47	57,867
744,65	55,331
744,83	54,322
745,01	55,555
745,19	57,310
745,37	58,819
745,55	59,605
745,73	58,138
745,91	56,504
746,09	57,432
746,27	53,890
746,45	54,346
746,62	55,047
746,80	54,710
746,98	56,852
747,16	56,496
747,34	56,680
747,52	56,145
747,70	59,609
747,88	53,636
748,06	55,892
748,24	56,013
748,42	56,924
748,60	55,619
748,78	54,636
748,95	56,737
749,13	59,075
749,31	55,690
749,49	59,036
749,67	56,436
749,85	57,895
750,03	56,532
750,21	57,884
750,39	56,887
750,57	56,222
750,74	56,813
750,92	57,107
751,10	56,295
751,28	57,933
751,46	57,121
751,64	57,625
751,82	57,907
752,00	56,760
752,17	56,757
752,35	55,500
752,53	56,888
752,71	57,571
752,89	57,402
753,07	55,508
753,25	58,204
753,43	54,386
753,60	59,300
753,78	57,402
753,96	57,172
754,14	55,523
754,32	56,008
754,50	58,030
754,68	56,893
754,85	59,932
755,03	57,144
755,21	58,809
755,39	59,522
755,57	56,800
755,75	55,460
755,92	54,658
756,10	58,127
756,28	58,240
756,46	55,174
756,64	56,035
756,82	58,022
756,99	57,321
757,17	56,557
757,35	54,922
757,53	59,460
757,71	56,624
757,89	55,393
758,06	56,728
758,24	58,181
758,42	55,787
758,60	56,131
758,78	56,449
758,95	56,800
759,13	57,626
759,31	56,552
759,49	56,745
759,67	55,232
759,84	56,571
760,02	57,313
760,20	54,561
760,38	57,040
760,56	57,585
760,73	57,575
760,91	56,949
761,09	58,771
761,27	56,761
761,45	57,749
761,62	57,024
761,80	56,402
761,98	58,396
762,16	57,739
762,33	54,975
762,51	58,938
762,69	56,650
762,87	57,111
763,05	58,808
763,22	54,866
763,40	56,837
763,58	55,216
763,76	56,394
763,93	57,470
764,11	58,094
764,29	53,609
764,47	55,739
764,64	58,503
764,82	59,496
765,00	56,221
765,18	54,411
765,35	57,791
765,53	55,313
765,71	56,976
765,89	57,270
766,06	56,994
766,24	55,186
766,42	56,982
766,60	55,770
766,77	54,520
766,95	57,208
767,13	57,322
767,30	57,371
767,48	55,826
767,66	57,297
767,84	54,576
768,01	56,459
768,19	56,087
768,37	57,791
768,54	56,359
768,72	58,829
768,90	56,615
769,08	56,972
769,25	58,370
769,43	54,497
769,61	55,129
769,78	57,290
769,96	56,325
770,14	58,419
770,31	58,396
770,49	58,690
770,67	58,386
770,85	56,042
771,02	58,052
771,20	56,267
771,38	59,774
771,55	55,869
771,73	56,718
771,91	58,031
772,08	58,821
772,26	56,152
772,44	55,246
772,61	55,963
772,79	55,942
772,97	56,657
773,14	53,916
773,32	59,975
773,50	55,975
773,67	55,924
773,85	61,126
774,03	59,522
774,20	59,477
774,38	56,987
774,56	59,276
774,73	56,510
774,91	57,243
775,09	54,960
775,26	58,423
775,44	59,455
775,61	57,156
775,79	56,544
775,97	58,857
776,14	56,491
776,32	55,246
776,50	55,756
776,67	57,170
776,85	58,353
777,03	54,655
777,20	59,355
777,38	57,167
777,55	58,614
777,73	54,312
777,91	54,626
778,08	57,803
778,26	54,786
778,43	58,726
778,61	52,963
778,79	55,088
778,96	56,898
779,14	57,117
779,32	57,056
779,49	58,052
779,67	60,149
779,84	58,155
780,02	55,271
780,20	54,610
780,37	60,307
780,55	49,409
780,72	60,525
780,90	56,351
781,07	56,501
781,25	59,754
781,43	55,545
781,60	57,641
781,78	56,969
781,95	58,746
782,13	56,160
782,30	61,483
782,48	59,082
782,66	56,195
782,83	55,949
783,01	62,727
783,18	57,016
783,36	59,220
783,53	59,098
783,71	57,537
783,89	58,712
784,06	55,847
784,24	56,866
784,41	58,785
784,59	57,953
784,76	60,949
784,94	55,577
785,11	56,741
785,29	58,224
785,46	57,635
785,64	58,582
785,82	58,757
785,99	58,516
786,17	56,148
786,34	58,964
786,52	57,499
786,69	60,316
786,87	57,918
787,04	56,250
787,22	56,463
787,39	57,788
787,57	61,299
787,74	55,945
787,92	60,081
788,09	58,958
788,27	55,714
788,44	57,309
788,62	58,306
788,79	59,000
788,97	62,226
789,14	57,531
789,32	57,092
789,49	58,748
789,67	57,899
789,84	58,422
790,02	57,444
790,19	57,454
790,37	60,765
790,54	59,834
790,72	61,805
790,89	61,152
791,07	58,619
791,24	56,706
791,42	59,374
791,59	58,236
791,77	55,656
791,94	54,834
792,12	57,729
792,29	58,975
792,47	58,010
792,64	60,042
792,81	57,817
792,99	56,999
793,16	57,572
793,34	58,451
793,51	58,433
793,69	60,852
793,86	54,946
794,04	58,270
794,21	61,544
794,39	54,134
794,56	57,367
794,73	58,091
794,91	62,768
795,08	56,032
795,26	60,948
795,43	53,915
795,61	61,097
795,78	58,627
795,95	58,886
796,13	59,142
796,30	58,829
796,48	57,957
796,65	58,615
796,83	59,805
797,00	62,664
797,17	56,565
797,35	58,268
797,52	57,231
797,70	61,493
797,87	56,308
798,04	57,576
798,22	55,506
798,39	60,193
798,57	58,131
798,74	54,026
798,91	55,335
799,09	55,479
799,26	58,840
799,44	60,464
799,61	55,774
799,78	58,556
799,96	59,746
800,13	56,586
800,31	58,875
800,48	65,763
800,65	61,326
800,83	59,116
801,00	57,782
801,17	58,092
801,35	63,276
801,52	57,264
801,70	57,609
801,87	54,555
802,04	61,303
802,22	55,849
802,39	57,556
802,56	65,422
802,74	57,896
802,91	56,440
803,08	58,169
803,26	56,632
803,43	63,214
803,61	58,355
803,78	59,991
803,95	60,532
804,13	63,026
804,30	59,711
804,47	61,152
804,65	58,530
804,82	59,651
804,99	58,419
805,17	55,491
805,34	64,597
805,51	61,825
805,69	58,402
805,86	53,890
806,03	66,736
806,21	60,710
806,38	59,009
806,55	59,979
806,72	61,147
806,90	61,763
807,07	58,806
807,24	57,046
807,42	55,160
807,59	59,121
807,76	56,092
807,94	58,668
808,11	59,606
808,28	62,759
808,45	60,982
808,63	60,948
808,80	62,805
808,97	55,606
809,15	55,442
809,32	63,101
809,49	59,616
809,67	59,746
809,84	58,808
810,01	64,202
810,18	64,988
810,36	60,124
810,53	58,859
810,70	60,139
810,87	62,005
811,05	58,915
811,22	58,077
811,39	57,661
811,57	63,103
811,74	59,975
811,91	61,128
812,08	58,542
812,26	58,863
812,43	59,812
812,60	60,187
812,77	61,043
812,95	61,922
813,12	65,414
813,29	51,931
813,46	60,334
813,64	58,986
813,81	59,818
813,98	62,167
814,15	61,504
814,32	63,441
814,50	63,980
814,67	60,422
814,84	60,790
815,01	60,463
815,19	55,829
815,36	56,269
815,53	57,644
815,70	61,403
815,87	58,874
816,05	55,496
816,22	63,820
816,39	62,887
816,56	63,824
816,74	61,585
816,91	56,408
817,08	65,953
817,25	65,031
817,42	58,265
817,60	61,305
817,77	57,074
817,94	61,163
818,11	62,243
818,28	59,353
818,45	66,322
818,63	59,755
818,80	60,370
818,97	63,392
819,14	64,104
819,31	66,295
819,49	65,587
819,66	58,500
819,83	60,198
820,00	65,100
820,17	59,546
820,34	63,088
820,52	63,514
820,69	62,925
820,86	60,681
821,03	55,897
821,20	64,237
821,37	67,029
821,55	55,479
821,72	57,595
821,89	61,296
822,06	66,947
822,23	59,287
822,40	61,069
822,57	65,553
822,75	70,484
822,92	60,174
823,09	62,151
823,26	63,419
823,43	65,380
823,60	56,016
823,77	61,723
823,94	63,763
824,12	65,764
824,29	56,997
824,46	55,186
824,63	65,335
824,80	64,489
824,97	61,111
825,14	58,548
825,31	62,758
825,49	59,002
825,66	55,368
825,83	56,449
826,00	64,517
826,17	67,736
826,34	59,768
826,51	55,030
826,68	60,957
826,85	58,799
827,02	57,948
827,20	58,989
827,37	57,372
827,54	57,912
827,71	60,244
827,88	61,997
828,05	60,751
828,22	58,227
828,39	66,885
828,56	62,312
828,73	63,337
828,90	71,285
829,07	61,281
829,25	59,281
829,42	61,724
829,59	61,450
829,76	59,059
829,93	57,068
830,10	66,111
830,27	57,785
830,44	60,106
830,61	61,821
830,78	68,486
830,95	69,085
831,12	59,212
831,29	63,054
831,46	60,574
831,63	59,494
831,80	59,828
831,97	64,452
832,14	64,136
832,31	74,142
832,48	61,466
832,65	63,755
832,83	61,003
833,00	64,585
833,17	69,070
833,34	60,418
833,51	71,327
833,68	72,277
833,85	65,696
834,02	59,421
834,19	61,795
834,36	66,389
834,53	56,014
834,70	60,942
834,87	70,635
835,04	66,555
835,21	65,968
835,38	60,638
835,55	70,272
835,72	76,445
835,89	59,381
836,06	70,014
836,23	74,565
836,40	59,190
836,57	60,454
836,74	66,970
836,91	53,890
837,08	76,565
837,25	65,830
837,42	56,584
837,59	64,685
837,76	64,854
837,93	62,308
838,09	56,855
838,26	71,444
838,43	72,288
838,60	64,102
838,77	57,827
838,94	70,462
839,11	71,564
839,28	60,414
839,45	60,731
839,62	58,223
839,79	62,579
839,96	73,019
840,13	61,547
840,30	59,784
840,47	62,034
840,64	60,449
840,81	60,995
840,98	54,723
841,15	67,376
841,32	60,347
841,48	63,459
841,65	68,594
841,82	59,571
841,99	65,088
842,16	64,297
842,33	69,545
842,50	69,217
842,67	58,205
842,84	67,589
843,01	67,299
843,18	63,129
843,35	61,276
843,52	52,819
843,68	67,706
843,85	68,824
844,02	58,327
844,19	60,855
844,36	69,495
844,53	68,493
844,70	62,956
844,87	70,536
845,04	62,010
845,21	58,046
845,37	66,364
845,54	61,654
845,71	63,918
845,88	73,807
846,05	58,048
846,22	61,406
846,39	61,567
846,56	84,236
846,72	60,210
846,89	66,001
847,06	79,722
847,23	72,642
847,40	63,021
847,57	48,623
847,74	76,252
847,90	76,941
848,07	63,269
848,24	58,724
848,41	64,383
848,58	81,479
848,75	66,950
848,92	58,422
849,08	58,425
849,25	68,179
849,42	56,054
849,59	64,259
849,76	65,662
849,93	71,255
850,09	75,618
850,26	51,147
850,43	83,055
850,60	59,190
850,77	58,877
850,94	77,847
851,10	70,209
851,27	64,457
851,44	64,644
851,61	53,216
851,78	73,286
851,95	70,441
852,11	51,403
852,28	65,221
852,45	73,394
852,62	69,061
852,79	52,891
852,95	56,612
853,12	77,763
853,29	63,320
853,46	64,253
853,63	64,991
853,79	57,353
853,96	61,443
854,13	76,948
854,30	58,862
854,46	74,130
854,63	74,393
854,80	68,730
854,97	50,445
855,14	79,183
855,30	73,741
855,47	59,228
855,64	75,502
855,81	61,178
855,97	76,185
856,14	75,147
856,31	55,455
856,48	80,942
856,65	89,658
856,81	60,533
856,98	51,849
857,15	57,959
857,32	69,844
857,48	71,608
857,65	70,921
857,82	76,869
857,99	77,679
858,15	60,351
858,32	57,385
858,49	75,719
858,65	89,613
858,82	69,011
858,99	66,829
859,16	71,861
859,32	75,103
859,49	66,047
859,66	72,524
859,83	66,226
859,99	67,196
860,16	65,692
860,33	76,702
860,49	81,872
860,66	90,394
860,83	66,334
861,00	67,820
861,16	89,992
861,33	79,805
861,50	51,863
861,66	63,711
861,83	90,908
862,00	61,923
862,16	79,218
862,33	64,210
862,50	103,490
862,67	66,794
862,83	76,758
863,00	71,421
863,17	94,740
863,33	62,843
863,50	54,351
863,67	62,208
863,83	86,980
864,00	80,052
864,17	49,282
864,33	64,686
864,50	70,741
864,67	73,032
864,83	68,258
865,00	57,884
865,17	60,507
865,33	91,307
865,50	64,026
865,67	62,175
865,83	86,153
866,00	106,996
866,17	80,996
866,33	72,297
866,50	105,492
866,66	85,833
866,83	97,299
867,00	75,972
867,16	102,557
867,33	101,697
867,50	54,909
867,66	76,791
867,83	112,777
868,00	73,664
868,16	65,640
868,33	60,056
868,49	78,194
868,66	80,598
868,83	63,074
868,99	71,679
869,16	98,561
869,32	102,979
869,49	59,445
869,66	67,517
869,82	91,146
869,99	99,913
870,15	67,191
870,32	88,198
870,49	118,948
870,65	137,581
870,82	87,618
870,98	100,397
871,15	104,770
871,32	73,922
871,48	56,414
871,65	58,299
871,81	89,382
871,98	59,272
872,15	76,726
872,31	50,191
872,48	115,770
872,64	101,195
872,81	68,418
872,97	71,809
873,14	113,741
873,31	74,808
873,47	71,615
873,64	60,281
873,80	157,550
873,97	90,012
874,13	60,574
874,30	74,218
874,46	129,152
874,63	71,351
874,80	68,098
874,96	76,528
875,13	117,920
875,29	91,381
875,46	131,045
875,62	64,265
875,79	118,492
875,95	68,086
876,12	50,437
876,28	33,372
876,45	98,080
876,61	71,715
876,78	75,813
876,94	30,163
877,11	111,362
877,27	118,927
877,44	84,789
877,60	82,985
877,77	111,436
877,94	103,458
878,10	61,114
878,27	74,248
878,43	135,219
878,60	84,451
878,76	75,808
878,93	71,106
879,09	152,891
879,26	111,319
879,42	84,735
879,58	114,340
879,75	105,535
879,91	109,483
880,08	23,778
880,24	69,915
880,41	82,098
880,57	123,736
880,74	56,680
880,90	92,971
881,07	83,346
881,23	155,831
881,40	73,248
881,56	102,400
881,73	136,977
881,89	109,539
882,06	-1,675
882,22	155,444
882,38	165,145
882,55	184,340
882,71	42,342
882,88	69,256
883,04	235,051
883,21	152,615
883,37	144,193
883,54	100,721
883,70	229,553
883,86	122,564
884,03	56,201
884,19	53,484
884,36	191,836
884,52	160,190
884,69	120,382
884,85	73,662
885,01	212,554
885,18	126,894
885,34	144,053
885,51	35,436
885,67	100,199
>>>>> Data<<<<< Espectral Procesado Extremo
