Fichero De Datos De SpectraSuite
++++++++++++++++++++++++++++++++++++
Fecha: Wed Apr 22 12:00:13 CEST 2009
Usuario: evoflor
Presente Oscuro Del Espectro: Sí
La Referencia de Presente Del Espectro De: Sí
Muestreados de los componentes de Número de espectros: 1
Espectrómetros: USB4F02353
Tiempo de integración (usec): 500000 (USB4F02353)
Promedio de Espectros Hechos un: 5 (USB4F02353)
El Alisar Del Furgón: 0 (USB4F02353)
Párrafo de de Corregir del la del del de Eléctrica del obscuridad: Sí (USB4F02353)
Estrobo/Lámpara Permitido: No (USB4F02353)
Correct for Detector Non-linearity: No (USB4F02353)
Párrafo de de Corregir del la del del de Externa del luz: No (USB4F02353)
Procesado del espectro de Número de pixeles en: 3648
>>>>> Comienza Data<<<<< Espectral Procesado Del EL
177,79	335,778
178,00	335,778
178,22	335,778
178,44	1154,286
178,66	-175,968
178,88	350,945
179,09	-96,851
179,31	183,583
179,53	424,334
179,75	120,060
179,96	1181,552
180,18	-150,338
180,40	232,994
180,62	177,347
180,83	-393,140
181,05	-1001,951
181,27	-111860,000
181,49	-10,348
181,70	222,538
181,92	590,660
182,14	442,651
182,36	85,545
182,58	69,400
182,79	808,750
183,01	-90,843
183,23	144,599
183,45	-100,492
183,66	90,442
183,88	605,059
184,10	-4684,727
184,32	252,376
184,53	185,058
184,75	-185,617
184,97	71,705
185,18	-98,609
185,40	-386,346
185,62	177,510
185,84	83,100
186,05	157,806
186,27	-258,890
186,49	5236,923
186,71	21,876
186,92	187,497
187,14	-176,744
187,36	140,830
187,58	123,487
187,79	-5,866
188,01	186,801
188,23	-220,625
188,45	-23,569
188,66	366,786
188,88	-1297,455
189,10	-2342,600
189,31	13,379
189,53	105,584
189,75	299,227
189,97	156,769
190,18	-41,373
190,40	721,529
190,62	-186,549
190,83	-147,588
191,05	203,593
191,27	67,600
191,49	374,901
191,70	-468,558
191,92	-147,119
192,14	-19,414
192,35	516,340
192,57	1473,143
192,79	75,717
193,01	205,019
193,22	165,020
193,44	-68,020
193,66	135,816
193,87	-70,749
194,09	6,572
194,31	221,846
194,53	329,091
194,74	91,871
194,96	38,312
195,18	121,704
195,39	-337,889
195,61	-64,642
195,83	-249,043
196,04	118,216
196,26	-281,709
196,48	15,387
196,70	383,419
196,91	155,019
197,13	114,582
197,35	38,381
197,56	794,923
197,78	1210,896
198,00	939,580
198,21	333,301
198,43	-503,837
198,65	176,074
198,86	486,547
199,08	-10,951
199,30	337,571
199,51	-472,834
199,73	192,953
199,95	285,792
200,16	516,769
200,38	352,271
200,60	44,023
200,81	272,291
201,03	88,750
201,25	-1604,600
201,46	203,083
201,68	93,553
201,90	967,273
202,11	-365,115
202,33	136,194
202,55	577,000
202,76	-80,618
202,98	157,700
203,20	29,038
203,41	31,789
203,63	148,985
203,85	-140660,000
204,06	34,014
204,28	-139,422
204,50	113,522
204,71	310,530
204,93	-264,320
205,15	174,277
205,36	-286,157
205,58	437,543
205,80	-124,436
206,01	62,105
206,23	171,584
206,45	159,022
206,66	61,746
206,88	122,084
207,10	166,273
207,31	305,510
207,53	88,171
207,75	-1,842
207,96	834,776
208,18	-107,952
208,39	23,005
208,61	3967,429
208,83	-188,352
209,04	272,291
209,26	-474,009
209,48	267,117
209,69	228,323
209,91	472,162
210,13	40,890
210,34	39,855
210,56	193,464
210,77	-1653,228
210,99	135,214
211,21	6474,118
211,42	-67,387
211,64	-48,949
211,86	256,727
212,07	199,364
212,29	237,647
212,50	100,606
212,72	291,769
212,94	135,779
213,15	161,546
213,37	98,729
213,58	-196,142
213,80	-2966,429
214,02	11080,000
214,23	401,204
214,45	402,164
214,67	-1517,805
214,88	-127,718
215,10	-217,535
215,31	-50,524
215,53	-77,136
215,75	258,713
215,96	1516,522
216,18	-97,746
216,39	298,275
216,61	275,677
216,83	435,089
217,04	1519,775
217,26	-62,000
217,47	156,448
217,69	332,659
217,91	-93,454
218,12	-87560,000
218,34	191,239
218,55	315,809
218,77	-9,085
218,99	158,978
219,20	-145,936
219,42	263,811
219,63	-196,290
219,85	-85,243
220,06	219,077
220,28	265,749
220,50	102,731
220,71	103,727
220,93	2110,566
221,14	-1271,600
221,36	-72,772
221,58	45,345
221,79	148,814
222,01	692,759
222,22	339,211
222,44	-492,584
222,65	118,855
222,87	209,510
223,09	171,105
223,30	101,877
223,52	153,912
223,73	198,182
223,95	-108,648
224,16	69,196
224,38	369,573
224,60	126,874
224,81	155,128
225,03	117,247
225,24	207,262
225,46	45,282
225,67	-18,694
225,89	12,120
226,10	385,723
226,32	390,880
226,54	10,515
226,75	-16,216
226,97	106,629
227,18	70,800
227,40	90,613
227,61	77,555
227,83	19,254
228,04	92,830
228,26	127,768
228,47	31,835
228,69	158,114
228,91	86,951
229,12	39,570
229,34	33,331
229,55	66,032
229,77	37,531
229,98	-7,145
230,20	87,578
230,41	8,511
230,63	88,098
230,84	21,822
231,06	49,938
231,27	-7,617
231,49	28,319
231,71	10,632
231,92	40,138
232,14	9,776
232,35	111,345
232,57	62,062
232,78	-5,587
233,00	41,276
233,21	26,005
233,43	7,690
233,64	12,295
233,86	39,561
234,07	21,494
234,29	12,900
234,50	15,492
234,72	30,223
234,93	18,955
235,15	29,406
235,36	29,689
235,58	31,179
235,79	46,004
236,01	21,283
236,22	11,230
236,44	31,241
236,65	18,083
236,87	22,963
237,08	5,756
237,30	3,769
237,51	31,848
237,73	2,362
237,94	4,712
238,16	24,974
238,37	17,403
238,59	23,026
238,80	4,247
239,02	4,076
239,23	12,932
239,45	-9,368
239,66	14,523
239,88	28,403
240,09	29,492
240,31	-0,930
240,52	7,404
240,74	8,248
240,95	11,852
241,17	15,754
241,38	4,946
241,60	16,727
241,81	28,049
242,03	6,608
242,24	8,076
242,46	15,413
242,67	1,200
242,89	8,063
243,10	16,278
243,32	18,957
243,53	16,729
243,75	2,740
243,96	9,160
244,18	2,932
244,39	16,017
244,60	8,985
244,82	6,168
245,03	21,177
245,25	12,711
245,46	22,883
245,68	5,341
245,89	21,546
246,11	14,594
246,32	11,153
246,54	3,456
246,75	10,916
246,97	11,363
247,18	21,314
247,39	2,419
247,61	7,566
247,82	7,494
248,04	5,716
248,25	6,386
248,47	6,469
248,68	8,036
248,90	5,722
249,11	6,457
249,33	20,016
249,54	7,606
249,75	8,061
249,97	0,600
250,18	17,493
250,40	17,569
250,61	0,531
250,83	5,262
251,04	3,417
251,25	10,649
251,47	4,643
251,68	4,973
251,90	11,820
252,11	14,891
252,33	5,891
252,54	7,080
252,76	4,115
252,97	3,728
253,18	1,763
253,40	5,624
253,61	5,240
253,83	9,619
254,04	10,176
254,25	5,079
254,47	4,114
254,68	6,412
254,90	4,674
255,11	11,594
255,33	8,278
255,54	2,595
255,75	8,604
255,97	2,227
256,18	3,403
256,40	6,180
256,61	9,154
256,82	0,288
257,04	11,750
257,25	3,208
257,47	4,703
257,68	3,124
257,89	9,001
258,11	10,536
258,32	5,823
258,54	3,657
258,75	10,459
258,96	12,482
259,18	5,432
259,39	7,616
259,61	10,618
259,82	4,349
260,03	10,713
260,25	5,718
260,46	5,246
260,68	1,889
260,89	6,252
261,10	3,332
261,32	8,036
261,53	2,627
261,75	8,442
261,96	2,216
262,17	11,973
262,39	9,238
262,60	3,918
262,81	2,005
263,03	10,247
263,24	4,066
263,46	2,472
263,67	1,618
263,88	4,793
264,10	7,141
264,31	2,501
264,52	8,603
264,74	12,383
264,95	6,574
265,17	6,017
265,38	4,147
265,59	10,518
265,81	10,775
266,02	1,724
266,23	3,272
266,45	9,761
266,66	11,261
266,87	8,732
267,09	3,989
267,30	11,794
267,52	9,135
267,73	5,531
267,94	5,736
268,16	6,242
268,37	5,798
268,58	5,948
268,80	3,584
269,01	4,793
269,22	5,461
269,44	8,011
269,65	4,571
269,86	4,384
270,08	6,843
270,29	5,689
270,50	6,286
270,72	10,216
270,93	3,943
271,14	1,727
271,36	3,312
271,57	9,664
271,78	8,687
272,00	11,075
272,21	7,390
272,42	3,351
272,64	7,280
272,85	5,216
273,06	2,620
273,28	7,572
273,49	7,402
273,70	8,281
273,92	6,759
274,13	6,591
274,34	3,594
274,56	7,915
274,77	4,282
274,98	13,445
275,20	5,608
275,41	5,375
275,62	7,275
275,84	7,414
276,05	11,538
276,26	4,700
276,47	-1,369
276,69	7,825
276,90	7,566
277,11	4,845
277,33	4,034
277,54	9,478
277,75	3,651
277,97	3,715
278,18	4,471
278,39	5,175
278,61	5,632
278,82	6,931
279,03	7,517
279,24	6,203
279,46	3,933
279,67	8,048
279,88	6,134
280,10	10,482
280,31	1,046
280,52	6,014
280,73	3,306
280,95	3,227
281,16	9,285
281,37	4,703
281,59	10,320
281,80	12,685
282,01	6,708
282,22	3,779
282,44	3,807
282,65	12,609
282,86	6,696
283,08	5,789
283,29	6,211
283,50	6,067
283,71	6,977
283,93	6,597
284,14	8,680
284,35	7,384
284,56	4,706
284,78	1,599
284,99	6,406
285,20	10,408
285,42	7,089
285,63	3,752
285,84	3,794
286,05	3,873
286,27	5,130
286,48	2,775
286,69	3,779
286,90	5,906
287,12	3,793
287,33	1,706
287,54	3,074
287,75	4,495
287,97	6,547
288,18	4,045
288,39	2,990
288,60	2,528
288,82	5,196
289,03	3,922
289,24	6,053
289,45	8,575
289,67	4,585
289,88	3,076
290,09	7,010
290,30	4,098
290,52	3,719
290,73	3,830
290,94	1,794
291,15	5,879
291,37	5,605
291,58	3,879
291,79	2,303
292,00	7,282
292,21	7,708
292,43	4,926
292,64	2,647
292,85	3,409
293,06	7,625
293,28	3,215
293,49	1,618
293,70	7,533
293,91	4,117
294,12	4,501
294,34	3,534
294,55	5,422
294,76	3,298
294,97	8,345
295,19	3,846
295,40	6,048
295,61	5,935
295,82	1,889
296,03	5,492
296,25	7,435
296,46	2,589
296,67	1,872
296,88	0,564
297,09	6,371
297,31	2,547
297,52	5,738
297,73	4,916
297,94	7,318
298,15	3,710
298,37	4,330
298,58	4,689
298,79	8,197
299,00	3,083
299,21	4,320
299,43	1,101
299,64	7,832
299,85	7,624
300,06	4,370
300,27	4,144
300,49	9,497
300,70	4,149
300,91	5,277
301,12	5,923
301,33	6,039
301,54	5,815
301,76	2,790
301,97	5,538
302,18	1,151
302,39	7,706
302,60	14,679
302,82	3,765
303,03	6,728
303,24	6,960
303,45	6,233
303,66	4,647
303,87	4,291
304,09	8,115
304,30	5,499
304,51	3,681
304,72	4,901
304,93	6,872
305,14	4,893
305,36	2,056
305,57	1,123
305,78	6,210
305,99	4,143
306,20	4,080
306,41	2,155
306,62	3,888
306,84	4,012
307,05	3,042
307,26	5,807
307,47	9,141
307,68	5,425
307,89	2,596
308,11	4,191
308,32	4,962
308,53	4,835
308,74	3,380
308,95	2,979
309,16	6,992
309,37	7,510
309,59	2,066
309,80	7,677
310,01	4,324
310,22	8,410
310,43	3,777
310,64	6,882
310,85	5,092
311,06	3,716
311,28	2,306
311,49	5,236
311,70	9,412
311,91	2,339
312,12	4,745
312,33	6,986
312,54	4,708
312,75	5,003
312,97	4,360
313,18	5,841
313,39	6,531
313,60	4,085
313,81	4,661
314,02	4,680
314,23	5,651
314,44	3,718
314,65	4,551
314,87	1,963
315,08	2,121
315,29	7,002
315,50	6,188
315,71	6,747
315,92	7,990
316,13	5,634
316,34	5,222
316,55	5,359
316,77	3,438
316,98	4,953
317,19	5,058
317,40	7,349
317,61	9,190
317,82	3,194
318,03	2,931
318,24	5,894
318,45	7,076
318,66	4,940
318,87	0,960
319,09	8,846
319,30	5,738
319,51	5,316
319,72	6,075
319,93	6,541
320,14	6,040
320,35	5,596
320,56	3,557
320,77	2,657
320,98	10,412
321,19	6,647
321,40	5,053
321,62	6,773
321,83	4,663
322,04	4,053
322,25	1,833
322,46	10,713
322,67	7,977
322,88	4,670
323,09	4,248
323,30	6,594
323,51	8,253
323,72	6,536
323,93	3,833
324,14	4,611
324,35	1,847
324,56	1,271
324,77	5,537
324,99	4,906
325,20	1,753
325,41	3,756
325,62	5,209
325,83	3,633
326,04	3,978
326,25	6,970
326,46	3,461
326,67	5,094
326,88	4,920
327,09	2,354
327,30	4,242
327,51	6,134
327,72	5,637
327,93	7,529
328,14	1,500
328,35	5,475
328,56	6,110
328,77	4,285
328,98	7,357
329,19	6,471
329,40	7,061
329,61	2,906
329,82	1,737
330,04	3,750
330,25	4,292
330,46	5,792
330,67	3,345
330,88	3,895
331,09	4,403
331,30	2,846
331,51	5,434
331,72	5,657
331,93	7,607
332,14	5,485
332,35	4,458
332,56	2,962
332,77	6,713
332,98	2,424
333,19	2,636
333,40	7,147
333,61	4,691
333,82	7,351
334,03	6,520
334,24	3,725
334,45	2,903
334,66	8,600
334,87	6,397
335,08	2,949
335,29	4,328
335,50	5,630
335,71	1,738
335,92	7,521
336,13	6,894
336,34	3,337
336,55	4,912
336,76	8,419
336,97	6,440
337,18	0,614
337,39	3,534
337,60	5,131
337,81	3,922
338,02	3,431
338,23	2,661
338,44	5,549
338,65	6,355
338,86	6,601
339,07	3,255
339,28	7,158
339,49	5,208
339,70	1,407
339,91	5,310
340,11	7,797
340,32	6,602
340,53	3,974
340,74	3,323
340,95	3,150
341,16	7,528
341,37	4,083
341,58	1,171
341,79	2,480
342,00	3,374
342,21	5,017
342,42	3,300
342,63	6,520
342,84	1,820
343,05	6,949
343,26	7,078
343,47	3,707
343,68	2,574
343,89	5,518
344,10	5,666
344,31	8,873
344,52	5,106
344,73	1,699
344,94	4,530
345,14	8,087
345,35	5,439
345,56	6,141
345,77	6,798
345,98	5,056
346,19	5,420
346,40	4,334
346,61	3,714
346,82	5,950
347,03	3,922
347,24	5,589
347,45	5,385
347,66	6,440
347,87	2,478
348,08	7,141
348,28	0,179
348,49	6,624
348,70	9,129
348,91	6,561
349,12	-0,248
349,33	18,257
349,54	3,743
349,75	4,389
349,96	6,562
350,17	5,554
350,38	3,166
350,59	4,788
350,80	3,920
351,00	6,431
351,21	5,412
351,42	5,520
351,63	1,079
351,84	7,396
352,05	8,092
352,26	5,220
352,47	4,593
352,68	5,591
352,89	8,825
353,09	3,822
353,30	1,393
353,51	6,570
353,72	8,198
353,93	7,694
354,14	0,440
354,35	2,713
354,56	6,312
354,77	6,115
354,98	2,880
355,18	6,062
355,39	7,603
355,60	3,271
355,81	2,297
356,02	7,801
356,23	5,310
356,44	3,307
356,65	8,292
356,85	8,430
357,06	5,756
357,27	7,086
357,48	1,538
357,69	5,874
357,90	8,201
358,11	4,071
358,32	4,484
358,52	6,730
358,73	6,863
358,94	3,779
359,15	7,049
359,36	6,844
359,57	2,770
359,78	4,909
359,98	4,062
360,19	0,912
360,40	6,677
360,61	4,809
360,82	4,415
361,03	8,611
361,24	4,475
361,44	2,156
361,65	5,731
361,86	4,400
362,07	3,452
362,28	5,129
362,49	2,686
362,70	4,926
362,90	4,493
363,11	1,937
363,32	2,844
363,53	7,311
363,74	6,441
363,95	7,998
364,15	6,756
364,36	7,431
364,57	6,211
364,78	4,942
364,99	4,697
365,20	9,639
365,40	6,887
365,61	1,136
365,82	6,685
366,03	4,878
366,24	2,871
366,45	4,418
366,65	1,479
366,86	6,284
367,07	5,066
367,28	5,067
367,49	4,789
367,69	10,221
367,90	5,997
368,11	6,454
368,32	3,093
368,53	7,583
368,73	6,869
368,94	2,049
369,15	5,253
369,36	9,171
369,57	5,834
369,78	2,757
369,98	6,700
370,19	11,084
370,40	4,177
370,61	3,645
370,82	5,480
371,02	4,857
371,23	9,624
371,44	5,375
371,65	6,097
371,85	7,770
372,06	4,572
372,27	3,149
372,48	6,432
372,69	4,294
372,89	4,441
373,10	5,363
373,31	6,870
373,52	5,625
373,73	10,043
373,93	3,277
374,14	2,076
374,35	5,717
374,56	9,775
374,76	5,593
374,97	4,141
375,18	6,420
375,39	4,743
375,60	4,922
375,80	6,695
376,01	4,168
376,22	5,209
376,43	4,983
376,63	9,559
376,84	4,823
377,05	5,458
377,26	3,847
377,46	3,915
377,67	3,056
377,88	8,031
378,09	6,297
378,29	0,725
378,50	6,592
378,71	6,955
378,92	3,871
379,12	5,840
379,33	6,552
379,54	4,866
379,75	4,056
379,95	4,824
380,16	7,449
380,37	9,188
380,58	5,192
380,78	5,646
380,99	2,770
381,20	4,133
381,41	5,860
381,61	5,136
381,82	6,492
382,03	4,619
382,24	7,956
382,44	6,091
382,65	6,870
382,86	3,258
383,06	4,650
383,27	5,950
383,48	1,985
383,69	7,795
383,89	6,569
384,10	3,823
384,31	5,372
384,51	7,981
384,72	6,799
384,93	3,989
385,14	3,939
385,34	6,779
385,55	4,363
385,76	5,018
385,96	9,117
386,17	5,818
386,38	6,691
386,59	8,313
386,79	5,618
387,00	7,388
387,21	6,752
387,41	6,786
387,62	6,057
387,83	9,138
388,03	7,984
388,24	5,839
388,45	7,486
388,66	6,735
388,86	5,245
389,07	4,917
389,28	10,054
389,48	6,434
389,69	7,461
389,90	6,139
390,10	6,916
390,31	8,657
390,52	0,939
390,72	7,840
390,93	5,678
391,14	5,947
391,34	8,498
391,55	9,058
391,76	13,188
391,96	8,289
392,17	2,887
392,38	8,081
392,58	8,708
392,79	9,282
393,00	2,813
393,20	5,696
393,41	9,944
393,62	9,279
393,82	8,241
394,03	8,922
394,24	8,607
394,44	10,000
394,65	7,801
394,86	10,290
395,06	9,598
395,27	4,387
395,48	5,271
395,68	10,807
395,89	9,385
396,10	11,352
396,30	10,174
396,51	7,643
396,72	10,086
396,92	6,150
397,13	10,821
397,34	9,204
397,54	13,465
397,75	7,348
397,95	5,127
398,16	11,997
398,37	6,747
398,57	7,639
398,78	9,660
398,99	11,546
399,19	11,777
399,40	13,816
399,60	7,746
399,81	11,846
400,02	14,262
400,22	13,360
400,43	11,431
400,64	12,593
400,84	12,019
401,05	12,321
401,25	12,942
401,46	12,082
401,67	12,502
401,87	13,054
402,08	12,299
402,29	10,978
402,49	17,228
402,70	14,520
402,90	10,316
403,11	14,306
403,32	16,076
403,52	13,276
403,73	13,622
403,93	15,221
404,14	18,127
404,35	14,140
404,55	14,237
404,76	11,936
404,96	16,261
405,17	18,162
405,38	19,710
405,58	14,920
405,79	17,186
405,99	18,643
406,20	15,577
406,40	13,163
406,61	18,372
406,82	15,843
407,02	21,030
407,23	16,677
407,43	17,515
407,64	16,400
407,85	16,757
408,05	14,482
408,26	26,701
408,46	24,389
408,67	15,356
408,87	19,648
409,08	19,525
409,29	22,709
409,49	23,341
409,70	21,533
409,90	25,194
410,11	18,283
410,31	24,561
410,52	19,334
410,72	21,274
410,93	26,390
411,14	19,144
411,34	18,154
411,55	23,998
411,75	26,530
411,96	23,744
412,16	22,415
412,37	22,942
412,57	25,382
412,78	26,305
412,99	23,607
413,19	23,628
413,40	25,875
413,60	20,382
413,81	22,307
414,01	27,582
414,22	25,112
414,42	22,889
414,63	23,304
414,83	27,855
415,04	30,175
415,24	29,809
415,45	26,143
415,65	28,772
415,86	26,700
416,07	26,227
416,27	30,505
416,48	30,701
416,68	31,508
416,89	23,692
417,09	28,080
417,30	28,291
417,50	29,568
417,71	29,574
417,91	29,572
418,12	30,830
418,32	27,972
418,53	32,857
418,73	31,374
418,94	29,127
419,14	31,130
419,35	26,843
419,55	31,570
419,76	32,305
419,96	25,920
420,17	27,133
420,37	29,256
420,58	33,053
420,78	31,660
420,99	34,330
421,19	33,572
421,40	30,080
421,60	37,278
421,81	34,184
422,01	37,326
422,22	34,134
422,42	31,748
422,63	34,109
422,83	30,416
423,04	36,287
423,24	38,543
423,45	32,620
423,65	35,058
423,86	42,051
424,06	36,210
424,27	30,325
424,47	32,600
424,67	32,442
424,88	35,496
425,08	33,792
425,29	38,482
425,49	34,876
425,70	33,976
425,90	32,873
426,11	32,899
426,31	36,444
426,52	35,361
426,72	35,785
426,93	30,557
427,13	43,111
427,33	34,683
427,54	39,396
427,74	38,378
427,95	42,933
428,15	36,453
428,36	39,608
428,56	35,861
428,77	38,546
428,97	36,747
429,18	37,815
429,38	33,454
429,58	41,218
429,79	40,441
429,99	35,857
430,20	33,506
430,40	41,150
430,61	35,586
430,81	38,910
431,01	40,644
431,22	38,994
431,42	39,001
431,63	34,957
431,83	36,546
432,04	38,174
432,24	45,553
432,44	36,844
432,65	36,258
432,85	36,387
433,06	39,971
433,26	38,347
433,47	33,967
433,67	33,752
433,87	34,400
434,08	34,937
434,28	35,605
434,49	37,691
434,69	40,967
434,89	34,682
435,10	34,877
435,30	41,348
435,51	36,149
435,71	38,898
435,91	36,299
436,12	37,547
436,32	37,386
436,53	37,436
436,73	35,924
436,93	40,794
437,14	37,553
437,34	40,730
437,55	36,879
437,75	39,803
437,95	42,942
438,16	38,402
438,36	38,462
438,57	36,492
438,77	36,394
438,97	41,624
439,18	43,445
439,38	39,403
439,58	38,803
439,79	42,175
439,99	36,917
440,20	43,659
440,40	41,736
440,60	43,655
440,81	42,276
441,01	39,449
441,21	42,788
441,42	43,746
441,62	41,685
441,83	40,913
442,03	43,291
442,23	42,153
442,44	43,074
442,64	38,118
442,84	36,214
443,05	41,797
443,25	39,675
443,45	40,817
443,66	41,716
443,86	39,346
444,06	40,195
444,27	41,076
444,47	38,618
444,67	39,143
444,88	43,830
445,08	43,654
445,28	42,964
445,49	38,218
445,69	36,486
445,90	41,090
446,10	47,228
446,30	41,716
446,51	44,089
446,71	47,529
446,91	45,735
447,12	47,912
447,32	39,666
447,52	44,166
447,72	41,191
447,93	45,143
448,13	40,714
448,33	46,056
448,54	46,724
448,74	36,728
448,94	42,905
449,15	45,766
449,35	41,325
449,55	38,810
449,76	44,669
449,96	42,389
450,16	43,842
450,37	39,300
450,57	40,381
450,77	38,352
450,98	46,170
451,18	43,396
451,38	44,013
451,58	44,064
451,79	40,485
451,99	41,588
452,19	41,088
452,40	45,497
452,60	38,183
452,80	40,599
453,00	46,620
453,21	45,714
453,41	44,795
453,61	40,935
453,82	45,001
454,02	40,135
454,22	50,419
454,42	44,557
454,63	39,369
454,83	41,734
455,03	46,155
455,24	40,388
455,44	37,459
455,64	45,223
455,84	42,938
456,05	39,355
456,25	38,218
456,45	39,876
456,65	39,398
456,86	42,924
457,06	42,381
457,26	49,403
457,47	48,311
457,67	44,560
457,87	42,301
458,07	44,613
458,28	46,920
458,48	45,129
458,68	39,046
458,88	43,016
459,09	44,377
459,29	47,880
459,49	41,676
459,69	47,262
459,90	47,087
460,10	47,538
460,30	44,050
460,50	40,177
460,71	43,746
460,91	43,048
461,11	43,279
461,31	40,420
461,52	47,806
461,72	41,021
461,92	45,048
462,12	48,175
462,32	41,033
462,53	41,008
462,73	40,908
462,93	40,598
463,13	45,273
463,34	42,611
463,54	40,623
463,74	47,253
463,94	45,992
464,14	44,615
464,35	37,224
464,55	44,461
464,75	48,958
464,95	46,813
465,16	40,739
465,36	46,803
465,56	41,628
465,76	42,665
465,96	43,815
466,17	40,233
466,37	41,676
466,57	41,563
466,77	40,805
466,97	41,471
467,18	43,937
467,38	44,486
467,58	41,916
467,78	47,493
467,98	41,775
468,19	42,718
468,39	43,633
468,59	46,753
468,79	46,700
468,99	40,028
469,19	40,764
469,40	45,027
469,60	33,723
469,80	41,804
470,00	42,287
470,20	49,030
470,41	40,444
470,61	46,066
470,81	41,534
471,01	40,042
471,21	49,469
471,41	41,800
471,62	44,744
471,82	42,548
472,02	44,041
472,22	39,689
472,42	43,873
472,62	42,426
472,83	42,509
473,03	41,978
473,23	44,760
473,43	49,370
473,63	45,225
473,83	41,957
474,03	43,853
474,24	47,861
474,44	41,114
474,64	44,918
474,84	44,574
475,04	43,662
475,24	42,694
475,45	42,188
475,65	40,564
475,85	44,556
476,05	38,814
476,25	42,731
476,45	38,991
476,65	48,713
476,85	45,731
477,06	41,471
477,26	44,227
477,46	43,893
477,66	46,450
477,86	44,094
478,06	45,169
478,26	47,067
478,46	43,902
478,67	45,803
478,87	42,650
479,07	42,951
479,27	47,180
479,47	43,208
479,67	36,226
479,87	40,799
480,07	44,357
480,28	44,438
480,48	39,560
480,68	43,266
480,88	46,382
481,08	44,562
481,28	44,226
481,48	42,942
481,68	40,950
481,88	41,040
482,08	42,038
482,29	47,112
482,49	39,236
482,69	43,078
482,89	39,280
483,09	44,609
483,29	42,171
483,49	40,673
483,69	42,764
483,89	41,044
484,09	39,622
484,29	39,971
484,50	39,845
484,70	41,764
484,90	40,048
485,10	40,157
485,30	41,345
485,50	44,089
485,70	40,620
485,90	39,530
486,10	36,212
486,30	41,654
486,50	39,724
486,70	40,355
486,90	42,138
487,10	43,883
487,30	40,640
487,51	40,982
487,71	38,146
487,91	37,505
488,11	42,744
488,31	35,918
488,51	40,950
488,71	41,362
488,91	44,731
489,11	38,705
489,31	39,194
489,51	39,579
489,71	42,453
489,91	39,888
490,11	39,576
490,31	42,244
490,51	41,699
490,71	39,153
490,91	40,409
491,11	43,445
491,31	43,781
491,51	38,210
491,72	41,319
491,92	40,695
492,12	43,649
492,32	43,638
492,52	44,056
492,72	41,302
492,92	41,764
493,12	43,608
493,32	40,561
493,52	39,387
493,72	43,171
493,92	42,517
494,12	41,140
494,32	44,107
494,52	39,932
494,72	41,739
494,92	39,841
495,12	45,051
495,32	44,222
495,52	41,830
495,72	43,382
495,92	46,722
496,12	44,900
496,32	40,468
496,52	41,984
496,72	42,528
496,92	46,167
497,12	41,084
497,32	42,605
497,52	43,561
497,72	46,209
497,92	43,136
498,12	42,051
498,32	43,579
498,52	42,281
498,72	42,086
498,92	40,634
499,12	44,558
499,32	39,054
499,52	43,911
499,72	43,204
499,92	42,839
500,12	44,837
500,32	46,099
500,52	43,916
500,72	49,916
500,91	47,401
501,11	44,627
501,31	38,642
501,51	46,939
501,71	47,537
501,91	45,273
502,11	45,198
502,31	45,507
502,51	45,222
502,71	45,721
502,91	42,502
503,11	42,657
503,31	45,524
503,51	40,526
503,71	43,174
503,91	49,615
504,11	46,905
504,31	42,445
504,51	46,074
504,71	47,224
504,91	46,882
505,10	45,361
505,30	45,505
505,50	44,651
505,70	43,527
505,90	43,070
506,10	44,173
506,30	44,581
506,50	45,182
506,70	45,439
506,90	41,328
507,10	47,966
507,30	43,510
507,50	47,568
507,70	44,452
507,89	45,998
508,09	41,812
508,29	43,063
508,49	44,917
508,69	45,300
508,89	44,916
509,09	42,287
509,29	44,210
509,49	46,079
509,69	48,321
509,89	44,883
510,09	43,593
510,28	46,676
510,48	46,107
510,68	42,844
510,88	46,600
511,08	44,585
511,28	43,980
511,48	43,957
511,68	43,466
511,88	42,377
512,07	45,731
512,27	46,665
512,47	43,977
512,67	45,621
512,87	43,424
513,07	44,722
513,27	41,876
513,47	42,949
513,67	42,266
513,86	43,710
514,06	45,853
514,26	41,647
514,46	48,115
514,66	43,530
514,86	46,454
515,06	50,242
515,26	44,900
515,45	44,599
515,65	41,237
515,85	45,387
516,05	46,177
516,25	45,952
516,45	44,467
516,65	44,398
516,84	44,233
517,04	47,615
517,24	44,463
517,44	43,262
517,64	48,078
517,84	45,807
518,04	44,607
518,23	45,924
518,43	49,565
518,63	39,680
518,83	44,502
519,03	42,121
519,23	48,170
519,42	42,454
519,62	41,138
519,82	41,382
520,02	45,117
520,22	44,582
520,42	43,215
520,61	47,996
520,81	46,198
521,01	48,323
521,21	44,301
521,41	45,730
521,61	44,278
521,80	43,683
522,00	44,730
522,20	48,178
522,40	45,387
522,60	45,623
522,79	43,231
522,99	45,404
523,19	41,658
523,39	46,704
523,59	44,884
523,78	46,592
523,98	40,914
524,18	45,516
524,38	44,939
524,58	46,357
524,77	48,968
524,97	46,248
525,17	42,461
525,37	43,675
525,57	45,878
525,76	42,468
525,96	45,635
526,16	43,637
526,36	43,070
526,56	44,034
526,75	44,523
526,95	45,597
527,15	45,262
527,35	45,826
527,55	43,378
527,74	47,869
527,94	45,079
528,14	40,952
528,34	44,213
528,53	45,765
528,73	45,241
528,93	45,500
529,13	44,560
529,32	45,468
529,52	45,917
529,72	43,916
529,92	43,883
530,12	45,470
530,31	40,897
530,51	45,889
530,71	47,306
530,91	46,781
531,10	42,269
531,30	41,763
531,50	41,413
531,70	47,667
531,89	44,291
532,09	43,022
532,29	44,914
532,49	46,545
532,68	43,891
532,88	42,571
533,08	45,226
533,28	44,608
533,47	43,925
533,67	44,622
533,87	41,035
534,06	49,855
534,26	44,901
534,46	45,703
534,66	45,131
534,85	46,542
535,05	39,457
535,25	44,977
535,45	43,123
535,64	43,475
535,84	41,361
536,04	41,532
536,23	43,853
536,43	46,058
536,63	41,427
536,83	42,833
537,02	40,642
537,22	42,786
537,42	41,023
537,61	42,992
537,81	43,092
538,01	43,625
538,20	43,482
538,40	41,332
538,60	40,644
538,80	40,698
538,99	40,390
539,19	40,085
539,39	39,417
539,58	40,530
539,78	36,912
539,98	38,231
540,17	34,571
540,37	39,172
540,57	33,973
540,76	34,521
540,96	32,366
541,16	36,889
541,36	33,652
541,55	30,483
541,75	32,519
541,95	33,961
542,14	32,115
542,34	30,408
542,54	30,100
542,73	32,506
542,93	33,705
543,13	31,560
543,32	31,695
543,52	30,091
543,72	29,564
543,91	30,491
544,11	31,283
544,31	31,960
544,50	32,882
544,70	32,103
544,89	31,513
545,09	33,657
545,29	31,130
545,48	32,873
545,68	32,880
545,88	35,293
546,07	34,451
546,27	33,774
546,47	34,680
546,66	35,968
546,86	38,788
547,06	34,757
547,25	35,158
547,45	38,461
547,64	38,066
547,84	40,226
548,04	38,265
548,23	40,790
548,43	39,807
548,63	42,484
548,82	40,835
549,02	42,464
549,21	37,979
549,41	39,607
549,61	40,077
549,80	40,967
550,00	39,857
550,20	38,248
550,39	40,517
550,59	41,361
550,78	42,017
550,98	40,468
551,18	42,363
551,37	44,191
551,57	41,774
551,76	41,146
551,96	43,032
552,16	43,668
552,35	43,757
552,55	40,920
552,74	43,548
552,94	43,083
553,14	43,008
553,33	42,092
553,53	43,042
553,72	43,902
553,92	45,884
554,12	41,907
554,31	42,931
554,51	42,890
554,70	42,561
554,90	44,227
555,09	47,202
555,29	44,990
555,49	45,094
555,68	44,310
555,88	43,401
556,07	42,092
556,27	47,946
556,46	43,454
556,66	44,099
556,86	45,871
557,05	43,409
557,25	43,548
557,44	43,369
557,64	44,849
557,83	46,614
558,03	44,888
558,22	44,372
558,42	43,976
558,62	48,055
558,81	43,274
559,01	43,037
559,20	49,059
559,40	44,298
559,59	44,382
559,79	42,634
559,98	45,625
560,18	47,255
560,37	45,025
560,57	44,888
560,76	43,189
560,96	43,933
561,16	43,222
561,35	45,343
561,55	47,289
561,74	46,803
561,94	44,717
562,13	44,125
562,33	47,435
562,52	46,520
562,72	45,005
562,91	44,082
563,11	46,033
563,30	47,647
563,50	42,641
563,69	43,374
563,89	43,667
564,08	46,144
564,28	43,180
564,47	45,042
564,67	43,940
564,86	44,690
565,06	43,540
565,25	42,653
565,45	44,120
565,64	49,000
565,84	42,100
566,03	43,198
566,23	47,593
566,42	45,377
566,62	46,416
566,81	43,383
567,01	45,570
567,20	45,559
567,40	42,629
567,59	43,111
567,79	47,165
567,98	46,857
568,18	46,454
568,37	46,569
568,57	45,112
568,76	45,033
568,96	45,158
569,15	43,831
569,35	44,725
569,54	47,446
569,73	46,805
569,93	43,992
570,12	43,627
570,32	44,086
570,51	44,787
570,71	45,244
570,90	46,429
571,10	44,518
571,29	44,856
571,49	43,373
571,68	45,501
571,87	45,093
572,07	44,702
572,26	43,326
572,46	44,566
572,65	45,465
572,85	42,322
573,04	42,056
573,24	46,145
573,43	48,082
573,62	42,831
573,82	44,259
574,01	43,509
574,21	43,732
574,40	42,809
574,60	43,645
574,79	45,342
574,98	45,131
575,18	44,162
575,37	43,501
575,57	45,014
575,76	43,364
575,96	44,007
576,15	42,200
576,34	43,488
576,54	45,410
576,73	44,179
576,93	41,575
577,12	44,447
577,31	44,680
577,51	42,590
577,70	42,999
577,90	43,164
578,09	42,700
578,28	43,376
578,48	43,651
578,67	45,045
578,87	43,152
579,06	42,507
579,25	43,515
579,45	44,156
579,64	42,510
579,84	43,125
580,03	43,357
580,22	44,696
580,42	42,620
580,61	42,560
580,81	41,372
581,00	43,776
581,19	42,115
581,39	41,591
581,58	41,506
581,77	43,723
581,97	44,200
582,16	42,682
582,35	42,332
582,55	41,804
582,74	44,847
582,94	44,117
583,13	39,968
583,32	44,241
583,52	43,103
583,71	43,828
583,90	42,951
584,10	42,241
584,29	43,878
584,48	41,797
584,68	42,485
584,87	43,101
585,06	43,738
585,26	41,419
585,45	42,357
585,65	44,492
585,84	41,499
586,03	42,506
586,23	41,674
586,42	43,703
586,61	43,637
586,81	43,579
587,00	43,259
587,19	42,022
587,39	43,369
587,58	43,049
587,77	41,493
587,97	41,972
588,16	42,640
588,35	43,495
588,54	42,127
588,74	43,435
588,93	44,341
589,12	43,342
589,32	43,589
589,51	42,400
589,70	41,086
589,90	42,963
590,09	42,789
590,28	45,559
590,48	41,210
590,67	44,157
590,86	43,751
591,06	43,905
591,25	45,562
591,44	44,489
591,63	43,033
591,83	44,534
592,02	42,587
592,21	43,054
592,41	42,745
592,60	44,137
592,79	43,434
592,98	43,483
593,18	42,920
593,37	43,773
593,56	43,604
593,76	44,435
593,95	43,664
594,14	43,330
594,33	46,703
594,53	43,815
594,72	42,662
594,91	46,967
595,10	44,607
595,30	42,817
595,49	43,524
595,68	45,590
595,88	44,237
596,07	45,097
596,26	45,674
596,45	45,223
596,65	42,834
596,84	44,329
597,03	44,623
597,22	45,824
597,42	47,541
597,61	43,213
597,80	42,962
597,99	42,475
598,19	44,117
598,38	44,172
598,57	43,787
598,76	47,816
598,95	46,649
599,15	45,251
599,34	44,081
599,53	45,432
599,72	44,443
599,92	46,707
600,11	43,458
600,30	45,757
600,49	45,586
600,69	43,130
600,88	45,696
601,07	44,867
601,26	44,496
601,45	45,236
601,65	46,165
601,84	44,684
602,03	44,899
602,22	44,939
602,42	45,904
602,61	43,142
602,80	43,985
602,99	45,619
603,18	43,548
603,38	44,702
603,57	44,962
603,76	43,392
603,95	44,870
604,14	44,554
604,34	46,374
604,53	43,848
604,72	44,590
604,91	44,735
605,10	45,812
605,29	46,883
605,49	43,836
605,68	43,885
605,87	46,180
606,06	44,514
606,25	43,726
606,45	45,193
606,64	45,852
606,83	43,576
607,02	44,020
607,21	44,241
607,40	43,938
607,60	42,488
607,79	40,583
607,98	41,741
608,17	40,197
608,36	41,000
608,55	41,715
608,75	41,741
608,94	40,749
609,13	38,142
609,32	37,623
609,51	38,438
609,70	36,446
609,89	38,061
610,09	35,630
610,28	39,410
610,47	37,061
610,66	36,302
610,85	35,253
611,04	37,200
611,23	36,453
611,43	34,956
611,62	36,579
611,81	36,267
612,00	37,908
612,19	35,268
612,38	36,560
612,57	39,644
612,77	38,629
612,96	36,716
613,15	37,234
613,34	41,141
613,53	40,070
613,72	41,630
613,91	38,996
614,10	39,967
614,29	42,000
614,49	39,759
614,68	40,908
614,87	41,755
615,06	44,491
615,25	40,401
615,44	41,317
615,63	42,735
615,82	42,737
616,01	42,801
616,21	40,959
616,40	44,620
616,59	43,621
616,78	45,069
616,97	44,244
617,16	43,165
617,35	46,142
617,54	44,136
617,73	45,590
617,92	43,571
618,11	43,742
618,31	42,244
618,50	44,902
618,69	44,956
618,88	42,954
619,07	42,204
619,26	42,806
619,45	42,858
619,64	43,126
619,83	42,188
620,02	41,678
620,21	44,926
620,40	44,050
620,59	43,088
620,78	42,543
620,97	45,582
621,17	44,190
621,36	42,925
621,55	43,440
621,74	45,587
621,93	43,522
622,12	43,074
622,31	41,675
622,50	44,211
622,69	45,406
622,88	44,280
623,07	45,577
623,26	45,346
623,45	46,812
623,64	43,820
623,83	42,751
624,02	45,121
624,21	46,227
624,40	43,254
624,59	42,647
624,78	45,124
624,97	45,209
625,16	43,402
625,35	43,704
625,54	43,434
625,73	43,306
625,92	43,119
626,12	45,134
626,31	47,910
626,50	45,758
626,69	45,169
626,88	43,120
627,07	44,655
627,26	43,690
627,45	44,239
627,64	43,933
627,83	44,971
628,02	42,506
628,21	42,476
628,40	43,725
628,59	43,083
628,78	43,855
628,97	42,086
629,16	43,150
629,35	44,458
629,54	46,132
629,73	43,592
629,92	42,480
630,10	43,101
630,29	44,085
630,48	42,910
630,67	43,414
630,86	45,875
631,05	45,370
631,24	45,028
631,43	42,880
631,62	44,591
631,81	44,010
632,00	45,513
632,19	42,419
632,38	43,890
632,57	45,983
632,76	44,790
632,95	45,797
633,14	46,431
633,33	44,449
633,52	45,262
633,71	44,995
633,90	43,707
634,09	45,247
634,28	45,946
634,47	42,535
634,66	46,964
634,85	44,765
635,04	46,970
635,22	46,018
635,41	44,380
635,60	47,547
635,79	46,373
635,98	41,805
636,17	44,256
636,36	45,165
636,55	43,561
636,74	43,018
636,93	45,688
637,12	46,102
637,31	43,708
637,50	43,172
637,69	46,409
637,87	46,133
638,06	45,454
638,25	44,489
638,44	43,854
638,63	43,902
638,82	45,784
639,01	43,015
639,20	45,346
639,39	47,224
639,58	45,642
639,77	45,988
639,95	43,484
640,14	47,670
640,33	44,409
640,52	45,422
640,71	46,446
640,90	45,403
641,09	47,203
641,28	44,984
641,47	45,313
641,66	45,100
641,84	44,393
642,03	44,441
642,22	45,832
642,41	47,434
642,60	44,353
642,79	44,277
642,98	45,641
643,17	45,076
643,35	43,580
643,54	46,502
643,73	45,779
643,92	45,610
644,11	43,411
644,30	44,388
644,49	48,144
644,67	42,783
644,86	42,963
645,05	45,522
645,24	45,226
645,43	44,492
645,62	45,140
645,81	45,811
645,99	46,621
646,18	45,086
646,37	45,180
646,56	45,196
646,75	46,638
646,94	48,799
647,13	45,959
647,31	45,554
647,50	44,770
647,69	47,741
647,88	45,493
648,07	47,409
648,26	48,009
648,44	46,103
648,63	44,033
648,82	45,807
649,01	46,586
649,20	45,136
649,38	45,365
649,57	45,586
649,76	43,334
649,95	45,589
650,14	44,000
650,33	43,058
650,51	46,140
650,70	46,975
650,89	45,434
651,08	45,022
651,27	45,916
651,45	45,302
651,64	44,240
651,83	46,025
652,02	45,488
652,21	45,723
652,39	44,707
652,58	46,680
652,77	44,426
652,96	46,365
653,15	45,902
653,33	45,694
653,52	45,463
653,71	47,091
653,90	46,067
654,09	43,918
654,27	45,315
654,46	45,930
654,65	43,416
654,84	45,296
655,02	46,455
655,21	45,667
655,40	47,729
655,59	45,697
655,77	47,043
655,96	44,550
656,15	44,777
656,34	46,107
656,53	44,303
656,71	46,605
656,90	44,682
657,09	45,317
657,28	46,217
657,46	45,372
657,65	45,971
657,84	44,695
658,03	45,785
658,21	45,308
658,40	45,144
658,59	44,490
658,78	46,017
658,96	44,909
659,15	45,766
659,34	46,116
659,52	45,773
659,71	46,779
659,90	43,913
660,09	46,062
660,27	45,236
660,46	46,277
660,65	45,175
660,84	44,975
661,02	45,821
661,21	45,411
661,40	45,468
661,58	44,131
661,77	46,289
661,96	44,106
662,15	45,410
662,33	43,508
662,52	45,172
662,71	45,211
662,89	44,160
663,08	45,163
663,27	46,818
663,45	45,600
663,64	45,462
663,83	42,939
664,02	45,788
664,20	46,381
664,39	44,513
664,58	45,833
664,76	44,203
664,95	45,682
665,14	47,103
665,32	45,941
665,51	45,424
665,70	45,522
665,88	46,883
666,07	44,713
666,26	46,577
666,44	47,781
666,63	44,344
666,82	45,160
667,00	47,837
667,19	44,483
667,38	45,541
667,56	46,052
667,75	45,949
667,94	44,924
668,12	44,833
668,31	44,877
668,50	46,104
668,68	45,893
668,87	43,518
669,06	46,459
669,24	45,678
669,43	45,561
669,62	42,221
669,80	43,936
669,99	44,991
670,18	45,060
670,36	42,928
670,55	46,301
670,74	45,490
670,92	44,638
671,11	46,574
671,29	44,476
671,48	46,524
671,67	44,901
671,85	46,315
672,04	43,953
672,23	44,271
672,41	43,759
672,60	44,547
672,78	45,457
672,97	46,008
673,16	46,144
673,34	45,545
673,53	43,848
673,71	47,036
673,90	46,911
674,09	44,663
674,27	44,512
674,46	45,644
674,64	45,568
674,83	45,146
675,02	43,390
675,20	45,151
675,39	44,828
675,57	46,420
675,76	44,666
675,95	47,053
676,13	44,949
676,32	46,350
676,50	46,161
676,69	44,353
676,88	45,680
677,06	44,843
677,25	45,931
677,43	47,246
677,62	46,952
677,80	45,828
677,99	45,396
678,18	45,567
678,36	44,868
678,55	44,067
678,73	44,370
678,92	46,323
679,10	48,139
679,29	45,047
679,48	44,187
679,66	45,270
679,85	46,051
680,03	45,582
680,22	45,599
680,40	44,063
680,59	46,116
680,77	44,857
680,96	44,992
681,15	43,767
681,33	46,954
681,52	44,263
681,70	45,480
681,89	46,765
682,07	47,287
682,26	45,421
682,44	47,585
682,63	46,234
682,81	45,876
683,00	46,780
683,18	42,779
683,37	45,888
683,55	44,067
683,74	47,983
683,92	50,305
684,11	45,381
684,29	46,345
684,48	42,195
684,67	43,873
684,85	45,786
685,04	45,265
685,22	45,529
685,41	44,116
685,59	45,423
685,78	45,185
685,96	44,562
686,15	44,103
686,33	43,988
686,52	45,623
686,70	46,104
686,89	45,965
687,07	46,662
687,26	46,580
687,44	45,215
687,62	43,992
687,81	46,059
687,99	46,834
688,18	44,042
688,36	45,831
688,55	46,806
688,73	46,356
688,92	43,545
689,10	46,722
689,29	46,313
689,47	47,594
689,66	43,349
689,84	44,582
690,03	46,533
690,21	44,932
690,40	45,139
690,58	43,908
690,76	43,624
690,95	45,773
691,13	43,834
691,32	46,254
691,50	45,272
691,69	47,582
691,87	43,853
692,06	46,753
692,24	44,363
692,43	45,790
692,61	42,342
692,79	44,729
692,98	43,902
693,16	46,256
693,35	44,876
693,53	45,670
693,72	43,421
693,90	46,276
694,08	44,402
694,27	45,313
694,45	46,596
694,64	47,391
694,82	44,541
695,01	44,421
695,19	47,309
695,37	47,246
695,56	44,726
695,74	45,125
695,93	46,628
696,11	45,032
696,29	45,192
696,48	45,240
696,66	44,799
696,85	46,369
697,03	43,457
697,21	46,704
697,40	45,044
697,58	45,706
697,77	43,647
697,95	46,669
698,13	46,961
698,32	45,975
698,50	44,995
698,69	44,792
698,87	47,410
699,05	46,089
699,24	45,017
699,42	45,609
699,60	43,068
699,79	44,595
699,97	44,534
700,16	43,788
700,34	45,962
700,52	44,122
700,71	44,560
700,89	43,940
701,07	46,762
701,26	45,887
701,44	45,004
701,63	43,113
701,81	46,394
701,99	47,377
702,18	43,206
702,36	44,056
702,54	45,111
702,73	44,685
702,91	44,936
703,09	45,490
703,28	42,719
703,46	45,118
703,64	45,892
703,83	44,685
704,01	44,944
704,19	46,095
704,38	44,673
704,56	44,246
704,74	45,476
704,93	44,799
705,11	44,921
705,29	45,793
705,48	46,673
705,66	46,193
705,84	44,966
706,03	42,854
706,21	45,624
706,39	45,807
706,58	43,766
706,76	42,951
706,94	44,988
707,12	43,946
707,31	44,248
707,49	44,053
707,67	43,550
707,86	45,029
708,04	42,762
708,22	43,212
708,41	43,838
708,59	44,353
708,77	43,678
708,95	46,010
709,14	47,182
709,32	46,035
709,50	42,152
709,69	42,968
709,87	43,476
710,05	43,437
710,23	44,047
710,42	42,938
710,60	46,053
710,78	45,950
710,97	45,048
711,15	44,945
711,33	44,890
711,51	43,544
711,70	42,791
711,88	44,485
712,06	48,396
712,24	46,272
712,43	44,780
712,61	45,195
712,79	44,593
712,97	44,404
713,16	44,748
713,34	44,114
713,52	44,969
713,70	46,556
713,89	45,197
714,07	43,650
714,25	45,703
714,43	46,163
714,62	42,060
714,80	45,090
714,98	43,005
715,16	44,366
715,35	43,218
715,53	43,244
715,71	44,921
715,89	45,159
716,07	46,004
716,26	47,887
716,44	46,722
716,62	45,186
716,80	45,646
716,99	45,224
717,17	45,072
717,35	44,787
717,53	44,935
717,71	43,870
717,90	44,181
718,08	45,318
718,26	43,961
718,44	44,653
718,62	47,278
718,81	45,777
718,99	42,622
719,17	42,918
719,35	44,938
719,53	44,946
719,72	42,337
719,90	44,752
720,08	42,708
720,26	46,627
720,44	44,771
720,62	44,850
720,81	46,037
720,99	47,226
721,17	44,441
721,35	47,224
721,53	46,176
721,72	47,078
721,90	45,408
722,08	45,156
722,26	45,302
722,44	43,971
722,62	45,032
722,81	44,481
722,99	43,216
723,17	45,836
723,35	44,618
723,53	44,004
723,71	45,861
723,89	48,300
724,08	43,802
724,26	44,262
724,44	45,215
724,62	46,640
724,80	43,557
724,98	45,447
725,16	46,275
725,35	45,885
725,53	45,591
725,71	44,129
725,89	45,395
726,07	46,515
726,25	49,196
726,43	44,702
726,61	47,484
726,80	44,972
726,98	43,852
727,16	44,001
727,34	46,561
727,52	44,476
727,70	44,529
727,88	43,718
728,06	43,414
728,25	44,071
728,43	44,470
728,61	44,126
728,79	43,565
728,97	43,623
729,15	45,964
729,33	46,680
729,51	46,907
729,69	45,111
729,87	45,319
730,06	44,895
730,24	45,130
730,42	47,574
730,60	41,913
730,78	44,911
730,96	43,071
731,14	44,881
731,32	42,915
731,50	43,294
731,68	45,624
731,86	46,536
732,04	44,377
732,22	43,853
732,41	47,542
732,59	45,590
732,77	46,946
732,95	46,197
733,13	47,099
733,31	44,719
733,49	43,619
733,67	46,613
733,85	46,438
734,03	44,313
734,21	43,296
734,39	43,208
734,57	47,947
734,75	47,264
734,93	43,298
735,11	46,283
735,29	44,486
735,47	47,411
735,65	44,572
735,84	44,921
736,02	45,538
736,20	48,238
736,38	41,948
736,56	44,949
736,74	44,235
736,92	44,114
737,10	44,829
737,28	46,184
737,46	44,769
737,64	45,626
737,82	45,932
738,00	46,424
738,18	46,899
738,36	45,820
738,54	44,611
738,72	43,035
738,90	45,070
739,08	47,730
739,26	44,330
739,44	44,147
739,62	45,572
739,80	45,078
739,98	45,141
740,16	44,685
740,34	44,112
740,52	47,001
740,70	45,010
740,88	42,262
741,06	44,162
741,24	45,926
741,42	46,579
741,60	45,016
741,78	47,792
741,96	45,610
742,14	43,221
742,32	44,155
742,50	46,507
742,68	44,227
742,86	43,916
743,04	43,004
743,21	46,526
743,39	48,812
743,57	43,578
743,75	43,981
743,93	42,518
744,11	44,113
744,29	44,525
744,47	46,423
744,65	45,825
744,83	45,510
745,01	44,238
745,19	45,043
745,37	47,141
745,55	46,927
745,73	45,821
745,91	43,663
746,09	45,015
746,27	45,241
746,45	43,197
746,62	44,570
746,80	45,354
746,98	43,648
747,16	43,302
747,34	44,483
747,52	43,479
747,70	45,063
747,88	43,195
748,06	44,301
748,24	47,358
748,42	45,176
748,60	44,576
748,78	44,368
748,95	45,900
749,13	47,897
749,31	43,870
749,49	46,064
749,67	44,867
749,85	46,379
750,03	45,912
750,21	45,094
750,39	44,211
750,57	46,229
750,74	46,076
750,92	44,858
751,10	47,745
751,28	44,119
751,46	44,145
751,64	46,579
751,82	44,475
752,00	46,259
752,17	44,048
752,35	45,153
752,53	45,682
752,71	43,628
752,89	45,656
753,07	44,731
753,25	47,139
753,43	42,171
753,60	46,266
753,78	45,606
753,96	46,480
754,14	45,336
754,32	44,661
754,50	45,431
754,68	44,814
754,85	45,549
755,03	44,899
755,21	43,922
755,39	47,104
755,57	44,546
755,75	44,522
755,92	45,450
756,10	46,013
756,28	47,024
756,46	45,679
756,64	45,080
756,82	45,541
756,99	44,407
757,17	43,831
757,35	45,187
757,53	47,280
757,71	47,266
757,89	42,068
758,06	43,958
758,24	47,697
758,42	44,651
758,60	43,531
758,78	43,373
758,95	44,618
759,13	48,935
759,31	44,351
759,49	43,607
759,67	44,418
759,84	44,274
760,02	45,800
760,20	44,294
760,38	44,918
760,56	43,671
760,73	45,652
760,91	45,241
761,09	46,671
761,27	42,550
761,45	45,318
761,62	44,118
761,80	44,389
761,98	45,427
762,16	45,613
762,33	43,499
762,51	46,658
762,69	44,516
762,87	43,431
763,05	43,742
763,22	44,720
763,40	46,008
763,58	44,178
763,76	44,360
763,93	44,338
764,11	46,663
764,29	42,839
764,47	43,124
764,64	48,507
764,82	47,418
765,00	43,572
765,18	42,008
765,35	44,513
765,53	44,545
765,71	44,354
765,89	44,539
766,06	43,782
766,24	45,807
766,42	45,804
766,60	44,474
766,77	44,401
766,95	43,661
767,13	43,475
767,30	44,747
767,48	45,056
767,66	46,108
767,84	43,386
768,01	43,776
768,19	47,176
768,37	44,644
768,54	45,239
768,72	45,255
768,90	46,091
769,08	45,376
769,25	45,026
769,43	44,531
769,61	42,715
769,78	44,351
769,96	43,654
770,14	46,431
770,31	47,079
770,49	46,189
770,67	45,894
770,85	44,410
771,02	47,417
771,20	44,473
771,38	46,055
771,55	44,979
771,73	46,144
771,91	45,986
772,08	49,083
772,26	44,550
772,44	44,436
772,61	44,692
772,79	43,791
772,97	45,878
773,14	44,515
773,32	45,899
773,50	43,496
773,67	44,336
773,85	46,428
774,03	45,788
774,20	47,552
774,38	44,607
774,56	44,456
774,73	43,667
774,91	44,733
775,09	45,135
775,26	46,478
775,44	45,332
775,61	47,272
775,79	44,920
775,97	47,580
776,14	43,525
776,32	43,958
776,50	43,996
776,67	45,711
776,85	46,642
777,03	42,170
777,20	44,327
777,38	48,020
777,55	46,629
777,73	43,770
777,91	44,189
778,08	46,827
778,26	45,348
778,43	46,992
778,61	43,388
778,79	45,047
778,96	45,970
779,14	43,468
779,32	45,279
779,49	46,546
779,67	46,313
779,84	45,583
780,02	44,706
780,20	42,469
780,37	48,295
780,55	40,277
780,72	48,583
780,90	43,850
781,07	43,242
781,25	45,994
781,43	44,107
781,60	43,643
781,78	48,167
781,95	45,402
782,13	45,626
782,30	46,414
782,48	44,364
782,66	44,610
782,83	44,650
783,01	50,538
783,18	45,444
783,36	45,242
783,53	46,135
783,71	45,205
783,89	45,965
784,06	48,306
784,24	44,971
784,41	47,520
784,59	44,338
784,76	47,226
784,94	45,560
785,11	45,689
785,29	44,414
785,46	43,362
785,64	44,371
785,82	46,237
785,99	46,482
786,17	44,746
786,34	44,924
786,52	46,241
786,69	47,666
786,87	43,838
787,04	43,723
787,22	40,985
787,39	46,131
787,57	46,230
787,74	45,893
787,92	47,363
788,09	47,327
788,27	44,792
788,44	43,909
788,62	46,810
788,79	46,845
788,97	47,995
789,14	45,896
789,32	45,787
789,49	43,037
789,67	45,395
789,84	44,695
790,02	46,619
790,19	45,384
790,37	45,314
790,54	45,407
790,72	47,177
790,89	52,504
791,07	47,787
791,24	43,120
791,42	44,882
791,59	44,671
791,77	45,409
791,94	43,633
792,12	43,140
792,29	47,144
792,47	43,948
792,64	49,128
792,81	46,262
792,99	45,086
793,16	46,866
793,34	47,567
793,51	44,121
793,69	46,587
793,86	42,301
794,04	44,708
794,21	45,394
794,39	40,077
794,56	43,666
794,73	46,543
794,91	50,518
795,08	45,537
795,26	46,047
795,43	44,257
795,61	45,636
795,78	46,344
795,95	44,912
796,13	47,131
796,30	46,818
796,48	44,964
796,65	44,917
796,83	44,880
797,00	50,806
797,17	45,573
797,35	45,645
797,52	46,944
797,70	49,763
797,87	48,257
798,04	43,604
798,22	45,744
798,39	45,619
798,57	43,457
798,74	47,307
798,91	44,160
799,09	47,004
799,26	45,826
799,44	45,618
799,61	43,231
799,78	44,286
799,96	45,899
800,13	44,410
800,31	44,536
800,48	48,969
800,65	50,532
800,83	47,291
801,00	42,846
801,17	46,738
801,35	49,402
801,52	46,937
801,70	44,762
801,87	46,789
802,04	49,831
802,22	43,332
802,39	44,725
802,56	52,987
802,74	50,285
802,91	45,692
803,08	44,987
803,26	47,018
803,43	50,180
803,61	43,701
803,78	44,693
803,95	47,177
804,13	48,480
804,30	45,358
804,47	47,138
804,65	48,833
804,82	47,586
804,99	43,749
805,17	46,896
805,34	50,237
805,51	52,392
805,69	47,707
805,86	46,561
806,03	50,248
806,21	47,297
806,38	47,689
806,55	50,103
806,72	50,706
806,90	48,609
807,07	48,255
807,24	46,117
807,42	47,431
807,59	44,542
807,76	42,723
807,94	45,582
808,11	48,236
808,28	45,515
808,45	45,581
808,63	49,174
808,80	51,017
808,97	46,665
809,15	44,015
809,32	50,777
809,49	47,260
809,67	47,164
809,84	46,026
810,01	47,019
810,18	53,141
810,36	52,083
810,53	47,921
810,70	47,291
810,87	48,987
811,05	44,916
811,22	47,851
811,39	47,641
811,57	49,842
811,74	48,036
811,91	45,146
812,08	45,232
812,26	49,793
812,43	47,093
812,60	50,561
812,77	49,841
812,95	51,246
813,12	46,751
813,29	41,998
813,46	47,214
813,64	47,950
813,81	48,008
813,98	46,776
814,15	51,040
814,32	47,665
814,50	47,306
814,67	49,411
814,84	48,453
815,01	47,154
815,19	43,203
815,36	44,843
815,53	48,622
815,70	48,907
815,87	46,889
816,05	40,982
816,22	47,042
816,39	49,713
816,56	50,723
816,74	46,890
816,91	48,455
817,08	56,459
817,25	48,310
817,42	46,014
817,60	46,308
817,77	47,122
817,94	51,067
818,11	48,491
818,28	45,914
818,45	49,993
818,63	47,887
818,80	45,658
818,97	47,367
819,14	52,571
819,31	52,123
819,49	49,798
819,66	42,145
819,83	50,541
820,00	52,875
820,17	53,175
820,34	45,927
820,52	52,782
820,69	53,325
820,86	45,053
821,03	45,731
821,20	50,614
821,37	50,824
821,55	43,409
821,72	48,244
821,89	53,103
822,06	50,582
822,23	49,380
822,40	47,548
822,57	50,686
822,75	52,733
822,92	40,194
823,09	45,926
823,26	49,551
823,43	53,208
823,60	44,257
823,77	50,473
823,94	50,775
824,12	57,215
824,29	46,664
824,46	43,494
824,63	56,524
824,80	55,720
824,97	46,818
825,14	51,838
825,31	52,270
825,49	47,485
825,66	44,624
825,83	41,980
826,00	48,809
826,17	57,761
826,34	44,478
826,51	43,711
826,68	49,695
826,85	47,867
827,02	48,452
827,20	45,742
827,37	50,609
827,54	51,728
827,71	47,262
827,88	47,905
828,05	49,353
828,22	50,759
828,39	49,653
828,56	54,252
828,73	49,006
828,90	51,390
829,07	42,362
829,25	51,209
829,42	50,352
829,59	49,145
829,76	43,653
829,93	42,591
830,10	49,303
830,27	45,691
830,44	50,186
830,61	44,475
830,78	48,987
830,95	49,286
831,12	44,586
831,29	47,358
831,46	50,206
831,63	48,011
831,80	46,715
831,97	46,857
832,14	53,262
832,31	59,757
832,48	45,519
832,65	54,979
832,83	47,863
833,00	49,177
833,17	48,794
833,34	51,992
833,51	58,183
833,68	60,156
833,85	52,612
834,02	42,832
834,19	52,079
834,36	56,156
834,53	40,890
834,70	47,650
834,87	57,884
835,04	47,730
835,21	50,751
835,38	42,445
835,55	49,786
835,72	52,846
835,89	49,868
836,06	47,488
836,23	60,642
836,40	40,075
836,57	48,941
836,74	51,084
836,91	53,746
837,08	58,050
837,25	51,985
837,42	39,461
837,59	47,200
837,76	52,885
837,93	52,479
838,09	41,982
838,26	65,893
838,43	64,204
838,60	50,634
838,77	47,711
838,94	58,607
839,11	51,943
839,28	47,780
839,45	48,015
839,62	54,151
839,79	57,537
839,96	52,742
840,13	46,917
840,30	49,836
840,47	43,689
840,64	39,885
840,81	55,686
840,98	51,793
841,15	62,267
841,32	43,397
841,48	49,172
841,65	49,630
841,82	48,457
841,99	51,884
842,16	48,315
842,33	59,875
842,50	65,322
842,67	48,254
842,84	44,659
843,01	47,093
843,18	52,690
843,35	52,127
843,52	41,980
843,68	50,099
843,85	55,798
844,02	45,745
844,19	43,906
844,36	59,032
844,53	62,279
844,70	51,270
844,87	56,773
845,04	53,603
845,21	38,340
845,37	52,625
845,54	45,334
845,71	45,469
845,88	74,402
846,05	48,884
846,22	40,348
846,39	47,979
846,56	67,248
846,72	38,772
846,89	48,968
847,06	67,549
847,23	61,261
847,40	48,392
847,57	45,501
847,74	52,625
847,90	67,569
848,07	45,080
848,24	54,118
848,41	49,410
848,58	61,653
848,75	49,451
848,92	45,047
849,08	50,122
849,25	49,116
849,42	46,371
849,59	56,014
849,76	57,218
849,93	46,458
850,09	52,251
850,26	41,689
850,43	63,696
850,60	49,246
850,77	48,380
850,94	52,761
851,10	51,418
851,27	48,506
851,44	37,949
851,61	48,879
851,78	61,429
851,95	48,462
852,11	46,397
852,28	50,134
852,45	61,967
852,62	57,857
852,79	52,378
852,95	40,187
853,12	58,654
853,29	53,626
853,46	43,149
853,63	56,011
853,79	47,702
853,96	44,397
854,13	62,836
854,30	40,650
854,46	86,556
854,63	57,089
854,80	42,603
854,97	45,969
855,14	67,362
855,30	67,035
855,47	44,214
855,64	61,516
855,81	54,573
855,97	67,697
856,14	50,330
856,31	39,798
856,48	64,973
856,65	61,429
856,81	57,083
856,98	36,339
857,15	54,217
857,32	60,723
857,48	46,259
857,65	50,707
857,82	74,677
857,99	58,802
858,15	52,528
858,32	48,478
858,49	53,144
858,65	76,072
858,82	52,714
858,99	48,599
859,16	72,509
859,32	74,286
859,49	50,798
859,66	56,469
859,83	48,528
859,99	57,958
860,16	52,746
860,33	47,737
860,49	44,960
860,66	67,732
860,83	53,225
861,00	46,950
861,16	79,635
861,33	64,816
861,50	51,973
861,66	55,037
861,83	77,508
862,00	69,476
862,16	52,544
862,33	53,626
862,50	106,011
862,67	57,624
862,83	54,706
863,00	57,215
863,17	78,994
863,33	59,020
863,50	38,965
863,67	47,315
863,83	67,049
864,00	60,624
864,17	47,347
864,33	51,740
864,50	59,894
864,67	53,377
864,83	38,729
865,00	48,595
865,17	54,041
865,33	71,845
865,50	41,173
865,67	36,057
865,83	50,876
866,00	99,879
866,17	63,849
866,33	66,779
866,50	94,306
866,66	78,235
866,83	68,311
867,00	74,361
867,16	73,844
867,33	63,960
867,50	42,999
867,66	67,093
867,83	74,973
868,00	64,350
868,16	48,686
868,33	41,195
868,49	58,916
868,66	67,182
868,83	53,120
868,99	56,895
869,16	110,890
869,32	93,713
869,49	68,788
869,66	41,801
869,82	77,309
869,99	81,804
870,15	45,514
870,32	66,968
870,49	77,901
870,65	127,827
870,82	64,772
870,98	55,077
871,15	93,160
871,32	78,436
871,48	24,290
871,65	33,892
871,81	67,195
871,98	54,031
872,15	53,061
872,31	34,996
872,48	120,619
872,64	66,762
872,81	42,736
872,97	42,942
873,14	79,450
873,31	69,490
873,47	56,031
873,64	62,020
873,80	101,657
873,97	122,216
874,13	39,137
874,30	61,830
874,46	67,799
874,63	63,781
874,80	59,767
874,96	9,561
875,13	85,025
875,29	53,794
875,46	89,317
875,62	54,480
875,79	90,386
875,95	88,801
876,12	41,911
876,28	8,927
876,45	112,921
876,61	80,562
876,78	63,155
876,94	83,925
877,11	55,149
877,27	54,440
877,44	46,748
877,60	57,163
877,77	107,032
877,94	88,261
878,10	38,058
878,27	75,585
878,43	118,924
878,60	33,029
878,76	76,838
878,93	18,195
879,09	135,794
879,26	102,001
879,42	85,470
879,58	71,517
879,75	90,642
879,91	116,378
880,08	-34,090
880,24	36,626
880,41	102,521
880,57	71,063
880,74	36,767
880,90	84,284
881,07	60,786
881,23	133,207
881,40	70,755
881,56	79,992
881,73	111,078
881,89	75,860
882,06	13,924
882,22	178,179
882,38	134,882
882,55	149,509
882,71	53,742
882,88	48,987
883,04	210,629
883,21	148,155
883,37	83,622
883,54	39,224
883,70	230,725
883,86	108,330
884,03	88,555
884,19	47,376
884,36	80,128
884,52	193,424
884,69	106,271
884,85	55,519
885,01	208,086
885,18	115,850
885,34	126,256
885,51	56,973
885,67	79,484
>>>>> Data<<<<< Espectral Procesado Extremo
