Fichero De Datos De SpectraSuite
++++++++++++++++++++++++++++++++++++
Fecha: Wed Apr 22 12:06:45 CEST 2009
Usuario: evoflor
Presente Oscuro Del Espectro: Sí
La Referencia de Presente Del Espectro De: Sí
Muestreados de los componentes de Número de espectros: 1
Espectrómetros: USB4F02353
Tiempo de integración (usec): 500000 (USB4F02353)
Promedio de Espectros Hechos un: 5 (USB4F02353)
El Alisar Del Furgón: 0 (USB4F02353)
Párrafo de de Corregir del la del del de Eléctrica del obscuridad: Sí (USB4F02353)
Estrobo/Lámpara Permitido: No (USB4F02353)
Correct for Detector Non-linearity: No (USB4F02353)
Párrafo de de Corregir del la del del de Externa del luz: No (USB4F02353)
Procesado del espectro de Número de pixeles en: 3648
>>>>> Comienza Data<<<<< Espectral Procesado Del EL
177,79	257,645
178,00	257,645
178,22	257,645
178,44	1330,769
178,66	-46,684
178,88	159,935
179,09	-162,553
179,31	241,739
179,53	335,604
179,75	350,904
179,96	725,000
180,18	-200,615
180,40	279,299
180,62	79,841
180,83	-39,256
181,05	-1091,463
181,27	-115600,000
181,49	-143,696
181,70	191,923
181,92	806,091
182,14	540,663
182,36	11,281
182,58	-553,000
182,79	688,839
183,01	-27,453
183,23	143,472
183,45	-286,462
183,66	189,381
183,88	521,176
184,10	-2200,000
184,32	58,911
184,53	272,399
184,75	-353,309
184,97	34,014
185,18	31,391
185,40	-404,327
185,62	131,735
185,84	57,860
186,05	69,316
186,27	-140,321
186,49	2888,462
186,71	-46,582
186,92	139,782
187,14	-231,412
187,36	160,812
187,58	141,925
187,79	11,702
188,01	188,408
188,23	-149,432
188,45	-22,347
188,66	62,054
188,88	-2625,455
189,10	-1156,000
189,31	-34,471
189,53	95,985
189,75	399,773
189,97	223,077
190,18	314,592
190,40	595,294
190,62	-103,023
190,83	-291,440
191,05	153,736
191,27	230,000
191,49	390,842
191,70	-330,769
191,92	-583,051
192,14	-85,080
192,35	705,305
192,57	294,286
192,79	-47,323
193,01	207,417
193,22	38,484
193,44	-103,584
193,66	145,794
193,87	135,760
194,09	-8,270
194,31	190,059
194,53	437,063
194,74	9,355
194,96	132,864
195,18	108,159
195,39	-521,108
195,61	-47,431
195,83	-237,609
196,04	90,746
196,26	-458,794
196,48	38,778
196,70	269,185
196,91	16,038
197,13	94,430
197,35	-111,636
197,56	452,632
197,78	1339,552
198,00	556,643
198,21	224,757
198,43	-771,512
198,65	210,155
198,86	364,029
199,08	7,213
199,30	203,036
199,51	-303,257
199,73	280,456
199,95	272,772
200,16	790,769
200,38	80,451
200,60	202,140
200,81	284,154
201,03	76,902
201,25	-2533,000
201,46	121,561
201,68	155,608
201,90	3281,818
202,11	-300,382
202,33	150,987
202,55	1028,750
202,76	-139,474
202,98	296,167
203,20	-136,058
203,41	-144,211
203,63	74,298
203,85	-133600,000
204,06	19,722
204,28	-59,518
204,50	140,878
204,71	278,975
204,93	-940,000
205,15	177,410
205,36	-196,941
205,58	297,889
205,80	28,265
206,01	53,820
206,23	150,890
206,45	226,462
206,66	158,979
206,88	31,092
207,10	168,636
207,31	401,060
207,53	-106,857
207,75	34,928
207,96	708,209
208,18	-171,160
208,39	48,968
208,61	3765,714
208,83	-237,031
209,04	261,028
209,26	-117,972
209,48	233,400
209,69	147,258
209,91	427,027
210,13	97,702
210,34	72,881
210,56	234,388
210,77	-881,890
210,99	104,071
211,21	7541,176
211,42	-105,693
211,64	-25,843
211,86	274,632
212,07	255,491
212,29	203,860
212,50	165,207
212,72	233,462
212,94	128,809
213,15	127,986
213,37	135,393
213,58	-82,705
213,80	-3775,000
214,02	11829,412
214,23	268,431
214,45	376,066
214,67	-1706,098
214,88	-451,342
215,10	-260,563
215,31	-85,590
215,53	15,227
215,75	229,217
215,96	1931,056
216,18	132,394
216,39	123,227
216,61	354,585
216,83	323,214
217,04	1946,067
217,26	64,516
217,47	165,200
217,69	269,744
217,91	26,804
218,12	-14800,000
218,34	102,638
218,55	387,798
218,77	97,713
218,99	148,297
219,20	-159,358
219,42	235,213
219,63	50,959
219,85	-102,913
220,06	25,769
220,28	209,048
220,50	25,537
220,71	89,340
220,93	2962,264
221,14	-2407,000
221,36	-141,874
221,58	5,818
221,79	70,702
222,01	1058,621
222,22	677,632
222,44	-278,652
222,65	181,210
222,87	393,007
223,09	139,503
223,30	127,802
223,52	223,415
223,73	116,554
223,95	88,028
224,16	264,330
224,38	259,005
224,60	90,591
224,81	21,810
225,03	122,357
225,24	133,675
225,46	42,525
225,67	-38,880
225,89	5,236
226,10	443,072
226,32	255,200
226,54	-13,655
226,75	-40,826
226,97	103,541
227,18	109,977
227,40	113,497
227,61	-25,737
227,83	42,481
228,04	70,539
228,26	53,876
228,47	45,030
228,69	175,695
228,91	103,178
229,12	21,593
229,34	49,543
229,55	57,949
229,77	23,080
229,98	32,272
230,20	53,163
230,41	58,637
230,63	57,109
230,84	48,706
231,06	32,723
231,27	17,082
231,49	32,663
231,71	42,629
231,92	34,233
232,14	23,749
232,35	73,002
232,57	39,962
232,78	50,597
233,00	64,807
233,21	77,051
233,43	10,186
233,64	16,325
233,86	39,339
234,07	21,807
234,29	15,397
234,50	5,479
234,72	43,052
234,93	4,199
235,15	36,139
235,36	27,893
235,58	43,149
235,79	43,080
236,01	25,872
236,22	-2,645
236,44	40,761
236,65	34,341
236,87	32,065
237,08	6,779
237,30	-16,031
237,51	31,555
237,73	-0,349
237,94	17,685
238,16	15,052
238,37	7,500
238,59	18,208
238,80	25,188
239,02	1,810
239,23	7,963
239,45	-5,441
239,66	21,836
239,88	35,979
240,09	21,668
240,31	6,879
240,52	12,688
240,74	15,077
240,95	19,714
241,17	1,250
241,38	7,180
241,60	18,355
241,81	23,947
242,03	-0,978
242,24	5,270
242,46	19,068
242,67	5,216
242,89	8,228
243,10	22,385
243,32	16,342
243,53	24,404
243,75	10,540
243,96	5,160
244,18	10,222
244,39	16,615
244,60	10,046
244,82	9,731
245,03	19,935
245,25	8,757
245,46	24,194
245,68	8,012
245,89	21,769
246,11	12,321
246,32	11,959
246,54	8,368
246,75	10,678
246,97	18,331
247,18	15,212
247,39	5,903
247,61	12,648
247,82	7,175
248,04	8,942
248,25	9,552
248,47	16,732
248,68	13,023
248,90	5,434
249,11	8,524
249,33	18,577
249,54	12,581
249,75	17,249
249,97	0,980
250,18	13,699
250,40	18,571
250,61	1,853
250,83	4,765
251,04	6,942
251,25	13,929
251,47	7,216
251,68	8,779
251,90	10,900
252,11	19,640
252,33	8,452
252,54	10,784
252,76	7,625
252,97	1,926
253,18	1,334
253,40	6,217
253,61	3,774
253,83	11,344
254,04	13,300
254,25	8,523
254,47	7,902
254,68	8,802
254,90	9,208
255,11	11,857
255,33	10,614
255,54	12,175
255,75	8,387
255,97	6,264
256,18	4,599
256,40	14,195
256,61	7,316
256,82	4,879
257,04	12,358
257,25	4,530
257,47	5,451
257,68	7,588
257,89	16,043
258,11	10,868
258,32	6,332
258,54	9,571
258,75	14,720
258,96	13,723
259,18	8,529
259,39	6,677
259,61	8,662
259,82	10,486
260,03	7,668
260,25	10,662
260,46	7,115
260,68	5,148
260,89	3,458
261,10	7,265
261,32	7,276
261,53	10,244
261,75	9,047
261,96	1,807
262,17	12,212
262,39	16,782
262,60	4,453
262,81	5,583
263,03	12,921
263,24	9,505
263,46	2,601
263,67	4,531
263,88	8,723
264,10	9,687
264,31	5,079
264,52	8,836
264,74	12,809
264,95	4,076
265,17	8,631
265,38	7,811
265,59	9,948
265,81	6,886
266,02	2,009
266,23	5,694
266,45	17,128
266,66	12,909
266,87	10,327
267,09	10,360
267,30	13,664
267,52	12,409
267,73	4,856
267,94	5,147
268,16	9,420
268,37	7,013
268,58	9,442
268,80	5,695
269,01	5,756
269,22	9,856
269,44	8,817
269,65	8,217
269,86	6,899
270,08	7,136
270,29	9,518
270,50	7,271
270,72	11,525
270,93	7,465
271,14	5,641
271,36	6,656
271,57	10,688
271,78	8,429
272,00	9,449
272,21	10,267
272,42	7,678
272,64	8,371
272,85	4,415
273,06	4,403
273,28	8,271
273,49	7,731
273,70	9,719
273,92	9,998
274,13	9,626
274,34	6,123
274,56	9,589
274,77	4,608
274,98	9,376
275,20	8,109
275,41	9,197
275,62	3,804
275,84	7,630
276,05	15,019
276,26	5,658
276,47	1,961
276,69	7,722
276,90	8,070
277,11	6,242
277,33	7,820
277,54	7,882
277,75	8,226
277,97	8,729
278,18	4,736
278,39	9,081
278,61	5,009
278,82	10,244
279,03	10,783
279,24	9,956
279,46	6,631
279,67	9,431
279,88	9,369
280,10	9,629
280,31	3,188
280,52	6,715
280,73	7,068
280,95	9,030
281,16	9,163
281,37	6,209
281,59	11,876
281,80	11,849
282,01	6,144
282,22	6,432
282,44	2,672
282,65	12,518
282,86	10,060
283,08	9,019
283,29	7,270
283,50	5,953
283,71	8,938
283,93	7,606
284,14	11,150
284,35	7,452
284,56	10,092
284,78	3,714
284,99	8,795
285,20	10,949
285,42	6,942
285,63	6,512
285,84	1,860
286,05	3,269
286,27	8,539
286,48	4,416
286,69	7,964
286,90	7,857
287,12	5,948
287,33	4,059
287,54	6,751
287,75	7,953
287,97	7,170
288,18	5,692
288,39	6,960
288,60	7,743
288,82	6,328
289,03	4,786
289,24	6,000
289,45	10,446
289,67	5,658
289,88	3,392
290,09	8,771
290,30	7,082
290,52	6,838
290,73	4,427
290,94	2,898
291,15	5,560
291,37	6,686
291,58	4,049
291,79	5,830
292,00	7,046
292,21	8,996
292,43	9,010
292,64	4,548
292,85	5,663
293,06	10,697
293,28	5,269
293,49	5,264
293,70	11,893
293,91	3,889
294,12	7,346
294,34	7,692
294,55	6,594
294,76	4,908
294,97	8,469
295,19	2,213
295,40	9,890
295,61	6,702
295,82	3,723
296,03	5,675
296,25	6,290
296,46	3,539
296,67	2,783
296,88	2,568
297,09	8,414
297,31	7,657
297,52	6,449
297,73	3,840
297,94	7,641
298,15	7,317
298,37	6,421
298,58	7,272
298,79	9,187
299,00	4,322
299,21	6,216
299,43	4,266
299,64	10,947
299,85	7,922
300,06	4,327
300,27	5,706
300,49	10,892
300,70	8,140
300,91	7,511
301,12	3,988
301,33	9,804
301,54	6,042
301,76	5,600
301,97	6,009
302,18	4,738
302,39	11,361
302,60	14,563
302,82	6,322
303,03	11,044
303,24	5,411
303,45	7,775
303,66	5,649
303,87	5,896
304,09	9,721
304,30	5,041
304,51	7,670
304,72	4,192
304,93	9,048
305,14	5,230
305,36	4,061
305,57	4,500
305,78	7,215
305,99	4,476
306,20	6,548
306,41	3,770
306,62	4,713
306,84	6,076
307,05	4,490
307,26	8,486
307,47	10,225
307,68	7,445
307,89	6,800
308,11	6,649
308,32	3,684
308,53	7,716
308,74	3,507
308,95	7,392
309,16	6,594
309,37	7,892
309,59	2,590
309,80	7,384
310,01	7,609
310,22	7,552
310,43	3,804
310,64	6,528
310,85	8,332
311,06	5,253
311,28	6,250
311,49	5,821
311,70	12,148
311,91	4,243
312,12	6,526
312,33	7,348
312,54	8,505
312,75	6,335
312,97	5,255
313,18	6,160
313,39	4,928
313,60	4,616
313,81	6,531
314,02	6,249
314,23	9,658
314,44	4,661
314,65	5,933
314,87	5,026
315,08	5,849
315,29	9,073
315,50	8,095
315,71	8,382
315,92	11,084
316,13	6,496
316,34	5,467
316,55	8,491
316,77	1,853
316,98	5,280
317,19	6,536
317,40	6,227
317,61	11,627
317,82	6,193
318,03	5,420
318,24	7,627
318,45	9,113
318,66	7,010
318,87	3,676
319,09	7,883
319,30	6,809
319,51	7,531
319,72	7,366
319,93	6,844
320,14	9,396
320,35	8,368
320,56	5,622
320,77	7,420
320,98	11,434
321,19	5,133
321,40	7,075
321,62	8,358
321,83	5,540
322,04	6,638
322,25	7,368
322,46	8,412
322,67	8,797
322,88	4,961
323,09	6,651
323,30	9,038
323,51	9,338
323,72	7,423
323,93	6,464
324,14	8,442
324,35	2,336
324,56	2,792
324,77	6,079
324,99	4,811
325,20	3,377
325,41	8,506
325,62	7,342
325,83	5,952
326,04	6,075
326,25	6,328
326,46	5,932
326,67	5,777
326,88	6,000
327,09	3,628
327,30	3,744
327,51	6,870
327,72	8,636
327,93	9,432
328,14	4,411
328,35	7,419
328,56	5,389
328,77	7,046
328,98	7,690
329,19	6,293
329,40	9,399
329,61	8,078
329,82	2,386
330,04	8,394
330,25	2,745
330,46	6,932
330,67	4,514
330,88	6,534
331,09	5,863
331,30	7,174
331,51	6,417
331,72	10,958
331,93	7,030
332,14	2,814
332,35	8,557
332,56	7,199
332,77	9,452
332,98	4,188
333,19	1,983
333,40	8,103
333,61	6,773
333,82	9,932
334,03	7,725
334,24	10,012
334,45	7,814
334,66	8,449
334,87	7,064
335,08	4,013
335,29	6,824
335,50	5,099
335,71	5,465
335,92	8,848
336,13	11,271
336,34	2,723
336,55	6,984
336,76	6,725
336,97	4,855
337,18	3,545
337,39	4,871
337,60	6,323
337,81	6,545
338,02	6,940
338,23	5,968
338,44	6,314
338,65	5,200
338,86	6,418
339,07	6,134
339,28	5,538
339,49	5,604
339,70	4,853
339,91	6,712
340,11	7,426
340,32	6,037
340,53	2,477
340,74	4,664
340,95	4,357
341,16	8,368
341,37	6,587
341,58	2,310
341,79	6,027
342,00	6,120
342,21	4,313
342,42	5,563
342,63	6,606
342,84	3,126
343,05	8,418
343,26	8,363
343,47	6,732
343,68	7,176
343,89	5,577
344,10	6,046
344,31	7,646
344,52	5,974
344,73	6,138
344,94	3,369
345,14	5,940
345,35	11,628
345,56	5,924
345,77	5,372
345,98	8,051
346,19	10,096
346,40	4,825
346,61	5,139
346,82	6,293
347,03	4,855
347,24	6,911
347,45	3,541
347,66	11,242
347,87	3,645
348,08	8,165
348,28	1,039
348,49	5,187
348,70	10,184
348,91	6,537
349,12	4,006
349,33	17,679
349,54	6,497
349,75	9,403
349,96	4,955
350,17	5,702
350,38	4,427
350,59	8,472
350,80	5,926
351,00	11,764
351,21	12,031
351,42	4,928
351,63	5,055
351,84	7,764
352,05	9,382
352,26	5,560
352,47	4,451
352,68	7,504
352,89	10,837
353,09	8,514
353,30	4,437
353,51	5,616
353,72	9,786
353,93	9,394
354,14	0,507
354,35	5,332
354,56	10,401
354,77	5,543
354,98	3,422
355,18	6,243
355,39	10,668
355,60	5,469
355,81	5,939
356,02	5,248
356,23	6,734
356,44	7,660
356,65	7,908
356,85	11,680
357,06	8,471
357,27	8,089
357,48	2,112
357,69	8,796
357,90	8,752
358,11	3,379
358,32	6,935
358,52	12,018
358,73	9,585
358,94	6,118
359,15	5,248
359,36	8,648
359,57	6,415
359,78	7,074
359,98	2,865
360,19	1,670
360,40	8,562
360,61	8,320
360,82	1,727
361,03	12,044
361,24	9,123
361,44	3,674
361,65	8,521
361,86	5,633
362,07	7,453
362,28	6,325
362,49	1,869
362,70	6,234
362,90	8,131
363,11	3,454
363,32	5,099
363,53	7,521
363,74	9,604
363,95	6,280
364,15	6,790
364,36	10,154
364,57	6,356
364,78	6,343
364,99	3,969
365,20	6,739
365,40	8,404
365,61	5,479
365,82	9,954
366,03	7,738
366,24	7,098
366,45	4,829
366,65	5,425
366,86	4,156
367,07	5,342
367,28	4,453
367,49	6,872
367,69	8,754
367,90	7,835
368,11	6,286
368,32	6,339
368,53	6,936
368,73	8,955
368,94	1,484
369,15	7,666
369,36	8,457
369,57	4,573
369,78	5,915
369,98	5,770
370,19	9,506
370,40	4,212
370,61	6,447
370,82	3,935
371,02	8,094
371,23	11,800
371,44	5,286
371,65	6,820
371,85	8,045
372,06	5,608
372,27	6,295
372,48	2,114
372,69	7,334
372,89	6,336
373,10	7,012
373,31	3,995
373,52	11,034
373,73	9,491
373,93	6,367
374,14	9,566
374,35	11,369
374,56	8,380
374,76	6,888
374,97	5,648
375,18	7,525
375,39	5,367
375,60	9,964
375,80	6,171
376,01	3,772
376,22	9,052
376,43	5,375
376,63	6,340
376,84	6,954
377,05	4,906
377,26	3,340
377,46	3,542
377,67	5,916
377,88	8,623
378,09	8,971
378,29	2,844
378,50	7,635
378,71	9,689
378,92	3,695
379,12	3,891
379,33	4,629
379,54	7,206
379,75	6,413
379,95	5,326
380,16	7,179
380,37	10,192
380,58	5,977
380,78	9,419
380,99	1,474
381,20	6,297
381,41	6,183
381,61	7,827
381,82	6,979
382,03	7,305
382,24	6,615
382,44	10,151
382,65	6,997
382,86	3,793
383,06	3,396
383,27	7,038
383,48	7,819
383,69	7,196
383,89	7,953
384,10	8,376
384,31	6,429
384,51	10,160
384,72	8,462
384,93	7,545
385,14	7,907
385,34	8,933
385,55	4,008
385,76	3,220
385,96	11,425
386,17	8,431
386,38	6,857
386,59	9,100
386,79	8,313
387,00	11,311
387,21	11,264
387,41	8,526
387,62	5,461
387,83	14,042
388,03	11,812
388,24	4,445
388,45	8,363
388,66	12,188
388,86	10,015
389,07	5,430
389,28	14,078
389,48	9,433
389,69	8,544
389,90	4,735
390,10	10,295
390,31	10,517
390,52	5,724
390,72	7,290
390,93	13,406
391,14	7,867
391,34	8,791
391,55	15,137
391,76	11,629
391,96	9,674
392,17	12,706
392,38	10,818
392,58	9,808
392,79	8,772
393,00	9,094
393,20	9,579
393,41	10,936
393,62	15,082
393,82	12,860
394,03	7,358
394,24	13,647
394,44	13,704
394,65	14,742
394,86	9,425
395,06	20,163
395,27	14,325
395,48	10,875
395,68	12,900
395,89	15,257
396,10	12,365
396,30	11,509
396,51	9,128
396,72	11,712
396,92	10,812
397,13	12,125
397,34	8,076
397,54	17,136
397,75	14,176
397,95	10,543
398,16	13,682
398,37	14,681
398,57	11,213
398,78	17,475
398,99	15,743
399,19	16,567
399,40	18,793
399,60	12,353
399,81	15,007
400,02	16,289
400,22	16,677
400,43	13,793
400,64	14,862
400,84	13,257
401,05	16,568
401,25	18,045
401,46	18,124
401,67	18,089
401,87	14,652
402,08	15,120
402,29	15,854
402,49	23,514
402,70	18,504
402,90	15,248
403,11	15,658
403,32	20,557
403,52	15,606
403,73	19,659
403,93	21,349
404,14	24,570
404,35	21,112
404,55	18,535
404,76	18,487
404,96	23,246
405,17	22,132
405,38	25,992
405,58	21,525
405,79	23,105
405,99	23,608
406,20	19,995
406,40	21,876
406,61	25,016
406,82	17,519
407,02	24,818
407,23	23,104
407,43	20,473
407,64	21,037
407,85	21,718
408,05	21,478
408,26	30,879
408,46	27,569
408,67	20,454
408,87	21,542
409,08	24,427
409,29	29,735
409,49	26,005
409,70	25,024
409,90	31,469
410,11	25,719
410,31	29,009
410,52	22,897
410,72	26,650
410,93	31,223
411,14	25,163
411,34	24,327
411,55	31,524
411,75	29,220
411,96	28,711
412,16	28,100
412,37	28,768
412,57	29,239
412,78	30,393
412,99	27,230
413,19	28,053
413,40	28,902
413,60	25,412
413,81	26,046
414,01	33,045
414,22	30,554
414,42	28,160
414,63	27,236
414,83	33,444
415,04	33,800
415,24	28,668
415,45	27,134
415,65	32,043
415,86	29,749
416,07	30,096
416,27	32,686
416,48	34,406
416,68	33,267
416,89	28,976
417,09	32,647
417,30	37,698
417,50	35,845
417,71	35,711
417,91	31,849
418,12	32,434
418,32	30,188
418,53	33,372
418,73	33,643
418,94	32,103
419,14	33,361
419,35	30,003
419,55	31,969
419,76	35,359
419,96	33,811
420,17	31,970
420,37	29,545
420,58	36,282
420,78	37,959
420,99	33,966
421,19	36,647
421,40	35,861
421,60	39,730
421,81	31,302
422,01	34,791
422,22	36,433
422,42	40,003
422,63	38,591
422,83	35,407
423,04	39,603
423,24	43,025
423,45	36,068
423,65	38,202
423,86	40,483
424,06	38,661
424,27	37,192
424,47	35,887
424,67	36,327
424,88	35,610
425,08	40,363
425,29	40,253
425,49	37,159
425,70	33,442
425,90	37,931
426,11	36,951
426,31	34,216
426,52	40,017
426,72	37,897
426,93	39,945
427,13	42,909
427,33	36,888
427,54	35,414
427,74	42,995
427,95	45,881
428,15	37,216
428,36	37,294
428,56	34,356
428,77	41,898
428,97	39,287
429,18	39,746
429,38	35,105
429,58	42,938
429,79	42,903
429,99	36,864
430,20	34,720
430,40	41,532
430,61	41,697
430,81	35,174
431,01	41,371
431,22	39,549
431,42	42,068
431,63	34,417
431,83	36,621
432,04	38,427
432,24	45,418
432,44	38,052
432,65	36,229
432,85	37,312
433,06	38,724
433,26	38,742
433,47	38,658
433,67	38,361
433,87	38,879
434,08	34,026
434,28	36,844
434,49	39,802
434,69	40,029
434,89	33,572
435,10	36,933
435,30	38,238
435,51	33,456
435,71	36,137
435,91	36,570
436,12	38,707
436,32	39,220
436,53	39,361
436,73	36,320
436,93	44,370
437,14	43,203
437,34	44,793
437,55	38,389
437,75	41,822
437,95	44,620
438,16	41,542
438,36	38,096
438,57	40,397
438,77	36,295
438,97	40,613
439,18	43,843
439,38	40,506
439,58	40,062
439,79	45,214
439,99	37,916
440,20	43,812
440,40	41,997
440,60	38,654
440,81	40,518
441,01	41,549
441,21	43,899
441,42	42,632
441,62	44,541
441,83	41,531
442,03	44,370
442,23	44,935
442,44	40,987
442,64	45,870
442,84	39,878
443,05	41,625
443,25	38,172
443,45	44,922
443,66	41,337
443,86	39,025
444,06	42,797
444,27	39,698
444,47	42,197
444,67	40,775
444,88	44,058
445,08	44,527
445,28	41,076
445,49	38,747
445,69	38,656
445,90	38,869
446,10	42,974
446,30	42,665
446,51	44,308
446,71	43,856
446,91	46,177
447,12	43,312
447,32	41,005
447,52	44,281
447,72	45,496
447,93	44,754
448,13	42,003
448,33	49,341
448,54	45,530
448,74	39,525
448,94	43,555
449,15	48,952
449,35	40,755
449,55	41,355
449,76	46,995
449,96	43,565
450,16	42,243
450,37	41,406
450,57	43,030
450,77	39,471
450,98	44,792
451,18	42,763
451,38	43,066
451,58	41,359
451,79	45,953
451,99	41,859
452,19	44,412
452,40	45,985
452,60	37,874
452,80	41,056
453,00	45,402
453,21	43,562
453,41	47,216
453,61	42,082
453,82	44,853
454,02	37,919
454,22	51,073
454,42	46,083
454,63	42,516
454,83	42,585
455,03	44,849
455,24	43,417
455,44	43,401
455,64	40,089
455,84	43,116
456,05	43,658
456,25	41,898
456,45	45,017
456,65	47,495
456,86	44,772
457,06	41,195
457,26	50,387
457,47	47,082
457,67	45,488
457,87	43,111
458,07	44,502
458,28	46,106
458,48	45,171
458,68	39,415
458,88	46,725
459,09	43,665
459,29	48,245
459,49	45,009
459,69	46,010
459,90	44,527
460,10	43,008
460,30	45,776
460,50	42,686
460,71	44,377
460,91	40,997
461,11	43,169
461,31	40,711
461,52	48,157
461,72	42,129
461,92	46,028
462,12	49,746
462,32	44,821
462,53	40,824
462,73	45,004
462,93	48,880
463,13	47,815
463,34	41,370
463,54	40,629
463,74	44,757
463,94	44,975
464,14	44,109
464,35	40,435
464,55	47,758
464,75	48,464
464,95	44,132
465,16	38,609
465,36	48,140
465,56	38,532
465,76	41,767
465,96	43,518
466,17	43,165
466,37	41,610
466,57	46,104
466,77	43,832
466,97	43,896
467,18	45,393
467,38	40,907
467,58	42,406
467,78	47,100
467,98	47,260
468,19	45,543
468,39	45,721
468,59	50,512
468,79	47,239
468,99	41,055
469,19	41,617
469,40	44,886
469,60	38,294
469,80	37,765
470,00	46,558
470,20	45,824
470,41	42,206
470,61	47,044
470,81	44,360
471,01	43,970
471,21	42,538
471,41	42,849
471,62	42,759
471,82	41,972
472,02	43,082
472,22	45,058
472,42	42,198
472,62	45,389
472,83	41,652
473,03	46,780
473,23	41,310
473,43	43,125
473,63	47,445
473,83	45,086
474,03	41,494
474,24	49,580
474,44	43,253
474,64	41,844
474,84	42,912
475,04	47,381
475,24	45,133
475,45	44,986
475,65	43,852
475,85	45,243
476,05	36,951
476,25	43,897
476,45	41,697
476,65	49,872
476,85	44,504
477,06	42,176
477,26	44,682
477,46	45,470
477,66	45,706
477,86	44,214
478,06	41,325
478,26	49,926
478,46	41,829
478,67	42,641
478,87	44,737
479,07	44,621
479,27	43,982
479,47	43,896
479,67	38,480
479,87	42,262
480,07	43,799
480,28	43,392
480,48	40,924
480,68	42,900
480,88	47,043
481,08	44,460
481,28	44,121
481,48	46,716
481,68	43,917
481,88	41,044
482,08	42,949
482,29	46,362
482,49	39,342
482,69	42,855
482,89	43,248
483,09	45,145
483,29	43,004
483,49	42,712
483,69	45,117
483,89	41,719
484,09	41,065
484,29	40,873
484,50	43,690
484,70	43,873
484,90	40,140
485,10	41,762
485,30	42,297
485,50	45,797
485,70	44,581
485,90	42,144
486,10	37,238
486,30	40,620
486,50	41,394
486,70	39,676
486,90	42,413
487,10	43,909
487,30	37,861
487,51	43,074
487,71	38,945
487,91	41,347
488,11	44,029
488,31	38,755
488,51	43,376
488,71	40,458
488,91	42,670
489,11	39,665
489,31	39,473
489,51	40,495
489,71	40,765
489,91	41,112
490,11	39,195
490,31	42,454
490,51	43,702
490,71	41,270
490,91	41,872
491,11	44,294
491,31	41,216
491,51	39,165
491,72	44,438
491,92	43,148
492,12	44,950
492,32	43,734
492,52	45,345
492,72	43,024
492,92	40,250
493,12	44,726
493,32	42,659
493,52	39,850
493,72	45,158
493,92	44,497
494,12	42,047
494,32	42,557
494,52	44,188
494,72	43,758
494,92	41,767
495,12	43,761
495,32	45,297
495,52	40,458
495,72	45,895
495,92	48,124
496,12	45,522
496,32	41,541
496,52	45,220
496,72	42,688
496,92	45,878
497,12	44,112
497,32	48,120
497,52	45,559
497,72	46,950
497,92	46,860
498,12	43,332
498,32	45,795
498,52	43,512
498,72	42,502
498,92	43,563
499,12	47,966
499,32	44,529
499,52	45,640
499,72	46,840
499,92	44,745
500,12	46,723
500,32	48,191
500,52	44,520
500,72	49,416
500,91	48,550
501,11	45,862
501,31	43,137
501,51	47,171
501,71	47,612
501,91	49,015
502,11	42,693
502,31	45,532
502,51	46,741
502,71	46,805
502,91	45,771
503,11	45,111
503,31	49,351
503,51	43,615
503,71	43,200
503,91	45,643
504,11	47,907
504,31	46,292
504,51	47,838
504,71	51,256
504,91	44,041
505,10	48,749
505,30	45,169
505,50	48,045
505,70	47,514
505,90	45,736
506,10	42,254
506,30	46,204
506,50	47,850
506,70	51,650
506,90	45,021
507,10	47,755
507,30	47,706
507,50	48,840
507,70	46,003
507,89	45,794
508,09	43,090
508,29	44,301
508,49	46,063
508,69	45,471
508,89	45,999
509,09	46,431
509,29	45,064
509,49	47,416
509,69	51,373
509,89	45,517
510,09	44,596
510,28	45,324
510,48	45,611
510,68	43,539
510,88	47,042
511,08	48,407
511,28	45,000
511,48	46,236
511,68	44,395
511,88	43,719
512,07	46,556
512,27	47,799
512,47	47,629
512,67	44,595
512,87	43,188
513,07	47,705
513,27	43,453
513,47	44,176
513,67	45,632
513,86	48,431
514,06	44,520
514,26	45,880
514,46	47,375
514,66	45,685
514,86	45,796
515,06	51,696
515,26	49,610
515,45	48,201
515,65	44,755
515,85	47,069
516,05	45,785
516,25	47,058
516,45	47,548
516,65	43,963
516,84	48,761
517,04	48,803
517,24	47,702
517,44	47,715
517,64	50,589
517,84	51,248
518,04	49,255
518,23	48,610
518,43	49,224
518,63	45,857
518,83	44,432
519,03	49,511
519,23	49,400
519,42	46,905
519,62	47,564
519,82	46,718
520,02	49,433
520,22	46,382
520,42	46,134
520,61	50,148
520,81	47,217
521,01	49,374
521,21	44,355
521,41	47,490
521,61	49,661
521,80	46,597
522,00	49,551
522,20	48,308
522,40	49,073
522,60	46,686
522,79	45,946
522,99	49,912
523,19	47,726
523,39	45,756
523,59	46,604
523,78	50,612
523,98	45,673
524,18	50,196
524,38	44,653
524,58	47,057
524,77	49,143
524,97	46,771
525,17	47,252
525,37	47,181
525,57	51,211
525,76	44,526
525,96	48,323
526,16	43,985
526,36	47,420
526,56	47,487
526,75	45,822
526,95	49,489
527,15	47,783
527,35	48,511
527,55	44,797
527,74	45,933
527,94	45,520
528,14	45,969
528,34	47,912
528,53	50,329
528,73	49,452
528,93	47,910
529,13	46,307
529,32	47,338
529,52	46,965
529,72	44,680
529,92	46,669
530,12	45,720
530,31	44,278
530,51	47,854
530,71	49,145
530,91	49,762
531,10	45,165
531,30	43,843
531,50	45,025
531,70	47,095
531,89	47,548
532,09	44,667
532,29	43,697
532,49	49,204
532,68	44,272
532,88	45,685
533,08	43,964
533,28	45,677
533,47	45,826
533,67	46,525
533,87	44,057
534,06	50,752
534,26	45,415
534,46	44,792
534,66	47,086
534,85	46,086
535,05	43,629
535,25	43,754
535,45	43,625
535,64	46,297
535,84	45,267
536,04	42,807
536,23	46,216
536,43	48,889
536,63	44,446
536,83	45,580
537,02	42,909
537,22	43,580
537,42	41,419
537,61	42,385
537,81	47,168
538,01	46,804
538,20	44,109
538,40	42,631
538,60	42,867
538,80	41,560
538,99	41,722
539,19	43,409
539,39	41,340
539,58	41,164
539,78	35,529
539,98	38,088
540,17	35,861
540,37	38,115
540,57	36,152
540,76	37,213
540,96	33,905
541,16	37,190
541,36	33,022
541,55	31,073
541,75	32,074
541,95	32,623
542,14	32,194
542,34	31,592
542,54	30,394
542,73	32,809
542,93	33,722
543,13	32,301
543,32	31,624
543,52	31,627
543,72	30,252
543,91	31,145
544,11	30,952
544,31	30,303
544,50	30,581
544,70	32,955
544,89	33,331
545,09	34,002
545,29	31,407
545,48	34,410
545,68	34,569
545,88	34,424
546,07	32,524
546,27	33,422
546,47	34,666
546,66	36,103
546,86	39,048
547,06	35,703
547,25	36,342
547,45	38,846
547,64	40,326
547,84	42,429
548,04	40,430
548,23	43,583
548,43	40,167
548,63	43,146
548,82	43,682
549,02	40,808
549,21	41,962
549,41	42,084
549,61	42,460
549,80	42,717
550,00	42,535
550,20	39,857
550,39	43,307
550,59	40,890
550,78	42,781
550,98	41,887
551,18	45,070
551,37	43,122
551,57	44,274
551,76	42,746
551,96	44,607
552,16	42,561
552,35	44,395
552,55	42,767
552,74	44,211
552,94	44,779
553,14	44,894
553,33	44,410
553,53	44,089
553,72	43,826
553,92	46,360
554,12	45,703
554,31	43,814
554,51	45,441
554,70	41,689
554,90	46,371
555,09	47,756
555,29	45,502
555,49	46,305
555,68	47,627
555,88	43,278
556,07	44,893
556,27	46,197
556,46	46,197
556,66	43,506
556,86	48,625
557,05	46,727
557,25	44,896
557,44	44,997
557,64	44,057
557,83	45,233
558,03	45,911
558,22	45,800
558,42	45,241
558,62	48,483
558,81	46,389
559,01	44,899
559,20	46,459
559,40	44,762
559,59	45,329
559,79	45,843
559,98	45,893
560,18	47,612
560,37	48,022
560,57	46,339
560,76	46,022
560,96	45,694
561,16	45,343
561,35	46,587
561,55	49,316
561,74	47,041
561,94	45,619
562,13	44,539
562,33	48,656
562,52	45,790
562,72	46,283
562,91	47,430
563,11	46,564
563,30	49,762
563,50	47,299
563,69	45,647
563,89	45,379
564,08	46,186
564,28	47,165
564,47	47,371
564,67	45,416
564,86	45,346
565,06	44,638
565,25	47,234
565,45	46,072
565,64	48,829
565,84	45,235
566,03	45,130
566,23	46,977
566,42	45,534
566,62	47,431
566,81	47,980
567,01	46,290
567,20	47,993
567,40	44,406
567,59	44,865
567,79	50,111
567,98	47,509
568,18	46,349
568,37	44,756
568,57	44,925
568,76	48,397
568,96	44,253
569,15	46,817
569,35	47,866
569,54	50,514
569,73	48,000
569,93	44,569
570,12	45,965
570,32	46,447
570,51	47,001
570,71	48,042
570,90	48,005
571,10	46,452
571,29	46,473
571,49	45,640
571,68	48,019
571,87	47,106
572,07	45,893
572,26	43,253
572,46	47,493
572,65	46,747
572,85	43,882
573,04	46,011
573,24	47,551
573,43	48,279
573,62	48,148
573,82	46,891
574,01	46,319
574,21	47,207
574,40	44,749
574,60	44,325
574,79	48,721
574,98	44,652
575,18	45,670
575,37	43,926
575,57	45,842
575,76	45,083
575,96	44,450
576,15	45,598
576,34	46,212
576,54	45,523
576,73	44,710
576,93	44,535
577,12	46,013
577,31	47,233
577,51	44,176
577,70	44,056
577,90	45,177
578,09	44,098
578,28	44,936
578,48	43,993
578,67	48,144
578,87	45,940
579,06	45,415
579,25	44,872
579,45	46,176
579,64	44,083
579,84	44,958
580,03	45,054
580,22	45,761
580,42	44,574
580,61	44,597
580,81	43,325
581,00	44,991
581,19	45,257
581,39	43,899
581,58	43,967
581,77	43,674
581,97	46,478
582,16	43,707
582,35	43,961
582,55	43,349
582,74	47,551
582,94	45,139
583,13	42,928
583,32	43,784
583,52	44,535
583,71	44,981
583,90	43,351
584,10	45,146
584,29	44,612
584,48	44,180
584,68	44,599
584,87	44,398
585,06	44,778
585,26	42,985
585,45	42,537
585,65	45,367
585,84	44,351
586,03	44,469
586,23	42,438
586,42	43,204
586,61	45,410
586,81	44,864
587,00	43,743
587,19	42,617
587,39	45,695
587,58	44,950
587,77	43,632
587,97	42,276
588,16	43,853
588,35	44,278
588,54	44,440
588,74	44,503
588,93	46,798
589,12	44,118
589,32	45,213
589,51	43,536
589,70	42,808
589,90	44,888
590,09	43,818
590,28	48,416
590,48	44,875
590,67	45,751
590,86	44,784
591,06	44,266
591,25	46,345
591,44	45,265
591,63	44,191
591,83	45,996
592,02	45,294
592,21	45,032
592,41	42,150
592,60	46,735
592,79	44,722
592,98	44,865
593,18	45,261
593,37	43,107
593,56	45,818
593,76	44,080
593,95	45,546
594,14	46,218
594,33	48,349
594,53	46,285
594,72	44,037
594,91	49,115
595,10	47,162
595,30	43,815
595,49	46,355
595,68	46,404
595,88	45,877
596,07	45,642
596,26	44,564
596,45	47,841
596,65	40,894
596,84	45,206
597,03	43,949
597,22	44,931
597,42	48,758
597,61	43,607
597,80	46,326
597,99	45,696
598,19	47,181
598,38	46,258
598,57	46,328
598,76	47,321
598,95	46,418
599,15	45,332
599,34	46,062
599,53	45,928
599,72	46,542
599,92	48,033
600,11	46,703
600,30	46,941
600,49	48,700
600,69	45,008
600,88	46,958
601,07	45,687
601,26	46,134
601,45	46,686
601,65	45,698
601,84	46,795
602,03	46,364
602,22	48,898
602,42	47,198
602,61	46,728
602,80	48,091
602,99	47,783
603,18	45,526
603,38	47,703
603,57	44,396
603,76	46,262
603,95	45,469
604,14	46,401
604,34	45,964
604,53	46,047
604,72	46,234
604,91	46,277
605,10	46,833
605,29	46,938
605,49	44,528
605,68	46,806
605,87	47,820
606,06	45,195
606,25	45,613
606,45	46,671
606,64	46,749
606,83	44,408
607,02	44,533
607,21	45,706
607,40	45,276
607,60	43,572
607,79	42,611
607,98	42,451
608,17	43,310
608,36	42,749
608,55	42,760
608,75	43,188
608,94	41,534
609,13	39,556
609,32	38,902
609,51	34,118
609,70	36,220
609,89	37,436
610,09	36,189
610,28	38,641
610,47	37,231
610,66	36,753
610,85	35,624
611,04	38,924
611,23	36,578
611,43	36,778
611,62	35,628
611,81	36,870
612,00	37,035
612,19	35,756
612,38	38,074
612,57	37,971
612,77	37,382
612,96	39,257
613,15	39,697
613,34	41,096
613,53	40,436
613,72	41,752
613,91	40,182
614,10	41,045
614,29	43,671
614,49	41,036
614,68	40,809
614,87	42,087
615,06	43,665
615,25	40,519
615,44	45,148
615,63	43,225
615,82	41,710
616,01	42,404
616,21	43,400
616,40	43,730
616,59	47,021
616,78	43,738
616,97	44,549
617,16	44,968
617,35	45,989
617,54	45,984
617,73	46,251
617,92	44,680
618,11	47,425
618,31	42,967
618,50	45,399
618,69	45,501
618,88	43,571
619,07	43,775
619,26	44,270
619,45	44,213
619,64	44,025
619,83	43,394
620,02	42,612
620,21	46,036
620,40	46,624
620,59	43,399
620,78	43,351
620,97	45,640
621,17	43,313
621,36	43,212
621,55	42,560
621,74	43,334
621,93	43,913
622,12	43,699
622,31	42,672
622,50	44,743
622,69	45,968
622,88	44,531
623,07	45,636
623,26	44,960
623,45	47,163
623,64	44,944
623,83	43,392
624,02	45,052
624,21	46,509
624,40	44,065
624,59	43,910
624,78	45,802
624,97	47,542
625,16	43,629
625,35	42,994
625,54	44,175
625,73	44,388
625,92	45,040
626,12	48,057
626,31	47,968
626,50	47,359
626,69	44,049
626,88	42,778
627,07	46,639
627,26	44,693
627,45	44,382
627,64	43,582
627,83	46,928
628,02	44,696
628,21	43,266
628,40	45,378
628,59	45,826
628,78	44,611
628,97	42,242
629,16	42,480
629,35	44,943
629,54	46,507
629,73	44,209
629,92	42,397
630,10	44,398
630,29	44,130
630,48	43,374
630,67	43,099
630,86	46,963
631,05	44,880
631,24	44,138
631,43	43,587
631,62	45,508
631,81	44,083
632,00	44,928
632,19	43,964
632,38	45,302
632,57	46,541
632,76	45,399
632,95	47,063
633,14	46,972
633,33	44,683
633,52	45,056
633,71	45,596
633,90	43,161
634,09	45,728
634,28	45,044
634,47	45,115
634,66	46,981
634,85	45,216
635,04	47,502
635,22	46,296
635,41	45,707
635,60	47,220
635,79	47,037
635,98	43,439
636,17	47,398
636,36	44,773
636,55	46,536
636,74	45,642
636,93	46,192
637,12	46,016
637,31	45,983
637,50	43,546
637,69	45,032
637,87	46,194
638,06	46,144
638,25	45,298
638,44	46,896
638,63	43,977
638,82	45,698
639,01	45,909
639,20	44,177
639,39	47,241
639,58	45,792
639,77	47,482
639,95	45,159
640,14	47,063
640,33	45,237
640,52	45,143
640,71	48,796
640,90	46,343
641,09	47,366
641,28	44,957
641,47	47,370
641,66	46,168
641,84	45,766
642,03	46,071
642,22	46,258
642,41	48,014
642,60	44,214
642,79	46,325
642,98	46,605
643,17	45,707
643,35	44,390
643,54	45,444
643,73	45,435
643,92	46,132
644,11	44,327
644,30	44,579
644,49	47,751
644,67	44,426
644,86	44,659
645,05	48,924
645,24	45,496
645,43	46,210
645,62	46,574
645,81	46,274
645,99	48,044
646,18	45,681
646,37	45,110
646,56	44,726
646,75	48,242
646,94	48,455
647,13	44,612
647,31	44,666
647,50	46,236
647,69	49,027
647,88	45,774
648,07	47,536
648,26	48,903
648,44	46,147
648,63	45,838
648,82	45,042
649,01	49,315
649,20	45,636
649,38	46,796
649,57	47,353
649,76	44,132
649,95	45,756
650,14	44,349
650,33	43,156
650,51	44,442
650,70	48,186
650,89	45,436
651,08	45,177
651,27	46,479
651,45	44,975
651,64	45,044
651,83	46,111
652,02	45,305
652,21	45,297
652,39	46,868
652,58	46,460
652,77	45,861
652,96	45,763
653,15	45,387
653,33	44,463
653,52	46,569
653,71	46,784
653,90	47,488
654,09	46,011
654,27	45,717
654,46	46,020
654,65	47,498
654,84	45,298
655,02	46,971
655,21	48,065
655,40	47,731
655,59	45,513
655,77	47,352
655,96	45,262
656,15	47,294
656,34	48,468
656,53	47,020
656,71	46,800
656,90	46,477
657,09	46,785
657,28	47,862
657,46	46,694
657,65	46,061
657,84	45,755
658,03	47,926
658,21	45,607
658,40	45,351
658,59	46,415
658,78	46,810
658,96	44,719
659,15	46,936
659,34	46,257
659,52	46,676
659,71	47,007
659,90	45,064
660,09	45,458
660,27	46,785
660,46	46,446
660,65	46,087
660,84	44,544
661,02	47,097
661,21	46,105
661,40	44,723
661,58	45,913
661,77	45,376
661,96	41,858
662,15	46,783
662,33	45,527
662,52	43,925
662,71	46,174
662,89	44,566
663,08	46,043
663,27	45,035
663,45	45,159
663,64	43,553
663,83	44,542
664,02	45,257
664,20	46,464
664,39	45,086
664,58	44,722
664,76	44,865
664,95	45,420
665,14	45,664
665,32	45,145
665,51	45,426
665,70	46,847
665,88	45,376
666,07	46,281
666,26	47,561
666,44	46,305
666,63	44,713
666,82	43,922
667,00	46,454
667,19	45,657
667,38	45,697
667,56	45,986
667,75	45,487
667,94	44,597
668,12	46,036
668,31	46,688
668,50	46,337
668,68	46,364
668,87	46,496
669,06	45,737
669,24	46,239
669,43	45,521
669,62	42,869
669,80	43,657
669,99	44,622
670,18	46,417
670,36	43,772
670,55	44,280
670,74	44,872
670,92	42,978
671,11	45,389
671,29	43,866
671,48	44,593
671,67	46,532
671,85	47,492
672,04	43,486
672,23	43,116
672,41	44,746
672,60	45,233
672,78	43,602
672,97	46,090
673,16	44,859
673,34	44,777
673,53	44,547
673,71	46,071
673,90	46,154
674,09	45,889
674,27	43,996
674,46	45,011
674,64	43,996
674,83	45,722
675,02	42,481
675,20	45,020
675,39	44,134
675,57	45,278
675,76	45,122
675,95	48,602
676,13	47,118
676,32	47,519
676,50	45,929
676,69	43,589
676,88	44,780
677,06	44,778
677,25	45,717
677,43	47,342
677,62	46,570
677,80	46,242
677,99	44,757
678,18	46,001
678,36	46,314
678,55	42,927
678,73	44,933
678,92	45,293
679,10	46,148
679,29	44,891
679,48	45,029
679,66	44,348
679,85	44,925
680,03	44,028
680,22	45,125
680,40	44,622
680,59	45,185
680,77	44,846
680,96	44,968
681,15	46,291
681,33	45,883
681,52	43,160
681,70	44,014
681,89	47,974
682,07	46,250
682,26	45,732
682,44	45,749
682,63	47,629
682,81	46,146
683,00	46,584
683,18	44,753
683,37	46,366
683,55	45,532
683,74	45,393
683,92	48,612
684,11	44,978
684,29	46,161
684,48	43,541
684,67	45,300
684,85	47,325
685,04	45,607
685,22	45,948
685,41	44,000
685,59	46,131
685,78	43,551
685,96	44,394
686,15	45,447
686,33	45,935
686,52	45,195
686,70	44,795
686,89	45,409
687,07	45,794
687,26	46,824
687,44	46,778
687,62	46,229
687,81	45,480
687,99	45,038
688,18	45,721
688,36	45,726
688,55	46,414
688,73	45,358
688,92	45,558
689,10	45,910
689,29	45,761
689,47	47,451
689,66	45,610
689,84	44,903
690,03	46,830
690,21	45,487
690,40	45,437
690,58	44,847
690,76	44,359
690,95	45,504
691,13	44,574
691,32	46,282
691,50	45,969
691,69	46,752
691,87	43,552
692,06	45,183
692,24	45,220
692,43	46,775
692,61	43,969
692,79	45,975
692,98	43,173
693,16	47,249
693,35	46,574
693,53	45,470
693,72	47,916
693,90	46,238
694,08	44,207
694,27	46,100
694,45	48,454
694,64	47,367
694,82	45,997
695,01	44,622
695,19	47,229
695,37	44,826
695,56	45,942
695,74	46,135
695,93	47,413
696,11	45,061
696,29	46,780
696,48	45,766
696,66	47,146
696,85	46,182
697,03	44,755
697,21	46,133
697,40	44,477
697,58	45,423
697,77	44,989
697,95	47,300
698,13	47,790
698,32	45,058
698,50	45,730
698,69	45,870
698,87	48,404
699,05	44,705
699,24	43,366
699,42	46,216
699,60	42,361
699,79	45,319
699,97	44,646
700,16	44,665
700,34	48,993
700,52	46,766
700,71	45,063
700,89	45,709
701,07	46,307
701,26	44,748
701,44	45,225
701,63	45,517
701,81	47,509
701,99	47,407
702,18	43,684
702,36	43,344
702,54	44,433
702,73	45,567
702,91	45,076
703,09	45,269
703,28	45,220
703,46	45,963
703,64	44,887
703,83	46,868
704,01	44,657
704,19	45,309
704,38	44,059
704,56	43,735
704,74	46,961
704,93	43,983
705,11	46,024
705,29	45,154
705,48	48,358
705,66	45,516
705,84	45,389
706,03	43,879
706,21	45,422
706,39	44,639
706,58	44,369
706,76	44,554
706,94	46,108
707,12	47,024
707,31	44,060
707,49	43,253
707,67	45,445
707,86	45,530
708,04	44,123
708,22	43,884
708,41	45,005
708,59	44,684
708,77	43,931
708,95	44,671
709,14	48,539
709,32	45,824
709,50	43,544
709,69	43,306
709,87	44,630
710,05	45,894
710,23	43,417
710,42	43,179
710,60	45,845
710,78	45,535
710,97	45,078
711,15	44,220
711,33	48,023
711,51	45,273
711,70	44,429
711,88	43,549
712,06	46,315
712,24	47,686
712,43	44,596
712,61	44,131
712,79	44,925
712,97	43,784
713,16	45,459
713,34	44,629
713,52	46,402
713,70	46,414
713,89	44,839
714,07	44,690
714,25	46,082
714,43	47,466
714,62	45,299
714,80	46,818
714,98	42,564
715,16	44,059
715,35	42,999
715,53	43,520
715,71	44,625
715,89	46,838
716,07	44,955
716,26	49,614
716,44	46,592
716,62	46,279
716,80	46,592
716,99	44,568
717,17	46,441
717,35	47,226
717,53	43,111
717,71	44,128
717,90	46,450
718,08	43,620
718,26	42,800
718,44	46,653
718,62	47,375
718,81	44,769
718,99	43,804
719,17	45,616
719,35	45,514
719,53	42,683
719,72	45,078
719,90	46,551
720,08	45,086
720,26	47,291
720,44	42,858
720,62	44,364
720,81	47,230
720,99	48,385
721,17	44,537
721,35	46,737
721,53	45,494
721,72	47,967
721,90	45,364
722,08	44,772
722,26	47,668
722,44	44,403
722,62	44,532
722,81	44,880
722,99	46,613
723,17	45,648
723,35	45,520
723,53	45,246
723,71	46,024
723,89	45,370
724,08	41,477
724,26	44,866
724,44	45,055
724,62	45,642
724,80	45,174
724,98	45,204
725,16	47,370
725,35	46,178
725,53	44,020
725,71	43,441
725,89	45,204
726,07	48,342
726,25	48,021
726,43	44,093
726,61	45,494
726,80	46,711
726,98	43,995
727,16	44,880
727,34	47,606
727,52	44,888
727,70	42,969
727,88	45,351
728,06	42,768
728,25	44,591
728,43	44,391
728,61	44,097
728,79	44,141
728,97	45,731
729,15	46,240
729,33	45,209
729,51	46,547
729,69	45,618
729,87	46,031
730,06	44,148
730,24	44,533
730,42	46,005
730,60	41,980
730,78	45,788
730,96	46,065
731,14	46,552
731,32	44,076
731,50	43,124
731,68	46,506
731,86	46,695
732,04	44,142
732,22	45,560
732,41	48,405
732,59	45,953
732,77	47,732
732,95	48,364
733,13	45,652
733,31	45,684
733,49	44,239
733,67	46,091
733,85	45,096
734,03	46,408
734,21	44,665
734,39	44,413
734,57	47,183
734,75	43,963
734,93	44,170
735,11	46,613
735,29	43,783
735,47	46,090
735,65	43,476
735,84	43,734
736,02	44,551
736,20	47,240
736,38	44,845
736,56	44,291
736,74	44,156
736,92	44,299
737,10	46,401
737,28	46,236
737,46	46,350
737,64	44,835
737,82	45,796
738,00	46,393
738,18	46,191
738,36	45,705
738,54	44,530
738,72	45,518
738,90	46,192
739,08	45,123
739,26	41,478
739,44	45,926
739,62	47,348
739,80	44,426
739,98	46,958
740,16	42,716
740,34	45,234
740,52	49,394
740,70	44,600
740,88	41,813
741,06	42,858
741,24	45,486
741,42	45,052
741,60	43,482
741,78	46,760
741,96	43,762
742,14	44,699
742,32	43,372
742,50	45,706
742,68	46,616
742,86	44,137
743,04	44,619
743,21	48,602
743,39	46,052
743,57	45,561
743,75	44,425
743,93	43,141
744,11	42,914
744,29	42,160
744,47	44,441
744,65	45,307
744,83	44,668
745,01	45,825
745,19	44,187
745,37	46,976
745,55	47,220
745,73	46,495
745,91	43,768
746,09	45,101
746,27	44,443
746,45	41,839
746,62	43,728
746,80	45,475
746,98	45,045
747,16	45,043
747,34	44,353
747,52	45,349
747,70	45,147
747,88	44,978
748,06	45,154
748,24	44,704
748,42	47,250
748,60	46,123
748,78	43,986
748,95	48,151
749,13	48,481
749,31	46,093
749,49	47,107
749,67	45,228
749,85	48,601
750,03	45,355
750,21	45,213
750,39	46,560
750,57	46,280
750,74	45,774
750,92	44,243
751,10	46,373
751,28	43,678
751,46	43,242
751,64	45,333
751,82	44,935
752,00	45,731
752,17	46,538
752,35	43,349
752,53	45,893
752,71	46,633
752,89	46,013
753,07	44,105
753,25	45,700
753,43	42,832
753,60	47,183
753,78	44,087
753,96	47,316
754,14	44,649
754,32	46,872
754,50	47,150
754,68	45,791
754,85	45,299
755,03	45,201
755,21	45,156
755,39	49,388
755,57	45,673
755,75	45,595
755,92	43,194
756,10	46,929
756,28	47,122
756,46	44,620
756,64	45,849
756,82	46,732
756,99	44,934
757,17	44,522
757,35	43,678
757,53	48,159
757,71	47,959
757,89	44,028
758,06	45,650
758,24	44,965
758,42	46,417
758,60	46,296
758,78	44,477
758,95	46,776
759,13	47,225
759,31	43,545
759,49	44,642
759,67	45,100
759,84	45,476
760,02	46,147
760,20	44,136
760,38	44,467
760,56	45,668
760,73	45,688
760,91	46,579
761,09	47,318
761,27	43,843
761,45	46,355
761,62	44,121
761,80	45,330
761,98	45,724
762,16	46,896
762,33	41,752
762,51	48,641
762,69	43,547
762,87	44,392
763,05	46,450
763,22	43,868
763,40	44,703
763,58	44,735
763,76	48,738
763,93	47,929
764,11	47,097
764,29	46,223
764,47	46,309
764,64	46,649
764,82	47,763
765,00	45,138
765,18	42,851
765,35	46,190
765,53	44,912
765,71	44,184
765,89	44,691
766,06	44,801
766,24	46,256
766,42	44,848
766,60	43,333
766,77	45,839
766,95	43,967
767,13	47,228
767,30	45,952
767,48	44,581
767,66	44,184
767,84	43,298
768,01	46,643
768,19	47,178
768,37	45,472
768,54	46,611
768,72	46,441
768,90	44,638
769,08	46,366
769,25	47,675
769,43	44,798
769,61	43,813
769,78	46,695
769,96	42,492
770,14	46,944
770,31	46,471
770,49	46,283
770,67	46,331
770,85	44,031
771,02	45,547
771,20	47,117
771,38	46,172
771,55	43,834
771,73	46,147
771,91	45,196
772,08	47,142
772,26	46,461
772,44	46,586
772,61	46,592
772,79	43,944
772,97	47,490
773,14	43,884
773,32	47,004
773,50	44,025
773,67	45,146
773,85	46,851
774,03	49,287
774,20	44,610
774,38	46,245
774,56	46,643
774,73	45,390
774,91	43,964
775,09	44,923
775,26	43,032
775,44	44,831
775,61	45,687
775,79	45,320
775,97	50,099
776,14	43,784
776,32	43,882
776,50	46,934
776,67	45,492
776,85	44,215
777,03	44,267
777,20	46,508
777,38	46,906
777,55	46,877
777,73	44,596
777,91	45,312
778,08	46,728
778,26	46,553
778,43	46,604
778,61	43,045
778,79	44,199
778,96	45,037
779,14	44,838
779,32	45,385
779,49	47,309
779,67	48,940
779,84	45,302
780,02	47,061
780,20	43,550
780,37	46,648
780,55	41,006
780,72	46,477
780,90	47,897
781,07	46,290
781,25	46,082
781,43	45,015
781,60	46,072
781,78	44,998
781,95	47,555
782,13	45,276
782,30	46,980
782,48	46,944
782,66	44,805
782,83	44,116
783,01	51,670
783,18	45,490
783,36	48,451
783,53	46,008
783,71	43,407
783,89	43,505
784,06	45,435
784,24	45,557
784,41	47,257
784,59	45,300
784,76	47,094
784,94	44,870
785,11	46,898
785,29	45,199
785,46	48,259
785,64	45,245
785,82	45,263
785,99	47,409
786,17	45,154
786,34	47,664
786,52	48,568
786,69	48,138
786,87	47,116
787,04	46,663
787,22	44,162
787,39	47,536
787,57	49,384
787,74	45,466
787,92	46,717
788,09	48,612
788,27	43,405
788,44	48,073
788,62	48,575
788,79	47,422
788,97	49,542
789,14	45,970
789,32	45,195
789,49	46,177
789,67	45,791
789,84	48,365
790,02	49,405
790,19	46,134
790,37	48,372
790,54	47,340
790,72	47,986
790,89	50,592
791,07	47,402
791,24	45,391
791,42	47,883
791,59	48,144
791,77	46,805
791,94	46,054
792,12	45,213
792,29	47,836
792,47	48,835
792,64	49,851
792,81	48,307
792,99	46,954
793,16	46,821
793,34	47,546
793,51	51,798
793,69	49,213
793,86	46,673
794,04	46,700
794,21	49,949
794,39	45,047
794,56	45,512
794,73	46,856
794,91	50,267
795,08	46,695
795,26	47,108
795,43	45,897
795,61	49,630
795,78	49,603
795,95	47,074
796,13	48,287
796,30	49,473
796,48	43,765
796,65	47,454
796,83	49,657
797,00	52,487
797,17	46,189
797,35	48,643
797,52	48,240
797,70	48,429
797,87	47,888
798,04	43,016
798,22	48,859
798,39	48,359
798,57	47,876
798,74	49,986
798,91	44,371
799,09	45,247
799,26	49,986
799,44	49,986
799,61	45,936
799,78	49,753
799,96	49,874
800,13	47,871
800,31	48,109
800,48	47,105
800,65	48,854
800,83	45,950
801,00	47,276
801,17	47,061
801,35	48,312
801,52	45,689
801,70	48,556
801,87	46,853
802,04	50,913
802,22	44,724
802,39	46,214
802,56	52,371
802,74	49,252
802,91	45,095
803,08	47,465
803,26	49,354
803,43	51,142
803,61	46,528
803,78	49,785
803,95	48,567
804,13	49,474
804,30	47,323
804,47	51,628
804,65	47,493
804,82	50,047
804,99	47,364
805,17	46,491
805,34	52,177
805,51	50,981
805,69	46,208
805,86	48,551
806,03	52,341
806,21	51,913
806,38	51,096
806,55	51,835
806,72	53,263
806,90	50,548
807,07	46,718
807,24	48,300
807,42	46,138
807,59	48,767
807,76	44,366
807,94	47,802
808,11	48,437
808,28	52,545
808,45	49,110
808,63	47,605
808,80	54,621
808,97	47,640
809,15	43,752
809,32	52,488
809,49	46,489
809,67	47,313
809,84	48,915
810,01	51,835
810,18	57,282
810,36	51,770
810,53	50,908
810,70	51,601
810,87	50,902
811,05	51,571
811,22	53,681
811,39	50,124
811,57	52,963
811,74	51,814
811,91	46,658
812,08	49,273
812,26	51,480
812,43	42,812
812,60	49,909
812,77	49,389
812,95	55,759
813,12	52,060
813,29	43,704
813,46	51,898
813,64	52,044
813,81	49,276
813,98	44,459
814,15	47,178
814,32	52,253
814,50	52,417
814,67	47,410
814,84	49,306
815,01	49,689
815,19	43,810
815,36	42,804
815,53	46,668
815,70	50,534
815,87	51,302
816,05	45,762
816,22	50,371
816,39	58,270
816,56	54,483
816,74	51,283
816,91	49,573
817,08	55,465
817,25	55,491
817,42	49,898
817,60	48,592
817,77	47,783
817,94	53,951
818,11	50,473
818,28	48,723
818,45	53,721
818,63	53,438
818,80	47,025
818,97	47,330
819,14	52,535
819,31	56,177
819,49	57,326
819,66	47,152
819,83	56,119
820,00	54,961
820,17	50,195
820,34	50,678
820,52	54,977
820,69	52,738
820,86	46,217
821,03	49,360
821,20	53,197
821,37	51,523
821,55	45,006
821,72	49,934
821,89	52,877
822,06	51,903
822,23	48,751
822,40	45,452
822,57	54,557
822,75	54,598
822,92	47,093
823,09	48,965
823,26	53,000
823,43	57,054
823,60	45,201
823,77	50,754
823,94	53,561
824,12	54,631
824,29	45,086
824,46	45,901
824,63	59,594
824,80	51,664
824,97	49,808
825,14	52,234
825,31	55,412
825,49	49,355
825,66	51,330
825,83	46,043
826,00	50,845
826,17	58,002
826,34	49,332
826,51	50,175
826,68	49,851
826,85	54,993
827,02	48,311
827,20	43,698
827,37	51,257
827,54	53,369
827,71	46,027
827,88	49,069
828,05	53,513
828,22	47,956
828,39	51,957
828,56	55,715
828,73	50,156
828,90	55,697
829,07	54,196
829,25	60,363
829,42	54,130
829,59	47,349
829,76	51,442
829,93	47,589
830,10	54,770
830,27	47,441
830,44	52,868
830,61	51,060
830,78	59,908
830,95	51,057
831,12	49,835
831,29	52,465
831,46	52,374
831,63	49,068
831,80	50,500
831,97	45,183
832,14	57,113
832,31	63,260
832,48	49,179
832,65	52,207
832,83	48,966
833,00	50,291
833,17	51,825
833,34	57,770
833,51	59,757
833,68	57,365
833,85	54,741
834,02	50,633
834,19	57,265
834,36	53,687
834,53	40,963
834,70	48,713
834,87	57,459
835,04	48,778
835,21	54,593
835,38	49,337
835,55	55,289
835,72	62,850
835,89	50,061
836,06	52,963
836,23	67,306
836,40	45,355
836,57	48,004
836,74	60,594
836,91	59,927
837,08	58,189
837,25	54,199
837,42	50,234
837,59	50,706
837,76	56,203
837,93	54,874
838,09	48,591
838,26	59,953
838,43	66,792
838,60	54,186
838,77	50,231
838,94	61,242
839,11	56,490
839,28	51,368
839,45	51,843
839,62	55,027
839,79	58,037
839,96	58,701
840,13	56,533
840,30	53,303
840,47	53,434
840,64	50,931
840,81	53,665
840,98	53,418
841,15	69,924
841,32	48,122
841,48	62,465
841,65	56,174
841,82	52,759
841,99	53,867
842,16	47,262
842,33	56,464
842,50	61,055
842,67	57,204
842,84	50,120
843,01	62,993
843,18	51,712
843,35	53,046
843,52	48,534
843,68	57,075
843,85	58,599
844,02	47,722
844,19	52,464
844,36	62,340
844,53	65,124
844,70	52,773
844,87	56,699
845,04	56,563
845,21	46,245
845,37	68,380
845,54	55,731
845,71	53,779
845,88	72,070
846,05	51,430
846,22	43,899
846,39	59,880
846,56	75,750
846,72	42,615
846,89	52,902
847,06	61,481
847,23	57,150
847,40	51,594
847,57	51,466
847,74	56,251
847,90	64,968
848,07	57,893
848,24	60,469
848,41	64,671
848,58	64,621
848,75	62,847
848,92	55,228
849,08	59,974
849,25	57,739
849,42	46,733
849,59	52,680
849,76	59,148
849,93	62,146
850,09	55,518
850,26	45,940
850,43	72,350
850,60	50,740
850,77	51,417
850,94	63,137
851,10	63,885
851,27	57,491
851,44	45,005
851,61	51,809
851,78	61,842
851,95	61,432
852,11	55,978
852,28	53,643
852,45	67,170
852,62	64,110
852,79	45,912
852,95	44,353
853,12	63,624
853,29	59,991
853,46	59,424
853,63	57,820
853,79	52,079
853,96	40,183
854,13	73,791
854,30	54,989
854,46	66,921
854,63	54,985
854,80	62,260
854,97	56,355
855,14	79,949
855,30	70,013
855,47	44,002
855,64	62,159
855,81	52,214
855,97	61,773
856,14	62,980
856,31	51,818
856,48	72,458
856,65	71,737
856,81	57,575
856,98	57,978
857,15	44,736
857,32	70,695
857,48	53,068
857,65	59,917
857,82	68,320
857,99	64,296
858,15	67,593
858,32	52,503
858,49	55,192
858,65	76,094
858,82	60,283
858,99	55,518
859,16	73,199
859,32	65,274
859,49	55,598
859,66	55,754
859,83	62,565
859,99	50,963
860,16	54,973
860,33	62,706
860,49	73,075
860,66	56,192
860,83	61,735
861,00	60,062
861,16	60,402
861,33	63,777
861,50	49,679
861,66	66,938
861,83	79,865
862,00	58,416
862,16	63,967
862,33	54,582
862,50	90,755
862,67	61,246
862,83	64,848
863,00	76,978
863,17	70,384
863,33	48,556
863,50	44,282
863,67	48,748
863,83	70,149
864,00	78,791
864,17	43,231
864,33	62,484
864,50	75,005
864,67	54,019
864,83	45,413
865,00	45,435
865,17	64,803
865,33	78,767
865,50	48,345
865,67	56,436
865,83	81,071
866,00	86,749
866,17	53,604
866,33	71,490
866,50	92,413
866,66	76,149
866,83	89,546
867,00	75,445
867,16	81,988
867,33	86,615
867,50	27,277
867,66	50,735
867,83	103,916
868,00	88,133
868,16	47,417
868,33	58,594
868,49	84,013
868,66	87,675
868,83	51,622
868,99	63,846
869,16	86,205
869,32	89,350
869,49	59,922
869,66	54,681
869,82	84,429
869,99	90,297
870,15	43,628
870,32	77,159
870,49	89,973
870,65	110,087
870,82	77,748
870,98	54,349
871,15	83,943
871,32	60,500
871,48	22,586
871,65	23,628
871,81	70,139
871,98	63,441
872,15	56,080
872,31	43,089
872,48	114,854
872,64	74,679
872,81	21,321
872,97	69,304
873,14	106,675
873,31	79,824
873,47	68,509
873,64	70,945
873,80	123,798
873,97	97,180
874,13	61,073
874,30	66,712
874,46	95,472
874,63	57,194
874,80	63,955
874,96	42,734
875,13	113,778
875,29	54,933
875,46	80,412
875,62	48,825
875,79	113,770
875,95	91,996
876,12	60,383
876,28	6,019
876,45	104,631
876,61	57,476
876,78	58,214
876,94	67,076
877,11	92,769
877,27	99,315
877,44	95,144
877,60	62,121
877,77	113,975
877,94	132,945
878,10	40,801
878,27	84,170
878,43	125,982
878,60	52,116
878,76	69,391
878,93	77,138
879,09	124,527
879,26	118,732
879,42	75,210
879,58	79,817
879,75	122,274
879,91	120,300
880,08	-8,323
880,24	62,729
880,41	107,309
880,57	117,759
880,74	38,354
880,90	29,741
881,07	93,795
881,23	154,734
881,40	50,612
881,56	85,546
881,73	128,739
881,89	109,946
882,06	54,578
882,22	184,328
882,38	160,641
882,55	174,478
882,71	56,015
882,88	68,789
883,04	180,449
883,21	172,925
883,37	74,003
883,54	63,495
883,70	221,956
883,86	124,714
884,03	74,211
884,19	28,023
884,36	109,760
884,52	163,707
884,69	58,340
884,85	50,962
885,01	272,847
885,18	98,649
885,34	52,030
885,51	38,727
885,67	101,651
>>>>> Data<<<<< Espectral Procesado Extremo
