Fichero De Datos De SpectraSuite
++++++++++++++++++++++++++++++++++++
Fecha: Wed Apr 22 12:05:45 CEST 2009
Usuario: evoflor
Presente Oscuro Del Espectro: Sí
La Referencia de Presente Del Espectro De: Sí
Muestreados de los componentes de Número de espectros: 1
Espectrómetros: USB4F02353
Tiempo de integración (usec): 500000 (USB4F02353)
Promedio de Espectros Hechos un: 5 (USB4F02353)
El Alisar Del Furgón: 0 (USB4F02353)
Párrafo de de Corregir del la del del de Eléctrica del obscuridad: Sí (USB4F02353)
Estrobo/Lámpara Permitido: No (USB4F02353)
Correct for Detector Non-linearity: No (USB4F02353)
Párrafo de de Corregir del la del del de Externa del luz: No (USB4F02353)
Procesado del espectro de Número de pixeles en: 3648
>>>>> Comienza Data<<<<< Espectral Procesado Del EL
177,79	217,240
178,00	217,240
178,22	217,240
178,44	1694,945
178,66	-127,427
178,88	434,984
179,09	-98,128
179,31	303,061
179,53	698,328
179,75	137,229
179,96	765,172
180,18	-129,108
180,40	262,611
180,62	378,674
180,83	-86,942
181,05	-1269,024
181,27	1240,000
181,49	-20,783
181,70	417,538
181,92	267,817
182,14	549,277
182,36	-9,675
182,58	255,400
182,79	954,732
183,01	-90,327
183,23	173,086
183,45	-176,185
183,66	320,088
183,88	823,882
184,10	-4722,909
184,32	302,129
184,53	181,590
184,75	-174,884
184,97	34,671
185,18	-222,669
185,40	-807,500
185,62	117,204
185,84	14,978
186,05	58,124
186,27	-156,054
186,49	3829,231
186,71	0,890
186,92	163,918
187,14	-205,706
187,36	155,393
187,58	113,219
187,79	33,343
188,01	337,496
188,23	-101,307
188,45	149,582
188,66	392,232
188,88	-1597,455
189,10	-2003,600
189,31	28,225
189,53	176,752
189,75	252,864
189,97	507,538
190,18	-152,103
190,40	368,588
190,62	-339,194
190,83	-314,514
191,05	133,959
191,27	217,600
191,49	342,228
191,70	-119,519
191,92	-378,475
192,14	-85,222
192,35	557,719
192,57	2690,286
192,79	-70,107
193,01	104,153
193,22	159,114
193,44	-169,898
193,66	149,861
193,87	70,578
194,09	-90,707
194,31	290,367
194,53	885,035
194,74	135,903
194,96	36,394
195,18	216,144
195,39	-376,675
195,61	-147,486
195,83	-146,000
196,04	139,387
196,26	-554,573
196,48	-18,653
196,70	162,147
196,91	102,943
197,13	304,456
197,35	137,538
197,56	709,474
197,78	1428,060
198,00	582,937
198,21	714,854
198,43	-1086,395
198,65	165,048
198,86	325,755
199,08	208,393
199,30	121,377
199,51	-280,326
199,73	210,071
199,95	449,158
200,16	583,692
200,38	270,165
200,60	166,419
200,81	226,681
201,03	231,413
201,25	-2129,600
201,46	139,278
201,68	75,174
201,90	2487,727
202,11	-314,733
202,33	244,991
202,55	502,000
202,76	-104,645
202,98	243,415
203,20	-123,846
203,41	-514,526
203,63	156,112
203,85	-221060,000
204,06	-105,197
204,28	-339,663
204,50	167,376
204,71	249,046
204,93	-737,120
205,15	207,711
205,36	-257,476
205,58	263,647
205,80	-113,703
206,01	25,688
206,23	207,883
206,45	224,027
206,66	127,974
206,88	-49,345
207,10	195,591
207,31	220,079
207,53	78,743
207,75	135,239
207,96	1098,955
208,18	-117,679
208,39	163,716
208,61	3204,571
208,83	-319,511
209,04	271,006
209,26	-284,608
209,48	428,748
209,69	260,742
209,91	567,432
210,13	51,119
210,34	129,927
210,56	164,465
210,77	-1804,409
210,99	163,217
211,21	7444,706
211,42	-159,796
211,64	-36,656
211,86	264,583
212,07	266,127
212,29	234,614
212,50	126,737
212,72	95,615
212,94	51,716
213,15	112,365
213,37	185,578
213,58	-160,887
213,80	-2077,143
214,02	10780,000
214,23	321,277
214,45	450,361
214,67	-1411,707
214,88	-303,893
215,10	-319,472
215,31	144,672
215,53	-56,000
215,75	293,670
215,96	1529,565
216,18	198,028
216,39	140,974
216,61	352,969
216,83	741,786
217,04	1968,090
217,26	-4,903
217,47	207,808
217,69	320,979
217,91	17,113
218,12	-74360,000
218,34	147,202
218,55	414,483
218,77	55,780
218,99	94,349
219,20	-81,364
219,42	198,415
219,63	41,023
219,85	-114,369
220,06	43,692
220,28	150,669
220,50	39,393
220,71	79,801
220,93	3152,075
221,14	-1481,600
221,36	134,876
221,58	113,527
221,79	260,678
222,01	873,793
222,22	264,211
222,44	693,933
222,65	118,207
222,87	236,783
223,09	157,017
223,30	110,738
223,52	123,473
223,73	159,512
223,95	-19,493
224,16	101,361
224,38	189,005
224,60	70,420
224,81	68,121
225,03	45,220
225,24	144,451
225,46	123,522
225,67	19,331
225,89	14,869
226,10	473,373
226,32	566,080
226,54	24,742
226,75	-63,349
226,97	103,654
227,18	136,146
227,40	54,264
227,61	84,373
227,83	37,956
228,04	124,448
228,26	71,621
228,47	54,065
228,69	130,181
228,91	94,399
229,12	84,978
229,34	23,673
229,55	44,446
229,77	57,132
229,98	-17,669
230,20	78,569
230,41	-6,181
230,63	59,836
230,84	52,311
231,06	52,884
231,27	5,010
231,49	54,811
231,71	50,062
231,92	26,267
232,14	24,291
232,35	108,367
232,57	74,292
232,78	29,151
233,00	59,815
233,21	52,586
233,43	19,323
233,64	14,623
233,86	33,858
234,07	40,831
234,29	24,654
234,50	11,831
234,72	41,621
234,93	16,353
235,15	19,682
235,36	33,718
235,58	42,988
235,79	37,392
236,01	26,079
236,22	3,774
236,44	35,197
236,65	19,942
236,87	31,348
237,08	1,946
237,30	-1,306
237,51	18,067
237,73	-4,151
237,94	10,499
238,16	31,074
238,37	11,441
238,59	9,763
238,80	18,322
239,02	4,007
239,23	17,596
239,45	-7,984
239,66	23,499
239,88	21,867
240,09	23,480
240,31	3,802
240,52	7,723
240,74	21,475
240,95	8,748
241,17	6,401
241,38	2,182
241,60	11,730
241,81	20,021
242,03	2,931
242,24	12,612
242,46	19,230
242,67	8,134
242,89	5,255
243,10	16,955
243,32	20,086
243,53	18,976
243,75	14,742
243,96	7,402
244,18	15,549
244,39	12,886
244,60	4,316
244,82	3,048
245,03	20,922
245,25	4,299
245,46	20,510
245,68	7,274
245,89	22,911
246,11	12,870
246,32	12,236
246,54	7,679
246,75	4,992
246,97	5,885
247,18	18,551
247,39	8,063
247,61	11,391
247,82	1,399
248,04	6,920
248,25	5,447
248,47	10,348
248,68	14,526
248,90	0,512
249,11	9,379
249,33	19,258
249,54	3,272
249,75	14,164
249,97	2,635
250,18	10,382
250,40	19,525
250,61	-4,534
250,83	0,132
251,04	1,707
251,25	11,376
251,47	-1,075
251,68	5,940
251,90	10,226
252,11	10,722
252,33	4,944
252,54	9,155
252,76	5,236
252,97	3,220
253,18	0,079
253,40	7,348
253,61	4,590
253,83	12,002
254,04	7,888
254,25	3,194
254,47	-0,245
254,68	11,502
254,90	5,754
255,11	9,557
255,33	6,056
255,54	4,863
255,75	5,934
255,97	6,494
256,18	1,789
256,40	7,668
256,61	7,752
256,82	-2,905
257,04	10,216
257,25	-0,441
257,47	3,935
257,68	-0,394
257,89	9,493
258,11	8,762
258,32	6,757
258,54	4,299
258,75	10,473
258,96	11,631
259,18	5,276
259,39	3,120
259,61	7,500
259,82	5,698
260,03	4,266
260,25	8,200
260,46	5,616
260,68	4,530
260,89	3,105
261,10	6,139
261,32	4,340
261,53	7,675
261,75	6,058
261,96	1,689
262,17	8,219
262,39	9,005
262,60	2,304
262,81	0,233
263,03	8,667
263,24	4,156
263,46	3,470
263,67	2,013
263,88	4,521
264,10	10,983
264,31	0,980
264,52	4,376
264,74	8,539
264,95	3,742
265,17	6,821
265,38	2,649
265,59	10,761
265,81	7,174
266,02	-0,015
266,23	-0,552
266,45	7,076
266,66	7,523
266,87	5,049
267,09	4,639
267,30	7,070
267,52	5,404
267,73	3,010
267,94	5,153
268,16	6,143
268,37	4,272
268,58	6,851
268,80	4,074
269,01	7,446
269,22	7,155
269,44	6,641
269,65	10,216
269,86	3,978
270,08	6,819
270,29	1,916
270,50	5,717
270,72	8,254
270,93	4,182
271,14	4,880
271,36	4,315
271,57	7,792
271,78	3,305
272,00	5,873
272,21	6,311
272,42	4,053
272,64	8,305
272,85	3,872
273,06	2,443
273,28	6,161
273,49	6,804
273,70	5,178
273,92	7,017
274,13	7,926
274,34	3,789
274,56	5,969
274,77	0,877
274,98	7,609
275,20	3,766
275,41	7,071
275,62	6,174
275,84	6,619
276,05	11,619
276,26	4,536
276,47	1,613
276,69	8,053
276,90	7,293
277,11	1,796
277,33	2,658
277,54	6,461
277,75	6,961
277,97	2,457
278,18	-0,859
278,39	7,436
278,61	4,840
278,82	4,386
279,03	4,437
279,24	4,030
279,46	5,639
279,67	8,617
279,88	1,804
280,10	8,247
280,31	2,125
280,52	4,160
280,73	2,624
280,95	9,371
281,16	7,549
281,37	4,362
281,59	8,456
281,80	9,549
282,01	4,676
282,22	4,506
282,44	4,070
282,65	14,044
282,86	4,888
283,08	2,879
283,29	5,074
283,50	3,771
283,71	4,726
283,93	4,863
284,14	6,689
284,35	4,274
284,56	6,458
284,78	0,722
284,99	5,511
285,20	9,107
285,42	6,552
285,63	5,380
285,84	0,973
286,05	3,244
286,27	5,426
286,48	2,577
286,69	2,561
286,90	5,190
287,12	2,340
287,33	1,829
287,54	1,869
287,75	7,161
287,97	7,444
288,18	4,527
288,39	1,378
288,60	7,519
288,82	5,684
289,03	3,931
289,24	5,948
289,45	6,058
289,67	5,717
289,88	2,375
290,09	6,055
290,30	4,486
290,52	2,238
290,73	3,758
290,94	-2,676
291,15	3,356
291,37	6,179
291,58	2,727
291,79	2,045
292,00	5,399
292,21	6,564
292,43	3,070
292,64	1,254
292,85	2,454
293,06	6,682
293,28	0,253
293,49	0,465
293,70	7,516
293,91	3,764
294,12	5,182
294,34	5,372
294,55	5,908
294,76	2,254
294,97	5,557
295,19	0,688
295,40	7,493
295,61	5,943
295,82	0,274
296,03	3,536
296,25	7,188
296,46	4,336
296,67	1,880
296,88	-2,110
297,09	7,853
297,31	4,563
297,52	3,803
297,73	2,887
297,94	6,517
298,15	7,446
298,37	2,972
298,58	3,521
298,79	5,590
299,00	1,352
299,21	2,185
299,43	4,173
299,64	9,031
299,85	5,942
300,06	3,647
300,27	1,114
300,49	9,042
300,70	3,977
300,91	5,604
301,12	3,620
301,33	5,632
301,54	5,277
301,76	4,067
301,97	1,982
302,18	2,229
302,39	6,357
302,60	12,868
302,82	4,436
303,03	6,857
303,24	4,355
303,45	6,962
303,66	1,911
303,87	4,535
304,09	7,597
304,30	1,862
304,51	3,016
304,72	1,678
304,93	6,559
305,14	6,259
305,36	3,114
305,57	1,884
305,78	5,974
305,99	4,504
306,20	6,210
306,41	0,894
306,62	2,180
306,84	3,176
307,05	1,214
307,26	4,016
307,47	8,314
307,68	4,583
307,89	3,336
308,11	6,934
308,32	1,593
308,53	4,153
308,74	1,419
308,95	3,889
309,16	5,971
309,37	6,902
309,59	2,892
309,80	6,102
310,01	6,479
310,22	3,948
310,43	3,691
310,64	7,248
310,85	5,830
311,06	3,700
311,28	3,580
311,49	3,961
311,70	8,115
311,91	0,688
312,12	2,265
312,33	4,341
312,54	5,288
312,75	4,577
312,97	3,454
313,18	8,343
313,39	4,056
313,60	4,213
313,81	3,748
314,02	5,820
314,23	4,889
314,44	0,328
314,65	3,931
314,87	2,323
315,08	2,608
315,29	7,275
315,50	5,207
315,71	3,469
315,92	8,412
316,13	4,712
316,34	5,471
316,55	3,461
316,77	2,286
316,98	3,619
317,19	2,166
317,40	4,910
317,61	5,435
317,82	1,692
318,03	2,086
318,24	4,374
318,45	7,350
318,66	4,268
318,87	1,677
319,09	6,173
319,30	3,116
319,51	5,742
319,72	5,563
319,93	4,405
320,14	8,111
320,35	7,245
320,56	2,597
320,77	2,207
320,98	7,673
321,19	3,979
321,40	3,302
321,62	5,563
321,83	4,777
322,04	2,545
322,25	2,782
322,46	8,072
322,67	6,163
322,88	5,539
323,09	4,006
323,30	8,335
323,51	8,552
323,72	3,016
323,93	1,062
324,14	3,223
324,35	2,468
324,56	2,442
324,77	4,273
324,99	0,456
325,20	0,547
325,41	4,286
325,62	4,249
325,83	2,284
326,04	2,227
326,25	4,944
326,46	3,304
326,67	3,531
326,88	7,081
327,09	4,734
327,30	2,049
327,51	3,945
327,72	5,981
327,93	6,198
328,14	0,556
328,35	1,880
328,56	4,618
328,77	3,830
328,98	5,110
329,19	5,177
329,40	4,222
329,61	4,175
329,82	1,307
330,04	5,183
330,25	-0,299
330,46	3,880
330,67	3,147
330,88	4,295
331,09	4,173
331,30	5,216
331,51	2,902
331,72	3,276
331,93	6,481
332,14	3,282
332,35	5,102
332,56	3,716
332,77	6,380
332,98	2,092
333,19	3,144
333,40	7,103
333,61	3,673
333,82	4,319
334,03	3,780
334,24	6,194
334,45	4,601
334,66	5,943
334,87	2,933
335,08	4,521
335,29	1,077
335,50	2,292
335,71	2,140
335,92	2,927
336,13	6,196
336,34	0,500
336,55	6,379
336,76	5,748
336,97	4,522
337,18	0,517
337,39	2,942
337,60	5,509
337,81	3,104
338,02	2,810
338,23	6,568
338,44	5,610
338,65	4,520
338,86	5,779
339,07	1,986
339,28	5,229
339,49	4,798
339,70	2,368
339,91	3,419
340,11	6,571
340,32	3,083
340,53	1,035
340,74	0,578
340,95	1,957
341,16	5,435
341,37	5,179
341,58	2,425
341,79	5,098
342,00	2,487
342,21	3,819
342,42	6,357
342,63	2,415
342,84	-0,916
343,05	4,437
343,26	5,059
343,47	5,664
343,68	1,992
343,89	4,622
344,10	5,595
344,31	7,459
344,52	4,558
344,73	2,567
344,94	5,232
345,14	6,055
345,35	3,161
345,56	3,470
345,77	3,048
345,98	2,541
346,19	2,524
346,40	1,106
346,61	3,863
346,82	3,932
347,03	3,368
347,24	7,056
347,45	3,602
347,66	7,267
347,87	4,928
348,08	4,292
348,28	0,360
348,49	5,701
348,70	8,226
348,91	4,911
349,12	-0,866
349,33	16,433
349,54	2,140
349,75	5,601
349,96	4,086
350,17	6,765
350,38	-0,333
350,59	4,132
350,80	2,960
351,00	6,038
351,21	7,392
351,42	1,836
351,63	2,384
351,84	4,833
352,05	7,759
352,26	5,902
352,47	4,894
352,68	7,138
352,89	7,845
353,09	6,918
353,30	-2,389
353,51	3,614
353,72	7,042
353,93	6,973
354,14	-0,412
354,35	2,543
354,56	7,022
354,77	5,922
354,98	-0,161
355,18	7,277
355,39	9,964
355,60	4,233
355,81	4,360
356,02	6,427
356,23	4,335
356,44	2,388
356,65	6,149
356,85	8,907
357,06	7,464
357,27	6,525
357,48	2,328
357,69	4,823
357,90	3,417
358,11	2,137
358,32	4,195
358,52	7,855
358,73	0,550
358,94	4,986
359,15	5,675
359,36	7,416
359,57	5,602
359,78	4,310
359,98	3,141
360,19	-0,343
360,40	7,157
360,61	8,124
360,82	2,896
361,03	6,049
361,24	6,200
361,44	1,320
361,65	4,136
361,86	1,923
362,07	2,110
362,28	6,152
362,49	2,909
362,70	3,662
362,90	5,780
363,11	0,730
363,32	0,358
363,53	5,444
363,74	8,352
363,95	4,652
364,15	5,293
364,36	8,814
364,57	4,480
364,78	3,317
364,99	3,388
365,20	5,559
365,40	6,334
365,61	1,262
365,82	5,301
366,03	7,443
366,24	4,211
366,45	3,122
366,65	6,607
366,86	4,923
367,07	3,511
367,28	5,920
367,49	5,036
367,69	6,611
367,90	4,724
368,11	4,315
368,32	2,694
368,53	7,030
368,73	4,181
368,94	2,359
369,15	4,562
369,36	8,821
369,57	4,103
369,78	1,674
369,98	4,268
370,19	7,490
370,40	4,187
370,61	4,121
370,82	2,846
371,02	5,582
371,23	8,156
371,44	3,429
371,65	6,420
371,85	7,331
372,06	3,645
372,27	6,423
372,48	4,524
372,69	5,149
372,89	5,560
373,10	5,083
373,31	4,422
373,52	6,058
373,73	10,085
373,93	3,959
374,14	3,903
374,35	3,957
374,56	7,260
374,76	3,952
374,97	1,678
375,18	3,697
375,39	3,052
375,60	6,935
375,80	4,373
376,01	3,439
376,22	6,612
376,43	2,997
376,63	4,612
376,84	4,427
377,05	2,538
377,26	3,730
377,46	2,130
377,67	4,222
377,88	5,925
378,09	4,989
378,29	1,972
378,50	5,030
378,71	8,117
378,92	1,618
379,12	3,991
379,33	4,729
379,54	8,675
379,75	5,415
379,95	3,188
380,16	3,938
380,37	8,845
380,58	3,610
380,78	8,366
380,99	2,654
381,20	4,820
381,41	3,867
381,61	7,493
381,82	6,086
382,03	3,518
382,24	4,378
382,44	4,613
382,65	3,817
382,86	7,512
383,06	4,959
383,27	4,254
383,48	2,546
383,69	7,169
383,89	4,057
384,10	6,075
384,31	5,744
384,51	6,740
384,72	9,743
384,93	2,684
385,14	2,391
385,34	5,442
385,55	3,065
385,76	1,757
385,96	8,956
386,17	5,862
386,38	4,807
386,59	7,608
386,79	5,039
387,00	6,028
387,21	8,299
387,41	5,495
387,62	2,038
387,83	10,458
388,03	3,975
388,24	3,918
388,45	7,278
388,66	5,704
388,86	4,115
389,07	2,762
389,28	10,202
389,48	5,201
389,69	3,550
389,90	5,101
390,10	6,067
390,31	5,869
390,52	-0,344
390,72	3,544
390,93	5,656
391,14	4,855
391,34	4,953
391,55	7,085
391,76	8,221
391,96	5,938
392,17	3,696
392,38	6,333
392,58	6,399
392,79	5,429
393,00	0,955
393,20	1,765
393,41	2,850
393,62	6,244
393,82	2,112
394,03	1,790
394,24	4,891
394,44	5,656
394,65	5,412
394,86	2,050
395,06	8,436
395,27	3,725
395,48	3,057
395,68	6,158
395,89	4,006
396,10	7,690
396,30	4,390
396,51	1,837
396,72	5,805
396,92	0,662
397,13	6,579
397,34	1,387
397,54	5,571
397,75	0,728
397,95	1,161
398,16	7,452
398,37	4,626
398,57	4,015
398,78	8,147
398,99	7,600
399,19	6,281
399,40	6,974
399,60	1,355
399,81	4,859
400,02	4,367
400,22	8,079
400,43	5,997
400,64	5,247
400,84	3,104
401,05	5,435
401,25	5,940
401,46	4,158
401,67	5,768
401,87	4,701
402,08	-0,013
402,29	1,179
402,49	7,516
402,70	7,410
402,90	1,791
403,11	6,375
403,32	4,096
403,52	8,671
403,73	5,064
403,93	7,046
404,14	8,238
404,35	4,247
404,55	0,922
404,76	1,906
404,96	9,664
405,17	8,671
405,38	6,432
405,58	2,780
405,79	11,649
405,99	8,634
406,20	4,127
406,40	1,860
406,61	8,390
406,82	6,922
407,02	7,323
407,23	4,092
407,43	6,384
407,64	-0,991
407,85	4,943
408,05	-0,610
408,26	11,401
408,46	6,947
408,67	2,820
408,87	1,947
409,08	3,227
409,29	8,270
409,49	3,729
409,70	7,297
409,90	5,038
410,11	4,537
410,31	10,703
410,52	6,998
410,72	4,631
410,93	10,056
411,14	4,760
411,34	2,496
411,55	11,726
411,75	9,420
411,96	6,589
412,16	5,841
412,37	5,422
412,57	6,100
412,78	8,857
412,99	9,495
413,19	8,156
413,40	7,613
413,60	1,943
413,81	4,872
414,01	6,431
414,22	4,985
414,42	4,361
414,63	1,722
414,83	7,606
415,04	9,994
415,24	7,824
415,45	7,286
415,65	5,746
415,86	3,263
416,07	8,177
416,27	8,108
416,48	12,469
416,68	8,612
416,89	1,489
417,09	8,069
417,30	13,557
417,50	6,734
417,71	5,315
417,91	9,767
418,12	6,046
418,32	7,085
418,53	6,652
418,73	4,915
418,94	3,762
419,14	8,855
419,35	5,425
419,55	7,778
419,76	5,410
419,96	6,927
420,17	9,028
420,37	7,360
420,58	14,091
420,78	7,735
420,99	5,298
421,19	10,356
421,40	7,920
421,60	12,217
421,81	7,977
422,01	5,576
422,22	4,754
422,42	8,380
422,63	9,157
422,83	5,113
423,04	10,401
423,24	10,766
423,45	3,646
423,65	10,198
423,86	13,368
424,06	13,614
424,27	2,559
424,47	6,623
424,67	5,598
424,88	9,918
425,08	9,906
425,29	17,089
425,49	6,854
425,70	0,101
425,90	8,929
426,11	7,360
426,31	7,987
426,52	11,472
426,72	4,975
426,93	7,187
427,13	10,952
427,33	7,180
427,54	7,612
427,74	10,265
427,95	13,348
428,15	6,766
428,36	11,147
428,56	5,832
428,77	10,757
428,97	10,160
429,18	9,366
429,38	6,604
429,58	10,615
429,79	7,527
429,99	8,940
430,20	3,785
430,40	12,500
430,61	6,491
430,81	8,127
431,01	12,500
431,22	11,710
431,42	10,346
431,63	8,468
431,83	6,876
432,04	10,446
432,24	14,770
432,44	7,092
432,65	5,710
432,85	8,298
433,06	11,099
433,26	9,215
433,47	6,643
433,67	9,679
433,87	7,205
434,08	7,517
434,28	9,705
434,49	4,902
434,69	15,896
434,89	8,943
435,10	6,835
435,30	12,869
435,51	6,541
435,71	9,509
435,91	3,407
436,12	11,025
436,32	7,912
436,53	10,544
436,73	10,172
436,93	8,913
437,14	12,680
437,34	11,333
437,55	7,990
437,75	8,901
437,95	10,165
438,16	9,958
438,36	12,505
438,57	5,088
438,77	8,611
438,97	12,260
439,18	9,837
439,38	8,949
439,58	9,647
439,79	8,536
439,99	10,562
440,20	15,769
440,40	14,756
440,60	8,865
440,81	11,232
441,01	7,607
441,21	13,437
441,42	13,060
441,62	11,237
441,83	11,518
442,03	9,101
442,23	12,712
442,44	9,825
442,64	12,285
442,84	10,266
443,05	9,017
443,25	6,809
443,45	9,366
443,66	14,483
443,86	10,019
444,06	11,321
444,27	9,916
444,47	11,594
444,67	5,468
444,88	11,683
445,08	12,162
445,28	13,942
445,49	9,407
445,69	10,668
445,90	11,396
446,10	14,221
446,30	13,225
446,51	8,240
446,71	13,638
446,91	16,696
447,12	15,536
447,32	8,999
447,52	16,036
447,72	12,551
447,93	8,790
448,13	9,266
448,33	18,163
448,54	15,040
448,74	10,244
448,94	13,951
449,15	16,937
449,35	11,570
449,55	14,512
449,76	15,924
449,96	15,855
450,16	15,882
450,37	9,213
450,57	11,464
450,77	9,600
450,98	16,819
451,18	15,663
451,38	15,186
451,58	18,850
451,79	17,569
451,99	14,261
452,19	11,618
452,40	17,127
452,60	9,646
452,80	13,778
453,00	16,205
453,21	14,915
453,41	16,891
453,61	11,682
453,82	19,493
454,02	10,611
454,22	19,662
454,42	17,484
454,63	13,480
454,83	14,124
455,03	17,502
455,24	17,208
455,44	15,878
455,64	13,343
455,84	12,431
456,05	14,336
456,25	12,067
456,45	17,674
456,65	17,480
456,86	16,609
457,06	19,671
457,26	22,828
457,47	21,012
457,67	17,728
457,87	15,103
458,07	16,303
458,28	20,441
458,48	19,047
458,68	13,856
458,88	22,321
459,09	17,611
459,29	22,164
459,49	16,054
459,69	17,557
459,90	14,901
460,10	14,633
460,30	19,176
460,50	16,294
460,71	21,009
460,91	17,914
461,11	19,491
461,31	14,701
461,52	20,716
461,72	19,073
461,92	19,470
462,12	27,060
462,32	13,220
462,53	19,021
462,73	20,221
462,93	23,515
463,13	23,279
463,34	18,604
463,54	19,980
463,74	20,848
463,94	23,895
464,14	22,453
464,35	18,035
464,55	23,351
464,75	24,210
464,95	22,929
465,16	17,446
465,36	21,404
465,56	19,966
465,76	18,600
465,96	20,546
466,17	19,224
466,37	16,089
466,57	24,572
466,77	24,405
466,97	19,525
467,18	26,901
467,38	22,504
467,58	24,614
467,78	28,186
467,98	24,048
468,19	26,272
468,39	26,530
468,59	24,096
468,79	25,691
468,99	23,247
469,19	25,227
469,40	25,464
469,60	14,305
469,80	20,175
470,00	24,790
470,20	28,710
470,41	23,185
470,61	25,614
470,81	22,102
471,01	24,474
471,21	24,359
471,41	22,743
471,62	27,143
471,82	23,525
472,02	23,355
472,22	25,820
472,42	26,223
472,62	28,288
472,83	26,549
473,03	31,472
473,23	26,468
473,43	31,509
473,63	31,232
473,83	28,755
474,03	25,255
474,24	38,161
474,44	29,634
474,64	30,483
474,84	26,006
475,04	30,751
475,24	30,408
475,45	28,361
475,65	27,636
475,85	31,028
476,05	25,869
476,25	28,629
476,45	27,583
476,65	35,811
476,85	31,732
477,06	29,883
477,26	28,009
477,46	32,686
477,66	32,438
477,86	30,884
478,06	30,902
478,26	33,581
478,46	28,242
478,67	31,535
478,87	29,041
479,07	30,010
479,27	33,695
479,47	32,745
479,67	29,258
479,87	30,167
480,07	34,552
480,28	34,771
480,48	33,185
480,68	32,778
480,88	36,481
481,08	32,938
481,28	32,859
481,48	31,892
481,68	34,096
481,88	31,780
482,08	33,686
482,29	37,851
482,49	33,845
482,69	34,215
482,89	33,961
483,09	34,713
483,29	32,076
483,49	34,171
483,69	33,645
483,89	34,829
484,09	33,619
484,29	30,322
484,50	35,568
484,70	36,507
484,90	34,316
485,10	34,525
485,30	37,733
485,50	39,790
485,70	37,774
485,90	34,404
486,10	34,106
486,30	34,621
486,50	34,933
486,70	34,815
486,90	36,198
487,10	38,370
487,30	34,118
487,51	34,540
487,71	33,068
487,91	33,469
488,11	36,071
488,31	33,137
488,51	38,401
488,71	36,855
488,91	38,359
489,11	33,318
489,31	35,271
489,51	36,574
489,71	36,908
489,91	37,109
490,11	36,222
490,31	38,663
490,51	39,018
490,71	38,380
490,91	36,358
491,11	40,283
491,31	37,909
491,51	35,054
491,72	40,795
491,92	40,444
492,12	42,846
492,32	41,411
492,52	42,849
492,72	40,037
492,92	41,703
493,12	41,297
493,32	39,308
493,52	39,326
493,72	41,934
493,92	41,491
494,12	41,037
494,32	42,761
494,52	41,453
494,72	41,609
494,92	40,543
495,12	43,743
495,32	42,414
495,52	41,635
495,72	43,932
495,92	48,150
496,12	47,771
496,32	41,545
496,52	40,999
496,72	41,075
496,92	45,770
497,12	46,270
497,32	46,653
497,52	43,963
497,72	46,309
497,92	45,040
498,12	43,667
498,32	46,052
498,52	45,394
498,72	42,323
498,92	41,264
499,12	48,822
499,32	42,405
499,52	48,302
499,72	47,426
499,92	48,079
500,12	46,169
500,32	49,262
500,52	46,416
500,72	52,605
500,91	51,360
501,11	47,279
501,31	43,783
501,51	48,229
501,71	48,704
501,91	47,340
502,11	48,691
502,31	47,470
502,51	49,820
502,71	47,614
502,91	45,934
503,11	49,244
503,31	48,660
503,51	47,132
503,71	47,578
503,91	49,824
504,11	50,432
504,31	50,162
504,51	51,068
504,71	52,618
504,91	49,687
505,10	47,941
505,30	50,622
505,50	49,925
505,70	49,594
505,90	50,522
506,10	46,827
506,30	50,236
506,50	50,028
506,70	53,084
506,90	49,732
507,10	49,813
507,30	50,156
507,50	49,227
507,70	50,528
507,89	49,542
508,09	50,398
508,29	49,959
508,49	52,675
508,69	52,574
508,89	49,875
509,09	48,434
509,29	51,317
509,49	55,208
509,69	58,429
509,89	51,942
510,09	51,337
510,28	51,706
510,48	51,515
510,68	49,363
510,88	53,571
511,08	52,035
511,28	51,955
511,48	51,259
511,68	54,113
511,88	49,596
512,07	51,587
512,27	52,950
512,47	52,643
512,67	49,526
512,87	50,820
513,07	52,996
513,27	49,702
513,47	50,910
513,67	51,550
513,86	51,670
514,06	52,452
514,26	53,931
514,46	53,780
514,66	51,127
514,86	50,433
515,06	54,366
515,26	56,661
515,45	53,665
515,65	51,332
515,85	52,604
516,05	52,344
516,25	53,698
516,45	51,931
516,65	53,431
516,84	52,615
517,04	54,519
517,24	54,345
517,44	54,562
517,64	56,562
517,84	55,973
518,04	55,393
518,23	55,954
518,43	58,436
518,63	50,895
518,83	52,082
519,03	53,599
519,23	55,309
519,42	53,352
519,62	55,040
519,82	51,325
520,02	54,480
520,22	52,003
520,42	52,858
520,61	54,771
520,81	55,386
521,01	52,494
521,21	50,702
521,41	53,380
521,61	54,124
521,80	52,076
522,00	54,097
522,20	56,493
522,40	56,789
522,60	55,108
522,79	51,745
522,99	56,031
523,19	53,743
523,39	54,824
523,59	53,325
523,78	56,936
523,98	51,715
524,18	56,590
524,38	53,295
524,58	56,276
524,77	57,401
524,97	56,969
525,17	52,801
525,37	53,320
525,57	59,732
525,76	51,781
525,96	55,832
526,16	52,705
526,36	53,449
526,56	53,198
526,75	52,008
526,95	54,753
527,15	54,523
527,35	54,224
527,55	54,374
527,74	56,932
527,94	52,979
528,14	52,683
528,34	52,524
528,53	55,731
528,73	57,224
528,93	56,177
529,13	54,375
529,32	55,877
529,52	54,391
529,72	52,848
529,92	54,799
530,12	53,569
530,31	55,677
530,51	54,037
530,71	55,411
530,91	55,339
531,10	51,308
531,30	54,274
531,50	54,686
531,70	57,135
531,89	53,960
532,09	53,837
532,29	52,669
532,49	52,509
532,68	55,401
532,88	53,898
533,08	51,704
533,28	53,901
533,47	52,613
533,67	55,772
533,87	53,047
534,06	56,746
534,26	54,380
534,46	52,725
534,66	54,164
534,85	56,935
535,05	49,945
535,25	56,319
535,45	52,699
535,64	57,420
535,84	54,922
536,04	52,841
536,23	53,858
536,43	55,783
536,63	53,473
536,83	54,964
537,02	51,790
537,22	50,629
537,42	49,753
537,61	52,273
537,81	51,669
538,01	50,547
538,20	52,455
538,40	52,446
538,60	52,381
538,80	51,692
538,99	48,098
539,19	48,186
539,39	47,259
539,58	46,105
539,78	44,644
539,98	44,927
540,17	45,321
540,37	44,892
540,57	42,394
540,76	40,727
540,96	40,090
541,16	43,208
541,36	40,825
541,55	37,293
541,75	38,241
541,95	39,819
542,14	38,135
542,34	37,991
542,54	36,704
542,73	38,512
542,93	39,010
543,13	36,619
543,32	36,204
543,52	35,149
543,72	36,514
543,91	35,664
544,11	36,512
544,31	35,571
544,50	35,792
544,70	39,751
544,89	38,552
545,09	38,977
545,29	38,551
545,48	39,310
545,68	38,602
545,88	41,985
546,07	39,501
546,27	39,914
546,47	41,553
546,66	43,664
546,86	44,076
547,06	42,310
547,25	44,112
547,45	46,650
547,64	46,208
547,84	48,408
548,04	45,999
548,23	51,087
548,43	49,712
548,63	52,844
548,82	48,310
549,02	45,615
549,21	48,141
549,41	51,183
549,61	49,679
549,80	49,031
550,00	49,404
550,20	49,827
550,39	51,280
550,59	47,842
550,78	52,697
550,98	48,203
551,18	51,836
551,37	51,820
551,57	51,398
551,76	49,657
551,96	50,347
552,16	49,953
552,35	50,688
552,55	49,443
552,74	52,787
552,94	53,168
553,14	51,149
553,33	51,755
553,53	53,501
553,72	53,319
553,92	56,049
554,12	50,992
554,31	54,431
554,51	52,763
554,70	50,941
554,90	52,532
555,09	56,822
555,29	55,963
555,49	53,803
555,68	56,058
555,88	52,230
556,07	51,763
556,27	55,879
556,46	52,943
556,66	53,857
556,86	57,179
557,05	54,090
557,25	52,503
557,44	53,491
557,64	51,176
557,83	53,863
558,03	54,030
558,22	52,612
558,42	55,404
558,62	57,527
558,81	54,326
559,01	51,428
559,20	56,693
559,40	54,885
559,59	54,313
559,79	53,334
559,98	56,007
560,18	56,774
560,37	55,734
560,57	52,137
560,76	52,141
560,96	52,927
561,16	52,053
561,35	54,357
561,55	57,415
561,74	54,374
561,94	56,461
562,13	53,253
562,33	55,504
562,52	52,430
562,72	54,270
562,91	53,682
563,11	56,184
563,30	55,604
563,50	53,089
563,69	52,382
563,89	52,239
564,08	52,514
564,28	52,939
564,47	52,956
564,67	52,845
564,86	56,239
565,06	53,098
565,25	53,924
565,45	54,965
565,64	56,515
565,84	53,604
566,03	52,394
566,23	55,461
566,42	55,562
566,62	55,685
566,81	52,578
567,01	53,985
567,20	55,554
567,40	53,468
567,59	53,259
567,79	56,352
567,98	56,952
568,18	54,051
568,37	55,977
568,57	55,198
568,76	56,587
568,96	54,277
569,15	52,953
569,35	56,537
569,54	57,808
569,73	55,868
569,93	53,793
570,12	53,813
570,32	57,421
570,51	56,215
570,71	57,502
570,90	56,891
571,10	54,164
571,29	54,345
571,49	53,146
571,68	55,368
571,87	57,026
572,07	54,742
572,26	54,549
572,46	56,166
572,65	56,200
572,85	53,525
573,04	53,732
573,24	55,886
573,43	59,220
573,62	56,818
573,82	54,695
574,01	54,529
574,21	54,011
574,40	52,788
574,60	53,933
574,79	57,259
574,98	52,906
575,18	55,949
575,37	53,155
575,57	54,463
575,76	54,411
575,96	54,939
576,15	54,594
576,34	55,319
576,54	55,127
576,73	55,306
576,93	54,561
577,12	55,036
577,31	54,160
577,51	53,680
577,70	52,915
577,90	54,418
578,09	54,113
578,28	53,419
578,48	54,046
578,67	55,340
578,87	54,125
579,06	52,803
579,25	53,330
579,45	54,590
579,64	52,303
579,84	52,870
580,03	52,241
580,22	55,650
580,42	52,569
580,61	52,716
580,81	52,404
581,00	53,550
581,19	54,796
581,39	53,278
581,58	54,268
581,77	54,041
581,97	57,270
582,16	51,993
582,35	53,212
582,55	52,776
582,74	54,535
582,94	53,546
583,13	50,722
583,32	52,206
583,52	52,777
583,71	53,487
583,90	53,954
584,10	52,756
584,29	54,337
584,48	51,468
584,68	52,954
584,87	54,297
585,06	53,533
585,26	52,171
585,45	50,611
585,65	52,990
585,84	51,523
586,03	52,803
586,23	51,709
586,42	53,140
586,61	52,743
586,81	52,402
587,00	52,605
587,19	51,142
587,39	54,017
587,58	52,925
587,77	52,461
587,97	51,978
588,16	52,226
588,35	53,090
588,54	52,391
588,74	52,232
588,93	53,358
589,12	52,549
589,32	52,684
589,51	51,590
589,70	51,166
589,90	52,201
590,09	50,908
590,28	55,961
590,48	50,065
590,67	51,566
590,86	54,386
591,06	51,367
591,25	54,123
591,44	53,728
591,63	50,773
591,83	52,983
592,02	53,042
592,21	52,212
592,41	51,130
592,60	54,753
592,79	52,533
592,98	53,638
593,18	51,899
593,37	53,036
593,56	53,534
593,76	53,516
593,95	53,961
594,14	53,785
594,33	55,798
594,53	52,872
594,72	52,886
594,91	57,298
595,10	56,430
595,30	52,103
595,49	52,550
595,68	54,019
595,88	53,841
596,07	53,217
596,26	53,143
596,45	53,477
596,65	49,621
596,84	50,535
597,03	53,876
597,22	53,891
597,42	56,994
597,61	52,277
597,80	53,014
597,99	53,110
598,19	56,041
598,38	56,785
598,57	54,904
598,76	54,576
598,95	56,602
599,15	54,154
599,34	54,510
599,53	55,596
599,72	53,801
599,92	54,896
600,11	53,485
600,30	53,770
600,49	55,693
600,69	53,050
600,88	53,614
601,07	53,771
601,26	53,568
601,45	53,467
601,65	54,347
601,84	55,134
602,03	53,739
602,22	56,163
602,42	55,160
602,61	53,927
602,80	54,524
602,99	52,303
603,18	53,529
603,38	54,685
603,57	53,013
603,76	54,135
603,95	53,842
604,14	55,234
604,34	53,401
604,53	53,050
604,72	55,397
604,91	52,956
605,10	53,989
605,29	54,411
605,49	51,375
605,68	54,380
605,87	54,789
606,06	52,810
606,25	52,962
606,45	51,426
606,64	54,188
606,83	54,803
607,02	52,080
607,21	53,731
607,40	52,708
607,60	50,324
607,79	51,574
607,98	50,247
608,17	49,342
608,36	48,629
608,55	49,475
608,75	48,731
608,94	47,923
609,13	43,277
609,32	43,113
609,51	45,159
609,70	43,656
609,89	45,305
610,09	43,685
610,28	45,445
610,47	43,171
610,66	43,595
610,85	40,407
611,04	43,639
611,23	42,732
611,43	42,185
611,62	42,421
611,81	42,253
612,00	43,301
612,19	41,941
612,38	43,252
612,57	44,819
612,77	44,933
612,96	44,089
613,15	43,809
613,34	47,264
613,53	48,012
613,72	47,457
613,91	47,702
614,10	48,211
614,29	49,554
614,49	47,902
614,68	47,882
614,87	47,664
615,06	52,144
615,25	47,723
615,44	49,547
615,63	50,866
615,82	48,104
616,01	50,601
616,21	49,326
616,40	50,510
616,59	52,105
616,78	50,587
616,97	51,801
617,16	52,047
617,35	52,143
617,54	50,772
617,73	52,791
617,92	49,855
618,11	51,522
618,31	51,178
618,50	51,456
618,69	49,303
618,88	51,497
619,07	49,197
619,26	49,925
619,45	49,369
619,64	50,671
619,83	48,622
620,02	48,076
620,21	52,700
620,40	51,999
620,59	49,631
620,78	48,995
620,97	51,276
621,17	50,463
621,36	49,560
621,55	47,508
621,74	52,047
621,93	49,203
622,12	51,178
622,31	47,999
622,50	50,267
622,69	52,667
622,88	51,918
623,07	53,972
623,26	51,618
623,45	52,965
623,64	51,153
623,83	50,322
624,02	52,085
624,21	52,122
624,40	51,223
624,59	49,974
624,78	53,383
624,97	52,447
625,16	50,143
625,35	48,794
625,54	49,368
625,73	50,216
625,92	52,483
626,12	52,866
626,31	52,581
626,50	50,431
626,69	51,132
626,88	49,773
627,07	52,760
627,26	52,561
627,45	50,320
627,64	50,958
627,83	51,385
628,02	49,545
628,21	50,390
628,40	50,094
628,59	51,048
628,78	48,746
628,97	47,588
629,16	48,680
629,35	48,947
629,54	53,194
629,73	49,451
629,92	48,918
630,10	50,340
630,29	51,576
630,48	49,610
630,67	47,895
630,86	52,268
631,05	50,488
631,24	52,556
631,43	47,984
631,62	48,915
631,81	50,293
632,00	49,974
632,19	49,275
632,38	50,254
632,57	51,765
632,76	50,950
632,95	52,015
633,14	53,788
633,33	49,887
633,52	50,099
633,71	52,186
633,90	50,958
634,09	51,929
634,28	53,020
634,47	50,146
634,66	51,750
634,85	51,009
635,04	53,259
635,22	49,691
635,41	50,425
635,60	54,158
635,79	51,671
635,98	51,088
636,17	51,544
636,36	51,317
636,55	52,860
636,74	49,232
636,93	51,674
637,12	51,773
637,31	50,343
637,50	50,545
637,69	51,886
637,87	54,483
638,06	51,587
638,25	51,868
638,44	50,762
638,63	47,576
638,82	51,289
639,01	51,578
639,20	51,080
639,39	52,589
639,58	50,465
639,77	52,063
639,95	48,932
640,14	51,504
640,33	52,623
640,52	51,769
640,71	53,878
640,90	49,058
641,09	51,788
641,28	50,917
641,47	52,737
641,66	50,258
641,84	49,953
642,03	50,315
642,22	51,669
642,41	54,487
642,60	51,120
642,79	51,120
642,98	50,756
643,17	50,732
643,35	49,577
643,54	49,627
643,73	53,226
643,92	52,167
644,11	50,670
644,30	49,959
644,49	53,439
644,67	52,017
644,86	49,235
645,05	51,638
645,24	50,539
645,43	51,919
645,62	50,812
645,81	50,990
645,99	54,219
646,18	53,178
646,37	50,147
646,56	51,389
646,75	51,533
646,94	53,555
647,13	50,180
647,31	49,286
647,50	50,217
647,69	52,358
647,88	51,295
648,07	50,321
648,26	55,446
648,44	50,265
648,63	49,962
648,82	50,665
649,01	54,086
649,20	49,083
649,38	52,222
649,57	51,354
649,76	50,627
649,95	53,381
650,14	50,100
650,33	50,098
650,51	50,530
650,70	52,407
650,89	50,129
651,08	49,503
651,27	50,416
651,45	49,330
651,64	47,936
651,83	49,781
652,02	52,734
652,21	52,461
652,39	52,195
652,58	51,717
652,77	49,686
652,96	52,336
653,15	51,958
653,33	51,925
653,52	54,114
653,71	53,583
653,90	52,770
654,09	53,415
654,27	53,220
654,46	53,441
654,65	52,401
654,84	53,085
655,02	55,535
655,21	54,355
655,40	55,304
655,59	52,125
655,77	56,095
655,96	53,953
656,15	54,807
656,34	55,839
656,53	52,794
656,71	53,349
656,90	53,594
657,09	53,792
657,28	52,986
657,46	53,209
657,65	54,280
657,84	50,720
658,03	52,517
658,21	52,249
658,40	51,543
658,59	50,566
658,78	51,229
658,96	51,323
659,15	51,524
659,34	52,027
659,52	52,213
659,71	52,812
659,90	50,215
660,09	50,694
660,27	49,286
660,46	52,402
660,65	51,260
660,84	49,479
661,02	49,150
661,21	50,231
661,40	50,742
661,58	50,837
661,77	49,912
661,96	47,988
662,15	50,198
662,33	49,036
662,52	51,451
662,71	50,197
662,89	49,501
663,08	48,470
663,27	50,909
663,45	51,782
663,64	50,401
663,83	49,209
664,02	49,119
664,20	49,765
664,39	48,042
664,58	49,714
664,76	50,167
664,95	51,515
665,14	50,850
665,32	49,417
665,51	51,156
665,70	51,086
665,88	50,614
666,07	49,629
666,26	51,930
666,44	52,079
666,63	51,704
666,82	49,013
667,00	51,100
667,19	49,368
667,38	51,692
667,56	51,035
667,75	50,523
667,94	50,872
668,12	48,044
668,31	50,689
668,50	51,336
668,68	50,975
668,87	49,858
669,06	49,920
669,24	51,374
669,43	49,730
669,62	48,935
669,80	48,263
669,99	50,023
670,18	49,169
670,36	47,917
670,55	51,661
670,74	51,552
670,92	49,192
671,11	50,320
671,29	50,740
671,48	51,347
671,67	51,597
671,85	51,190
672,04	49,320
672,23	47,936
672,41	48,972
672,60	49,875
672,78	50,234
672,97	50,458
673,16	50,429
673,34	50,712
673,53	49,893
673,71	50,493
673,90	51,939
674,09	49,175
674,27	48,998
674,46	50,121
674,64	49,856
674,83	48,253
675,02	48,898
675,20	50,069
675,39	49,092
675,57	50,002
675,76	49,575
675,95	51,319
676,13	50,309
676,32	51,385
676,50	49,625
676,69	46,643
676,88	49,385
677,06	49,044
677,25	50,608
677,43	52,768
677,62	51,388
677,80	50,241
677,99	50,578
678,18	50,818
678,36	52,176
678,55	48,336
678,73	49,242
678,92	50,874
679,10	51,740
679,29	49,976
679,48	50,409
679,66	48,439
679,85	51,734
680,03	50,037
680,22	49,539
680,40	49,280
680,59	48,388
680,77	50,870
680,96	48,985
681,15	48,829
681,33	51,293
681,52	48,791
681,70	49,592
681,89	52,747
682,07	50,409
682,26	49,888
682,44	49,698
682,63	50,391
682,81	50,096
683,00	49,414
683,18	47,570
683,37	50,531
683,55	49,185
683,74	51,542
683,92	54,474
684,11	50,863
684,29	51,410
684,48	48,620
684,67	50,082
684,85	51,263
685,04	51,558
685,22	51,564
685,41	49,079
685,59	51,940
685,78	50,388
685,96	49,289
686,15	48,302
686,33	49,646
686,52	50,244
686,70	49,189
686,89	51,338
687,07	51,347
687,26	52,490
687,44	51,755
687,62	49,051
687,81	50,840
687,99	49,719
688,18	49,815
688,36	50,495
688,55	52,040
688,73	51,083
688,92	47,938
689,10	49,024
689,29	52,633
689,47	51,888
689,66	50,713
689,84	51,892
690,03	52,811
690,21	50,460
690,40	50,157
690,58	49,638
690,76	49,754
690,95	50,896
691,13	50,787
691,32	48,789
691,50	49,924
691,69	51,559
691,87	49,032
692,06	50,524
692,24	49,739
692,43	50,534
692,61	49,443
692,79	50,365
692,98	48,279
693,16	51,763
693,35	50,672
693,53	51,566
693,72	52,438
693,90	52,097
694,08	50,640
694,27	49,044
694,45	53,023
694,64	51,898
694,82	50,865
695,01	50,029
695,19	51,198
695,37	49,901
695,56	50,501
695,74	52,939
695,93	51,465
696,11	48,998
696,29	50,646
696,48	50,611
696,66	53,656
696,85	51,814
697,03	49,795
697,21	51,269
697,40	51,199
697,58	53,276
697,77	50,580
697,95	52,810
698,13	52,846
698,32	47,751
698,50	50,457
698,69	49,574
698,87	52,576
699,05	50,480
699,24	48,425
699,42	49,927
699,60	48,434
699,79	52,548
699,97	49,117
700,16	47,910
700,34	51,807
700,52	50,552
700,71	50,517
700,89	49,437
701,07	51,409
701,26	51,095
701,44	51,234
701,63	47,545
701,81	52,604
701,99	52,843
702,18	47,538
702,36	48,120
702,54	48,623
702,73	49,968
702,91	49,070
703,09	50,440
703,28	49,618
703,46	51,171
703,64	49,264
703,83	50,801
704,01	50,195
704,19	48,589
704,38	48,004
704,56	48,252
704,74	51,423
704,93	49,818
705,11	50,246
705,29	49,429
705,48	52,793
705,66	51,606
705,84	48,972
706,03	47,426
706,21	49,469
706,39	48,995
706,58	49,568
706,76	48,748
706,94	51,834
707,12	50,009
707,31	49,113
707,49	48,199
707,67	51,416
707,86	51,910
708,04	49,824
708,22	48,265
708,41	47,769
708,59	50,468
708,77	47,521
708,95	49,967
709,14	51,647
709,32	50,642
709,50	48,683
709,69	48,966
709,87	49,281
710,05	50,707
710,23	50,227
710,42	49,271
710,60	50,724
710,78	51,992
710,97	50,950
711,15	49,101
711,33	52,513
711,51	48,840
711,70	47,847
711,88	48,090
712,06	51,114
712,24	50,681
712,43	51,318
712,61	47,491
712,79	50,461
712,97	50,024
713,16	50,194
713,34	48,146
713,52	50,739
713,70	51,294
713,89	48,878
714,07	49,142
714,25	50,121
714,43	51,135
714,62	49,266
714,80	50,416
714,98	47,629
715,16	49,811
715,35	47,860
715,53	49,880
715,71	50,926
715,89	51,190
716,07	50,419
716,26	55,011
716,44	51,046
716,62	51,248
716,80	51,149
716,99	50,137
717,17	52,015
717,35	50,100
717,53	49,795
717,71	50,296
717,90	49,845
718,08	50,960
718,26	49,028
718,44	52,511
718,62	50,581
718,81	50,807
718,99	48,555
719,17	49,368
719,35	50,350
719,53	49,038
719,72	49,249
719,90	49,473
720,08	50,432
720,26	51,265
720,44	48,191
720,62	50,125
720,81	52,556
720,99	53,465
721,17	51,036
721,35	49,537
721,53	52,534
721,72	52,321
721,90	51,292
722,08	50,582
722,26	51,297
722,44	50,194
722,62	49,062
722,81	49,045
722,99	50,189
723,17	48,324
723,35	50,129
723,53	50,794
723,71	52,456
723,89	52,623
724,08	46,610
724,26	51,150
724,44	48,257
724,62	50,568
724,80	50,168
724,98	50,347
725,16	53,013
725,35	49,664
725,53	48,291
725,71	48,983
725,89	50,787
726,07	52,573
726,25	51,786
726,43	50,413
726,61	50,857
726,80	51,426
726,98	49,534
727,16	50,985
727,34	50,947
727,52	51,113
727,70	48,874
727,88	49,146
728,06	47,149
728,25	48,927
728,43	50,290
728,61	48,275
728,79	51,181
728,97	49,657
729,15	49,617
729,33	52,316
729,51	51,824
729,69	51,045
729,87	50,787
730,06	50,274
730,24	50,869
730,42	52,653
730,60	48,046
730,78	50,066
730,96	51,119
731,14	50,178
731,32	48,907
731,50	47,685
731,68	50,155
731,86	51,115
732,04	48,352
732,22	49,488
732,41	54,372
732,59	50,511
732,77	50,394
732,95	53,317
733,13	52,592
733,31	50,516
733,49	48,918
733,67	51,929
733,85	51,135
734,03	52,184
734,21	51,073
734,39	49,272
734,57	54,304
734,75	52,984
734,93	47,301
735,11	49,496
735,29	49,290
735,47	52,539
735,65	48,788
735,84	49,902
736,02	50,875
736,20	53,731
736,38	51,562
736,56	50,952
736,74	49,970
736,92	51,645
737,10	51,481
737,28	50,351
737,46	50,258
737,64	52,670
737,82	49,778
738,00	52,538
738,18	51,577
738,36	48,133
738,54	48,502
738,72	49,777
738,90	52,216
739,08	51,016
739,26	47,292
739,44	49,465
739,62	51,050
739,80	52,665
739,98	50,486
740,16	49,174
740,34	49,043
740,52	51,667
740,70	51,362
740,88	47,123
741,06	49,070
741,24	49,774
741,42	50,604
741,60	49,131
741,78	50,934
741,96	48,769
742,14	50,518
742,32	47,743
742,50	49,113
742,68	50,642
742,86	50,625
743,04	48,900
743,21	49,954
743,39	52,314
743,57	49,798
743,75	49,061
743,93	49,442
744,11	45,677
744,29	48,151
744,47	49,216
744,65	49,608
744,83	49,175
745,01	49,458
745,19	50,617
745,37	52,892
745,55	52,304
745,73	51,975
745,91	50,582
746,09	49,870
746,27	50,328
746,45	46,055
746,62	49,904
746,80	50,577
746,98	49,735
747,16	48,654
747,34	50,286
747,52	49,492
747,70	50,539
747,88	49,483
748,06	50,224
748,24	50,052
748,42	50,246
748,60	50,036
748,78	48,553
748,95	51,754
749,13	52,303
749,31	49,776
749,49	51,401
749,67	52,034
749,85	53,219
750,03	49,899
750,21	48,663
750,39	49,185
750,57	50,479
750,74	51,465
750,92	50,637
751,10	50,690
751,28	49,765
751,46	50,587
751,64	50,332
751,82	50,820
752,00	52,005
752,17	49,520
752,35	48,516
752,53	50,898
752,71	50,693
752,89	49,173
753,07	50,463
753,25	51,015
753,43	48,546
753,60	52,771
753,78	49,498
753,96	52,479
754,14	49,164
754,32	52,091
754,50	49,688
754,68	53,206
754,85	50,453
755,03	50,239
755,21	51,634
755,39	53,227
755,57	50,605
755,75	50,049
755,92	48,029
756,10	50,948
756,28	51,316
756,46	49,250
756,64	49,779
756,82	51,801
756,99	52,226
757,17	49,620
757,35	48,738
757,53	52,593
757,71	49,406
757,89	49,150
758,06	50,206
758,24	52,097
758,42	50,231
758,60	49,492
758,78	50,115
758,95	50,067
759,13	50,526
759,31	48,498
759,49	49,261
759,67	50,161
759,84	50,674
760,02	49,298
760,20	49,882
760,38	50,870
760,56	48,205
760,73	51,901
760,91	51,215
761,09	51,702
761,27	51,146
761,45	48,542
761,62	49,511
761,80	50,626
761,98	50,616
762,16	50,513
762,33	49,906
762,51	52,900
762,69	51,435
762,87	51,234
763,05	48,431
763,22	49,214
763,40	49,357
763,58	49,546
763,76	50,642
763,93	53,037
764,11	51,977
764,29	45,772
764,47	50,342
764,64	52,217
764,82	51,984
765,00	48,609
765,18	48,148
765,35	48,500
765,53	48,857
765,71	49,640
765,89	49,014
766,06	47,632
766,24	50,587
766,42	51,023
766,60	49,423
766,77	49,619
766,95	49,825
767,13	50,838
767,30	50,145
767,48	50,198
767,66	50,182
767,84	49,193
768,01	50,806
768,19	50,642
768,37	50,590
768,54	48,002
768,72	50,837
768,90	50,040
769,08	51,789
769,25	51,427
769,43	49,086
769,61	49,346
769,78	49,628
769,96	50,379
770,14	51,162
770,31	49,779
770,49	52,845
770,67	50,672
770,85	48,675
771,02	51,812
771,20	50,729
771,38	52,692
771,55	51,410
771,73	50,526
771,91	51,032
772,08	51,585
772,26	50,281
772,44	48,717
772,61	51,862
772,79	50,305
772,97	50,505
773,14	46,841
773,32	51,009
773,50	50,637
773,67	50,276
773,85	50,733
774,03	49,017
774,20	50,645
774,38	52,891
774,56	51,014
774,73	50,294
774,91	48,499
775,09	50,492
775,26	45,548
775,44	49,392
775,61	49,611
775,79	49,666
775,97	50,479
776,14	50,072
776,32	49,410
776,50	48,954
776,67	52,394
776,85	50,412
777,03	48,113
777,20	51,866
777,38	51,122
777,55	51,677
777,73	48,964
777,91	50,107
778,08	49,353
778,26	49,472
778,43	51,732
778,61	46,368
778,79	46,974
778,96	49,494
779,14	50,161
779,32	50,783
779,49	52,146
779,67	53,919
779,84	52,180
780,02	50,814
780,20	46,345
780,37	54,630
780,55	45,242
780,72	52,324
780,90	49,044
781,07	49,993
781,25	51,647
781,43	51,953
781,60	51,120
781,78	50,755
781,95	51,353
782,13	49,026
782,30	51,573
782,48	52,357
782,66	48,301
782,83	47,734
783,01	56,782
783,18	52,200
783,36	51,062
783,53	51,399
783,71	50,143
783,89	51,684
784,06	51,120
784,24	50,969
784,41	54,880
784,59	49,803
784,76	50,657
784,94	51,021
785,11	51,220
785,29	52,830
785,46	51,426
785,64	51,390
785,82	48,970
785,99	52,572
786,17	51,081
786,34	50,429
786,52	50,895
786,69	54,208
786,87	52,354
787,04	51,208
787,22	49,726
787,39	54,266
787,57	51,602
787,74	49,227
787,92	52,777
788,09	52,294
788,27	49,923
788,44	52,801
788,62	51,082
788,79	50,768
788,97	51,331
789,14	53,258
789,32	49,478
789,49	52,577
789,67	50,777
789,84	51,763
790,02	51,003
790,19	50,402
790,37	53,273
790,54	53,382
790,72	56,322
790,89	55,511
791,07	51,777
791,24	51,346
791,42	51,577
791,59	52,394
791,77	52,951
791,94	47,883
792,12	51,401
792,29	51,775
792,47	52,274
792,64	53,327
792,81	53,938
792,99	50,912
793,16	52,471
793,34	53,251
793,51	50,511
793,69	53,788
793,86	50,377
794,04	51,801
794,21	54,378
794,39	48,327
794,56	52,936
794,73	52,014
794,91	54,167
795,08	53,912
795,26	51,365
795,43	51,104
795,61	56,055
795,78	53,339
795,95	49,722
796,13	54,158
796,30	51,695
796,48	48,884
796,65	50,968
796,83	53,310
797,00	55,506
797,17	52,787
797,35	52,649
797,52	51,792
797,70	54,195
797,87	54,962
798,04	47,677
798,22	52,116
798,39	52,021
798,57	50,508
798,74	50,482
798,91	50,536
799,09	51,431
799,26	55,865
799,44	51,019
799,61	54,130
799,78	53,216
799,96	53,403
800,13	52,562
800,31	50,463
800,48	54,433
800,65	53,123
800,83	51,450
801,00	52,880
801,17	51,757
801,35	59,540
801,52	50,259
801,70	51,750
801,87	54,680
802,04	56,368
802,22	49,493
802,39	51,772
802,56	56,748
802,74	55,580
802,91	51,329
803,08	49,693
803,26	53,645
803,43	53,247
803,61	51,480
803,78	50,435
803,95	50,809
804,13	58,090
804,30	54,083
804,47	56,734
804,65	50,617
804,82	51,344
804,99	54,047
805,17	52,350
805,34	59,054
805,51	56,296
805,69	49,744
805,86	54,872
806,03	62,977
806,21	51,690
806,38	53,619
806,55	53,537
806,72	57,243
806,90	52,648
807,07	55,979
807,24	50,748
807,42	51,240
807,59	52,083
807,76	49,940
807,94	51,958
808,11	51,178
808,28	57,302
808,45	54,420
808,63	52,606
808,80	56,074
808,97	52,834
809,15	50,375
809,32	55,904
809,49	52,423
809,67	57,531
809,84	54,757
810,01	58,756
810,18	61,106
810,36	58,361
810,53	55,130
810,70	52,710
810,87	54,727
811,05	55,999
811,22	54,201
811,39	53,952
811,57	60,793
811,74	56,209
811,91	55,993
812,08	53,678
812,26	54,447
812,43	53,129
812,60	54,707
812,77	55,586
812,95	58,809
813,12	58,363
813,29	48,848
813,46	54,973
813,64	54,365
813,81	57,115
813,98	51,549
814,15	56,499
814,32	57,033
814,50	57,258
814,67	56,654
814,84	56,944
815,01	58,098
815,19	49,226
815,36	47,171
815,53	55,887
815,70	50,817
815,87	50,348
816,05	49,026
816,22	51,082
816,39	56,912
816,56	56,200
816,74	58,076
816,91	55,689
817,08	57,313
817,25	55,338
817,42	54,518
817,60	54,769
817,77	55,693
817,94	57,888
818,11	51,345
818,28	57,342
818,45	54,574
818,63	58,517
818,80	52,430
818,97	57,492
819,14	62,595
819,31	57,449
819,49	55,899
819,66	51,116
819,83	60,381
820,00	56,572
820,17	52,930
820,34	55,090
820,52	60,433
820,69	57,924
820,86	50,230
821,03	56,302
821,20	61,531
821,37	59,376
821,55	50,185
821,72	49,986
821,89	54,803
822,06	57,530
822,23	53,800
822,40	52,753
822,57	50,851
822,75	57,069
822,92	53,759
823,09	54,220
823,26	55,846
823,43	61,780
823,60	51,343
823,77	55,196
823,94	57,408
824,12	61,837
824,29	51,163
824,46	55,375
824,63	62,713
824,80	60,974
824,97	60,014
825,14	57,586
825,31	56,890
825,49	62,545
825,66	53,382
825,83	53,429
826,00	51,047
826,17	60,584
826,34	55,177
826,51	51,536
826,68	53,033
826,85	57,523
827,02	53,586
827,20	51,767
827,37	61,079
827,54	56,033
827,71	60,199
827,88	60,648
828,05	56,928
828,22	55,784
828,39	63,032
828,56	56,867
828,73	58,417
828,90	65,443
829,07	50,173
829,25	55,286
829,42	60,460
829,59	62,419
829,76	53,791
829,93	56,302
830,10	61,086
830,27	55,835
830,44	55,550
830,61	57,483
830,78	71,374
830,95	59,582
831,12	53,154
831,29	60,823
831,46	64,284
831,63	57,990
831,80	55,840
831,97	58,775
832,14	62,166
832,31	68,826
832,48	50,406
832,65	54,334
832,83	57,853
833,00	57,855
833,17	55,864
833,34	61,901
833,51	63,145
833,68	63,950
833,85	58,050
834,02	54,440
834,19	57,805
834,36	56,796
834,53	53,632
834,70	52,878
834,87	70,211
835,04	59,175
835,21	61,295
835,38	50,927
835,55	61,199
835,72	76,084
835,89	56,940
836,06	66,603
836,23	67,117
836,40	58,148
836,57	51,399
836,74	61,668
836,91	62,756
837,08	69,355
837,25	54,899
837,42	50,580
837,59	61,807
837,76	57,677
837,93	60,427
838,09	47,513
838,26	67,832
838,43	63,208
838,60	58,061
838,77	56,254
838,94	63,028
839,11	59,225
839,28	56,710
839,45	55,871
839,62	59,367
839,79	62,033
839,96	62,973
840,13	64,809
840,30	56,030
840,47	50,112
840,64	52,530
840,81	63,984
840,98	54,354
841,15	65,768
841,32	55,352
841,48	65,177
841,65	63,797
841,82	59,856
841,99	64,116
842,16	56,934
842,33	66,897
842,50	64,001
842,67	55,908
842,84	59,510
843,01	59,888
843,18	57,967
843,35	63,102
843,52	55,916
843,68	64,420
843,85	55,436
844,02	58,813
844,19	52,323
844,36	70,394
844,53	62,457
844,70	59,991
844,87	66,611
845,04	57,740
845,21	50,627
845,37	63,694
845,54	58,053
845,71	65,317
845,88	79,297
846,05	55,121
846,22	56,736
846,39	63,027
846,56	67,763
846,72	55,760
846,89	58,407
847,06	73,416
847,23	60,925
847,40	50,813
847,57	47,751
847,74	75,528
847,90	78,053
848,07	61,919
848,24	57,822
848,41	77,441
848,58	68,828
848,75	62,417
848,92	56,601
849,08	51,792
849,25	69,203
849,42	47,533
849,59	67,052
849,76	54,472
849,93	65,592
850,09	65,487
850,26	45,955
850,43	67,483
850,60	56,331
850,77	59,744
850,94	63,524
851,10	56,392
851,27	58,272
851,44	61,599
851,61	54,742
851,78	69,124
851,95	65,619
852,11	60,986
852,28	56,655
852,45	67,396
852,62	59,276
852,79	65,473
852,95	60,877
853,12	65,603
853,29	61,362
853,46	59,092
853,63	62,718
853,79	71,876
853,96	52,135
854,13	72,233
854,30	54,423
854,46	84,269
854,63	70,276
854,80	49,680
854,97	48,905
855,14	75,050
855,30	64,330
855,47	65,247
855,64	57,816
855,81	62,386
855,97	69,164
856,14	62,073
856,31	58,386
856,48	83,565
856,65	76,151
856,81	59,490
856,98	48,286
857,15	57,213
857,32	76,299
857,48	69,543
857,65	76,506
857,82	71,330
857,99	70,402
858,15	61,051
858,32	66,545
858,49	66,670
858,65	81,644
858,82	73,921
858,99	58,716
859,16	80,710
859,32	71,674
859,49	73,389
859,66	61,529
859,83	60,693
859,99	55,115
860,16	62,839
860,33	62,730
860,49	73,874
860,66	60,812
860,83	76,734
861,00	59,599
861,16	78,515
861,33	55,455
861,50	49,444
861,66	75,177
861,83	94,981
862,00	69,243
862,16	57,895
862,33	71,227
862,50	96,558
862,67	75,368
862,83	57,534
863,00	79,490
863,17	93,390
863,33	77,767
863,50	37,144
863,67	50,028
863,83	90,246
864,00	78,188
864,17	59,982
864,33	56,048
864,50	70,935
864,67	62,394
864,83	63,794
865,00	62,613
865,17	63,757
865,33	98,077
865,50	53,255
865,67	52,118
865,83	75,690
866,00	112,904
866,17	70,396
866,33	81,214
866,50	103,026
866,66	79,879
866,83	82,613
867,00	79,703
867,16	111,273
867,33	78,315
867,50	40,107
867,66	54,765
867,83	93,191
868,00	86,735
868,16	48,447
868,33	58,992
868,49	72,417
868,66	74,131
868,83	60,437
868,99	62,421
869,16	81,991
869,32	101,260
869,49	60,109
869,66	59,810
869,82	88,007
869,99	95,140
870,15	68,197
870,32	76,536
870,49	91,749
870,65	149,002
870,82	75,155
870,98	67,442
871,15	119,989
871,32	79,158
871,48	40,136
871,65	63,801
871,81	63,242
871,98	63,061
872,15	47,632
872,31	54,258
872,48	120,721
872,64	63,174
872,81	32,554
872,97	86,145
873,14	86,065
873,31	91,484
873,47	77,036
873,64	81,907
873,80	128,149
873,97	117,837
874,13	37,479
874,30	68,692
874,46	85,090
874,63	85,095
874,80	71,188
874,96	83,688
875,13	123,006
875,29	50,049
875,46	98,065
875,62	62,648
875,79	106,317
875,95	72,863
876,12	81,202
876,28	28,325
876,45	106,470
876,61	72,848
876,78	46,825
876,94	60,583
877,11	103,992
877,27	97,403
877,44	121,125
877,60	71,381
877,77	139,412
877,94	137,679
878,10	81,499
878,27	82,841
878,43	126,676
878,60	70,604
878,76	73,183
878,93	93,875
879,09	109,146
879,26	126,949
879,42	100,688
879,58	72,432
879,75	111,691
879,91	145,090
880,08	13,710
880,24	85,245
880,41	114,862
880,57	133,375
880,74	42,622
880,90	105,362
881,07	57,304
881,23	189,469
881,40	82,787
881,56	79,381
881,73	122,599
881,89	71,134
882,06	12,180
882,22	191,836
882,38	187,762
882,55	198,048
882,71	60,486
882,88	101,754
883,04	200,854
883,21	183,932
883,37	88,597
883,54	54,271
883,70	215,102
883,86	144,542
884,03	111,899
884,19	20,802
884,36	168,208
884,52	209,522
884,69	79,807
884,85	84,121
885,01	265,502
885,18	129,320
885,34	155,128
885,51	32,704
885,67	91,929
>>>>> Data<<<<< Espectral Procesado Extremo
