Fichero De Datos De SpectraSuite
++++++++++++++++++++++++++++++++++++
Fecha: Wed Apr 22 12:04:30 CEST 2009
Usuario: evoflor
Presente Oscuro Del Espectro: Sí
La Referencia de Presente Del Espectro De: Sí
Muestreados de los componentes de Número de espectros: 1
Espectrómetros: USB4F02353
Tiempo de integración (usec): 500000 (USB4F02353)
Promedio de Espectros Hechos un: 5 (USB4F02353)
El Alisar Del Furgón: 0 (USB4F02353)
Párrafo de de Corregir del la del del de Eléctrica del obscuridad: Sí (USB4F02353)
Estrobo/Lámpara Permitido: No (USB4F02353)
Correct for Detector Non-linearity: No (USB4F02353)
Párrafo de de Corregir del la del del de Externa del luz: No (USB4F02353)
Procesado del espectro de Número de pixeles en: 3648
>>>>> Comienza Data<<<<< Espectral Procesado Del EL
177,79	187,598
178,00	187,598
178,22	187,598
178,44	1454,231
178,66	-427,414
178,88	348,974
179,09	-206,660
179,31	236,287
179,53	562,740
179,75	197,786
179,96	690,216
180,18	-166,046
180,40	318,041
180,62	267,281
180,83	-22,459
181,05	-1986,159
181,27	-129565,000
181,49	92,033
181,70	325,250
181,92	762,766
182,14	525,798
182,36	80,946
182,58	-359,650
182,79	771,272
183,01	10,873
183,23	185,556
183,45	-135,585
183,66	-103,385
183,88	984,500
184,10	-2699,364
184,32	220,458
184,53	119,603
184,75	-117,469
184,97	22,411
185,18	-98,055
185,40	-475,793
185,62	121,189
185,84	170,884
186,05	88,657
186,27	-346,196
186,49	3840,962
186,71	5,668
186,92	179,522
187,14	-92,024
187,36	108,795
187,58	163,599
187,79	-110,737
188,01	321,275
188,23	-304,162
188,45	76,744
188,66	-56,406
188,88	-703,000
189,10	-2294,650
189,31	96,817
189,53	59,060
189,75	165,602
189,97	197,173
190,18	-274,399
190,40	502,735
190,62	-147,267
190,83	-224,056
191,05	260,358
191,27	48,757
191,49	360,804
191,70	-558,005
191,92	-823,432
192,14	-35,937
192,35	527,493
192,57	3084,714
192,79	-46,328
193,01	173,504
193,22	142,584
193,44	-1,476
193,66	95,439
193,87	125,193
194,09	-33,259
194,31	80,905
194,53	402,552
194,74	7,202
194,96	-3,497
195,18	148,783
195,39	-346,609
195,61	-107,307
195,83	-356,011
196,04	119,817
196,26	-492,789
196,48	-22,400
196,70	298,738
196,91	113,708
197,13	4,468
197,35	128,946
197,56	604,536
197,78	1336,306
198,00	780,175
198,21	227,015
198,43	-360,843
198,65	142,713
198,86	368,939
199,08	250,705
199,30	227,662
199,51	-357,541
199,73	201,519
199,95	293,973
200,16	290,635
200,38	60,850
200,60	164,287
200,81	358,383
201,03	171,101
201,25	-1655,650
201,46	204,551
201,68	113,633
201,90	3108,295
202,11	-161,317
202,33	171,212
202,55	640,812
202,76	-41,150
202,98	169,216
203,20	-138,293
203,41	-814,553
203,63	117,565
203,85	-80965,000
204,06	123,121
204,28	-112,687
204,50	188,746
204,71	254,355
204,93	-727,480
205,15	-84,142
205,36	37,925
205,58	141,583
205,80	-19,258
206,01	126,031
206,23	139,293
206,45	235,537
206,66	109,691
206,88	57,538
207,10	280,148
207,31	350,417
207,53	87,329
207,75	17,183
207,96	557,201
208,18	-259,497
208,39	49,501
208,61	3316,143
208,83	-246,599
209,04	206,135
209,26	207,535
209,48	241,481
209,69	217,685
209,91	756,976
210,13	76,030
210,34	-241,973
210,56	115,453
210,77	-1190,276
210,99	29,459
211,21	7568,529
211,42	-282,431
211,64	-26,150
211,86	169,337
212,07	169,025
212,29	211,733
212,50	126,451
212,72	41,404
212,94	62,229
213,15	106,399
213,37	115,150
213,58	-111,674
213,80	-2505,893
214,02	10109,706
214,23	348,111
214,45	410,049
214,67	296,768
214,88	-172,030
215,10	-247,121
215,31	117,828
215,53	-77,807
215,75	145,504
215,96	2509,720
216,18	-418,803
216,39	116,363
216,61	469,574
216,83	285,112
217,04	1324,326
217,26	-164,089
217,47	138,212
217,69	284,277
217,91	-62,539
218,12	-13465,000
218,34	212,575
218,55	458,263
218,77	19,610
218,99	102,771
219,20	-126,290
219,42	238,666
219,63	-151,525
219,85	-68,606
220,06	152,173
220,28	138,233
220,50	160,386
220,71	64,850
220,93	2342,736
221,14	-1250,650
221,36	86,109
221,58	-63,755
221,79	50,036
222,01	1085,905
222,22	443,849
222,44	282,753
222,65	48,558
222,87	968,986
223,09	114,340
223,30	82,854
223,52	98,307
223,73	82,992
223,95	6,289
224,16	189,206
224,38	315,557
224,60	37,764
224,81	62,564
225,03	96,107
225,24	61,881
225,46	-55,374
225,67	-4,226
225,89	23,514
226,10	555,617
226,32	-29,080
226,54	12,482
226,75	10,281
226,97	121,080
227,18	132,266
227,40	38,623
227,61	23,197
227,83	-5,228
228,04	161,299
228,26	52,126
228,47	34,936
228,69	80,490
228,91	162,627
229,12	101,338
229,34	55,800
229,55	51,558
229,77	-1,160
229,98	-13,618
230,20	67,837
230,41	37,502
230,63	86,872
230,84	83,667
231,06	16,859
231,27	-3,324
231,49	77,622
231,71	14,378
231,92	32,299
232,14	22,882
232,35	79,933
232,57	48,794
232,78	3,870
233,00	21,294
233,21	47,610
233,43	6,872
233,64	35,162
233,86	41,581
234,07	10,562
234,29	28,994
234,50	17,753
234,72	63,260
234,93	-3,705
235,15	35,326
235,36	44,704
235,58	44,620
235,79	63,105
236,01	27,016
236,22	30,670
236,44	59,835
236,65	14,750
236,87	16,068
237,08	11,139
237,30	1,763
237,51	29,729
237,73	-6,974
237,94	6,137
238,16	26,656
238,37	3,912
238,59	10,883
238,80	7,394
239,02	17,944
239,23	16,421
239,45	7,811
239,66	25,076
239,88	25,848
240,09	22,095
240,31	5,973
240,52	15,036
240,74	7,024
240,95	14,642
241,17	13,644
241,38	7,133
241,60	8,251
241,81	24,605
242,03	11,768
242,24	8,130
242,46	23,493
242,67	9,574
242,89	20,137
243,10	21,479
243,32	26,053
243,53	13,485
243,75	6,831
243,96	13,966
244,18	15,064
244,39	11,590
244,60	9,732
244,82	3,686
245,03	21,015
245,25	12,904
245,46	23,339
245,68	4,500
245,89	25,687
246,11	20,885
246,32	9,408
246,54	6,809
246,75	11,887
246,97	16,315
247,18	19,176
247,39	5,178
247,61	5,191
247,82	4,474
248,04	6,827
248,25	11,272
248,47	8,466
248,68	11,890
248,90	-0,121
249,11	4,433
249,33	15,244
249,54	9,931
249,75	9,591
249,97	5,043
250,18	13,779
250,40	22,923
250,61	-4,114
250,83	5,246
251,04	5,012
251,25	8,232
251,47	4,525
251,68	8,859
251,90	12,145
252,11	10,273
252,33	10,066
252,54	10,060
252,76	3,455
252,97	2,522
253,18	8,648
253,40	9,023
253,61	3,181
253,83	9,094
254,04	15,717
254,25	6,059
254,47	5,010
254,68	8,781
254,90	4,126
255,11	8,161
255,33	6,163
255,54	7,507
255,75	5,368
255,97	7,572
256,18	4,490
256,40	8,374
256,61	9,913
256,82	4,627
257,04	12,897
257,25	5,870
257,47	7,036
257,68	2,648
257,89	12,765
258,11	11,580
258,32	8,736
258,54	6,241
258,75	10,150
258,96	12,715
259,18	6,646
259,39	2,876
259,61	13,235
259,82	4,586
260,03	10,780
260,25	8,295
260,46	3,369
260,68	6,921
260,89	5,679
261,10	5,262
261,32	3,749
261,53	6,986
261,75	9,388
261,96	0,747
262,17	11,766
262,39	15,691
262,60	3,619
262,81	4,068
263,03	12,385
263,24	5,622
263,46	4,468
263,67	3,977
263,88	5,352
264,10	12,855
264,31	4,976
264,52	9,461
264,74	8,972
264,95	5,272
265,17	8,849
265,38	3,259
265,59	8,933
265,81	9,637
266,02	1,711
266,23	3,681
266,45	11,367
266,66	10,749
266,87	11,492
267,09	1,828
267,30	8,463
267,52	10,955
267,73	7,107
267,94	4,460
268,16	10,223
268,37	7,435
268,58	12,318
268,80	6,946
269,01	5,163
269,22	8,924
269,44	5,599
269,65	8,045
269,86	5,854
270,08	8,413
270,29	7,001
270,50	7,979
270,72	7,857
270,93	7,938
271,14	3,067
271,36	7,666
271,57	10,859
271,78	6,713
272,00	11,063
272,21	6,542
272,42	6,898
272,64	7,666
272,85	6,304
273,06	7,220
273,28	5,445
273,49	6,350
273,70	11,564
273,92	9,454
274,13	10,375
274,34	5,849
274,56	7,903
274,77	6,549
274,98	8,754
275,20	8,983
275,41	9,903
275,62	7,507
275,84	6,560
276,05	10,701
276,26	6,981
276,47	0,600
276,69	10,622
276,90	6,877
277,11	7,964
277,33	7,075
277,54	10,267
277,75	8,759
277,97	3,875
278,18	5,990
278,39	7,729
278,61	7,366
278,82	8,045
279,03	7,608
279,24	8,050
279,46	6,615
279,67	10,465
279,88	6,863
280,10	13,676
280,31	3,108
280,52	10,113
280,73	4,185
280,95	9,818
281,16	9,720
281,37	7,406
281,59	9,889
281,80	11,522
282,01	5,692
282,22	4,952
282,44	3,575
282,65	11,775
282,86	10,107
283,08	5,719
283,29	6,170
283,50	6,530
283,71	7,854
283,93	8,625
284,14	8,526
284,35	4,852
284,56	10,170
284,78	8,409
284,99	6,487
285,20	11,322
285,42	7,565
285,63	5,240
285,84	1,107
286,05	3,528
286,27	7,496
286,48	2,170
286,69	5,699
286,90	5,141
287,12	6,192
287,33	4,894
287,54	5,667
287,75	6,817
287,97	5,650
288,18	5,149
288,39	2,691
288,60	7,643
288,82	5,694
289,03	4,440
289,24	8,635
289,45	10,625
289,67	6,220
289,88	3,890
290,09	7,879
290,30	7,881
290,52	6,473
290,73	6,756
290,94	1,730
291,15	5,386
291,37	10,145
291,58	4,865
291,79	5,257
292,00	8,286
292,21	6,861
292,43	5,430
292,64	5,359
292,85	4,793
293,06	9,124
293,28	4,337
293,49	1,187
293,70	8,968
293,91	6,409
294,12	6,688
294,34	7,523
294,55	8,624
294,76	7,370
294,97	8,578
295,19	1,609
295,40	9,729
295,61	5,799
295,82	3,582
296,03	8,392
296,25	8,575
296,46	6,134
296,67	3,930
296,88	3,568
297,09	8,894
297,31	5,765
297,52	7,548
297,73	5,424
297,94	8,316
298,15	7,877
298,37	3,974
298,58	7,410
298,79	8,509
299,00	5,066
299,21	6,607
299,43	5,324
299,64	8,772
299,85	6,881
300,06	4,716
300,27	5,770
300,49	9,221
300,70	7,247
300,91	7,769
301,12	4,821
301,33	10,060
301,54	6,155
301,76	9,201
301,97	6,440
302,18	3,954
302,39	8,284
302,60	14,863
302,82	6,286
303,03	9,852
303,24	6,336
303,45	7,619
303,66	4,314
303,87	6,332
304,09	9,447
304,30	8,116
304,51	5,545
304,72	6,390
304,93	8,345
305,14	5,862
305,36	4,390
305,57	6,211
305,78	8,375
305,99	4,817
306,20	6,072
306,41	5,613
306,62	5,049
306,84	4,894
307,05	4,331
307,26	7,693
307,47	10,066
307,68	5,174
307,89	5,079
308,11	7,807
308,32	7,566
308,53	7,585
308,74	3,692
308,95	5,310
309,16	8,391
309,37	6,437
309,59	5,232
309,80	6,506
310,01	8,321
310,22	8,379
310,43	5,607
310,64	6,970
310,85	9,269
311,06	6,156
311,28	5,230
311,49	6,196
311,70	9,646
311,91	4,423
312,12	6,040
312,33	7,815
312,54	7,563
312,75	6,009
312,97	4,946
313,18	6,874
313,39	3,456
313,60	4,389
313,81	6,834
314,02	6,695
314,23	6,538
314,44	4,168
314,65	8,049
314,87	4,412
315,08	6,114
315,29	7,644
315,50	6,847
315,71	7,267
315,92	10,489
316,13	6,342
316,34	7,628
316,55	7,208
316,77	3,354
316,98	4,423
317,19	5,872
317,40	5,286
317,61	8,078
317,82	6,613
318,03	5,043
318,24	6,111
318,45	8,302
318,66	5,321
318,87	2,613
319,09	7,823
319,30	5,978
319,51	8,748
319,72	6,785
319,93	9,201
320,14	7,295
320,35	6,485
320,56	5,064
320,77	7,569
320,98	10,302
321,19	4,065
321,40	5,640
321,62	7,620
321,83	6,400
322,04	7,689
322,25	6,576
322,46	12,188
322,67	8,784
322,88	8,100
323,09	3,876
323,30	9,944
323,51	10,826
323,72	7,436
323,93	6,350
324,14	6,826
324,35	1,864
324,56	4,802
324,77	4,306
324,99	5,902
325,20	2,226
325,41	7,854
325,62	7,500
325,83	4,397
326,04	7,086
326,25	9,595
326,46	4,041
326,67	6,727
326,88	8,282
327,09	5,604
327,30	5,455
327,51	6,760
327,72	6,276
327,93	6,888
328,14	2,803
328,35	4,610
328,56	8,278
328,77	6,621
328,98	8,869
329,19	5,993
329,40	6,385
329,61	5,948
329,82	3,768
330,04	6,272
330,25	4,677
330,46	6,390
330,67	4,579
330,88	4,826
331,09	6,036
331,30	5,357
331,51	5,928
331,72	8,364
331,93	9,472
332,14	6,222
332,35	5,849
332,56	5,855
332,77	7,809
332,98	3,466
333,19	4,966
333,40	10,417
333,61	5,392
333,82	8,425
334,03	6,911
334,24	8,586
334,45	6,514
334,66	8,824
334,87	6,017
335,08	3,470
335,29	6,466
335,50	5,193
335,71	2,778
335,92	10,819
336,13	9,269
336,34	2,361
336,55	8,032
336,76	6,924
336,97	5,051
337,18	4,877
337,39	7,993
337,60	6,073
337,81	7,111
338,02	6,023
338,23	4,818
338,44	6,696
338,65	6,794
338,86	4,877
339,07	3,433
339,28	5,185
339,49	8,610
339,70	4,084
339,91	4,615
340,11	8,138
340,32	5,562
340,53	3,670
340,74	4,438
340,95	4,453
341,16	8,436
341,37	6,872
341,58	3,791
341,79	4,805
342,00	5,862
342,21	7,710
342,42	6,884
342,63	9,209
342,84	2,405
343,05	8,052
343,26	6,696
343,47	7,989
343,68	4,088
343,89	5,317
344,10	7,642
344,31	7,578
344,52	5,737
344,73	6,762
344,94	6,157
345,14	4,328
345,35	10,316
345,56	5,800
345,77	5,134
345,98	6,940
346,19	7,262
346,40	6,358
346,61	5,739
346,82	6,758
347,03	7,150
347,24	6,842
347,45	9,184
347,66	10,029
347,87	6,623
348,08	10,104
348,28	2,736
348,49	7,209
348,70	7,766
348,91	7,982
349,12	1,197
349,33	16,414
349,54	6,751
349,75	8,645
349,96	4,396
350,17	4,773
350,38	4,647
350,59	6,054
350,80	6,639
351,00	8,179
351,21	9,146
351,42	5,084
351,63	5,154
351,84	8,113
352,05	8,311
352,26	8,349
352,47	5,167
352,68	7,803
352,89	7,826
353,09	7,656
353,30	3,761
353,51	7,009
353,72	7,530
353,93	10,870
354,14	3,265
354,35	4,446
354,56	8,636
354,77	6,451
354,98	2,720
355,18	8,433
355,39	12,269
355,60	3,925
355,81	4,751
356,02	8,874
356,23	8,979
356,44	5,126
356,65	7,595
356,85	9,941
357,06	10,988
357,27	7,648
357,48	3,567
357,69	7,426
357,90	8,737
358,11	2,466
358,32	5,995
358,52	7,190
358,73	6,853
358,94	6,462
359,15	6,768
359,36	8,776
359,57	6,158
359,78	8,368
359,98	5,073
360,19	3,192
360,40	6,580
360,61	7,243
360,82	6,180
361,03	10,315
361,24	8,429
361,44	6,381
361,65	8,234
361,86	5,894
362,07	7,438
362,28	5,507
362,49	4,988
362,70	8,382
362,90	5,733
363,11	2,313
363,32	1,971
363,53	3,489
363,74	8,011
363,95	6,860
364,15	6,776
364,36	8,240
364,57	6,763
364,78	5,200
364,99	4,394
365,20	7,584
365,40	10,109
365,61	6,419
365,82	8,961
366,03	7,934
366,24	8,328
366,45	6,091
366,65	5,617
366,86	5,878
367,07	7,043
367,28	2,135
367,49	4,601
367,69	7,298
367,90	8,218
368,11	7,533
368,32	4,562
368,53	9,999
368,73	10,612
368,94	4,019
369,15	5,304
369,36	9,490
369,57	8,799
369,78	5,712
369,98	7,413
370,19	9,375
370,40	8,458
370,61	4,536
370,82	5,318
371,02	8,949
371,23	10,541
371,44	5,397
371,65	6,430
371,85	8,480
372,06	5,249
372,27	4,740
372,48	6,118
372,69	6,443
372,89	6,125
373,10	5,159
373,31	5,824
373,52	11,382
373,73	12,108
373,93	7,666
374,14	9,081
374,35	10,591
374,56	8,578
374,76	10,176
374,97	6,008
375,18	10,873
375,39	10,117
375,60	9,793
375,80	8,706
376,01	7,023
376,22	8,108
376,43	5,033
376,63	10,066
376,84	6,501
377,05	7,734
377,26	6,011
377,46	4,440
377,67	6,606
377,88	10,108
378,09	8,159
378,29	5,430
378,50	9,697
378,71	9,068
378,92	6,698
379,12	6,019
379,33	7,679
379,54	11,238
379,75	10,507
379,95	6,740
380,16	7,409
380,37	11,658
380,58	9,990
380,78	11,771
380,99	5,934
381,20	8,343
381,41	8,521
381,61	11,364
381,82	7,637
382,03	9,512
382,24	7,977
382,44	8,235
382,65	6,094
382,86	10,838
383,06	7,888
383,27	9,549
383,48	4,371
383,69	10,435
383,89	10,964
384,10	10,601
384,31	9,012
384,51	11,198
384,72	12,718
384,93	8,417
385,14	9,093
385,34	10,330
385,55	9,590
385,76	6,510
385,96	12,611
386,17	7,689
386,38	12,977
386,59	14,457
386,79	8,526
387,00	17,139
387,21	14,418
387,41	8,944
387,62	9,865
387,83	16,644
388,03	11,470
388,24	6,661
388,45	12,460
388,66	12,474
388,86	12,952
389,07	13,231
389,28	12,563
389,48	11,704
389,69	10,783
389,90	12,684
390,10	12,985
390,31	15,251
390,52	7,865
390,72	11,712
390,93	14,517
391,14	11,453
391,34	10,089
391,55	15,958
391,76	15,602
391,96	15,700
392,17	13,714
392,38	15,232
392,58	15,528
392,79	11,396
393,00	12,950
393,20	13,053
393,41	12,861
393,62	16,409
393,82	13,408
394,03	15,286
394,24	12,781
394,44	15,381
394,65	14,759
394,86	11,762
395,06	17,130
395,27	13,871
395,48	13,895
395,68	16,130
395,89	16,932
396,10	18,979
396,30	13,235
396,51	13,684
396,72	17,196
396,92	14,270
397,13	20,454
397,34	13,690
397,54	20,484
397,75	16,221
397,95	16,329
398,16	18,352
398,37	14,289
398,57	15,192
398,78	20,095
398,99	20,053
399,19	21,042
399,40	21,162
399,60	20,740
399,81	21,200
400,02	20,619
400,22	21,065
400,43	17,861
400,64	19,640
400,84	17,883
401,05	21,586
401,25	25,282
401,46	21,837
401,67	21,196
401,87	20,809
402,08	17,687
402,29	20,776
402,49	26,063
402,70	25,677
402,90	15,490
403,11	20,787
403,32	24,215
403,52	23,111
403,73	22,116
403,93	25,233
404,14	26,431
404,35	21,327
404,55	18,622
404,76	23,406
404,96	27,444
405,17	28,145
405,38	29,449
405,58	25,279
405,79	26,677
405,99	28,351
406,20	25,624
406,40	23,218
406,61	25,173
406,82	25,127
407,02	24,901
407,23	27,614
407,43	26,748
407,64	23,371
407,85	26,213
408,05	24,306
408,26	33,965
408,46	27,587
408,67	27,217
408,87	29,437
409,08	28,918
409,29	34,993
409,49	32,109
409,70	27,885
409,90	31,139
410,11	34,554
410,31	35,741
410,52	30,589
410,72	30,406
410,93	33,828
411,14	33,673
411,34	30,333
411,55	36,101
411,75	34,441
411,96	33,940
412,16	33,380
412,37	35,414
412,57	34,170
412,78	33,580
412,99	27,902
413,19	32,529
413,40	32,230
413,60	29,679
413,81	30,844
414,01	37,394
414,22	32,105
414,42	33,222
414,63	33,975
414,83	37,535
415,04	37,119
415,24	37,671
415,45	34,745
415,65	30,924
415,86	35,037
416,07	37,768
416,27	37,709
416,48	37,305
416,68	44,095
416,89	36,437
417,09	39,971
417,30	43,291
417,50	38,761
417,71	39,927
417,91	41,465
418,12	39,628
418,32	35,313
418,53	37,334
418,73	40,891
418,94	35,337
419,14	41,774
419,35	39,304
419,55	38,456
419,76	39,277
419,96	40,189
420,17	36,370
420,37	43,566
420,58	43,553
420,78	40,815
420,99	40,706
421,19	43,895
421,40	44,109
421,60	43,526
421,81	38,570
422,01	40,182
422,22	43,800
422,42	44,597
422,63	42,176
422,83	44,491
423,04	43,828
423,24	49,161
423,45	42,935
423,65	43,809
423,86	43,864
424,06	46,821
424,27	42,879
424,47	41,014
424,67	43,955
424,88	45,415
425,08	41,017
425,29	50,644
425,49	46,921
425,70	41,065
425,90	45,075
426,11	41,907
426,31	45,982
426,52	48,766
426,72	44,531
426,93	45,310
427,13	47,804
427,33	45,182
427,54	48,269
427,74	48,821
427,95	53,479
428,15	44,185
428,36	45,009
428,56	46,849
428,77	49,006
428,97	47,652
429,18	48,217
429,38	46,544
429,58	49,881
429,79	46,640
429,99	46,492
430,20	42,853
430,40	51,046
430,61	43,641
430,81	45,342
431,01	47,336
431,22	52,424
431,42	48,958
431,63	45,743
431,83	48,957
432,04	48,269
432,24	53,126
432,44	43,125
432,65	44,607
432,85	44,891
433,06	45,368
433,26	45,192
433,47	43,566
433,67	47,682
433,87	44,122
434,08	41,048
434,28	43,770
434,49	47,309
434,69	45,153
434,89	43,340
435,10	45,617
435,30	47,762
435,51	45,037
435,71	46,189
435,91	46,714
436,12	44,947
436,32	47,546
436,53	47,651
436,73	47,055
436,93	48,095
437,14	50,335
437,34	49,911
437,55	48,222
437,75	51,438
437,95	53,581
438,16	49,253
438,36	46,126
438,57	48,506
438,77	51,153
438,97	53,886
439,18	50,857
439,38	49,310
439,58	48,526
439,79	49,982
439,99	48,155
440,20	53,534
440,40	55,948
440,60	44,993
440,81	55,605
441,01	48,177
441,21	56,476
441,42	52,691
441,62	52,184
441,83	52,505
442,03	51,092
442,23	47,802
442,44	52,056
442,64	48,973
442,84	48,781
443,05	50,921
443,25	47,069
443,45	52,512
443,66	49,913
443,86	50,888
444,06	52,505
444,27	50,462
444,47	51,699
444,67	47,978
444,88	56,703
445,08	51,952
445,28	50,456
445,49	50,318
445,69	47,924
445,90	50,435
446,10	54,861
446,30	52,533
446,51	48,560
446,71	61,017
446,91	56,317
447,12	54,975
447,32	48,775
447,52	50,364
447,72	53,596
447,93	52,929
448,13	50,849
448,33	57,770
448,54	56,077
448,74	49,185
448,94	51,809
449,15	55,512
449,35	53,319
449,55	53,698
449,76	55,725
449,96	55,833
450,16	53,000
450,37	49,902
450,57	53,332
450,77	49,107
450,98	56,073
451,18	54,362
451,38	47,734
451,58	54,481
451,79	52,208
451,99	53,920
452,19	56,561
452,40	51,707
452,60	47,556
452,80	51,297
453,00	57,065
453,21	51,681
453,41	55,343
453,61	56,589
453,82	55,591
454,02	49,253
454,22	54,697
454,42	54,054
454,63	51,959
454,83	51,480
455,03	57,756
455,24	49,140
455,44	53,105
455,64	53,973
455,84	50,043
456,05	55,028
456,25	52,368
456,45	56,753
456,65	47,803
456,86	53,630
457,06	51,058
457,26	62,583
457,47	56,080
457,67	56,068
457,87	53,235
458,07	50,001
458,28	57,266
458,48	53,900
458,68	50,162
458,88	61,148
459,09	49,963
459,29	56,523
459,49	53,574
459,69	51,927
459,90	56,216
460,10	60,134
460,30	56,805
460,50	52,719
460,71	56,781
460,91	49,244
461,11	51,858
461,31	46,220
461,52	55,318
461,72	54,468
461,92	53,616
462,12	57,708
462,32	53,186
462,53	51,027
462,73	51,561
462,93	53,633
463,13	59,892
463,34	54,419
463,54	50,258
463,74	56,550
463,94	49,331
464,14	50,970
464,35	52,342
464,55	58,518
464,75	58,415
464,95	52,952
465,16	46,835
465,36	52,467
465,56	52,904
465,76	54,598
465,96	55,670
466,17	54,105
466,37	49,840
466,57	54,537
466,77	51,893
466,97	51,687
467,18	56,113
467,38	55,266
467,58	53,359
467,78	59,588
467,98	53,372
468,19	54,629
468,39	55,169
468,59	52,844
468,79	54,380
468,99	51,967
469,19	47,163
469,40	53,007
469,60	51,308
469,80	50,904
470,00	55,220
470,20	56,577
470,41	54,227
470,61	54,284
470,81	54,398
471,01	53,153
471,21	51,707
471,41	54,116
471,62	54,864
471,82	53,143
472,02	52,338
472,22	51,560
472,42	52,538
472,62	54,348
472,83	53,467
473,03	54,266
473,23	52,173
473,43	58,379
473,63	52,505
473,83	56,916
474,03	54,195
474,24	56,822
474,44	53,481
474,64	51,884
474,84	52,069
475,04	55,239
475,24	57,670
475,45	52,714
475,65	51,562
475,85	57,533
476,05	48,801
476,25	51,534
476,45	55,986
476,65	56,713
476,85	53,695
477,06	51,264
477,26	52,507
477,46	53,868
477,66	52,905
477,86	52,618
478,06	50,559
478,26	60,851
478,46	50,275
478,67	55,996
478,87	52,602
479,07	50,278
479,27	53,974
479,47	52,306
479,67	46,165
479,87	53,033
480,07	53,881
480,28	49,987
480,48	52,124
480,68	51,851
480,88	56,666
481,08	50,790
481,28	53,241
481,48	53,105
481,68	47,336
481,88	51,602
482,08	50,844
482,29	56,562
482,49	49,949
482,69	53,882
482,89	51,784
483,09	55,836
483,29	51,957
483,49	50,695
483,69	50,172
483,89	47,999
484,09	49,409
484,29	47,177
484,50	50,291
484,70	52,218
484,90	49,576
485,10	50,220
485,30	52,527
485,50	53,916
485,70	51,266
485,90	50,703
486,10	48,773
486,30	49,791
486,50	50,395
486,70	50,121
486,90	49,367
487,10	52,034
487,30	49,451
487,51	49,931
487,71	47,690
487,91	49,489
488,11	52,895
488,31	45,840
488,51	50,212
488,71	48,662
488,91	50,963
489,11	48,077
489,31	49,483
489,51	48,859
489,71	51,097
489,91	49,597
490,11	48,860
490,31	49,828
490,51	50,793
490,71	49,185
490,91	49,180
491,11	50,670
491,31	49,292
491,51	48,193
491,72	50,658
491,92	52,532
492,12	54,089
492,32	51,302
492,52	54,215
492,72	51,942
492,92	52,541
493,12	51,626
493,32	49,291
493,52	48,069
493,72	52,525
493,92	53,861
494,12	50,672
494,32	50,200
494,52	50,613
494,72	51,306
494,92	49,167
495,12	53,180
495,32	55,437
495,52	50,846
495,72	55,292
495,92	54,064
496,12	55,268
496,32	49,175
496,52	51,351
496,72	48,450
496,92	51,618
497,12	53,082
497,32	53,644
497,52	55,265
497,72	55,364
497,92	54,598
498,12	53,417
498,32	52,581
498,52	54,237
498,72	53,938
498,92	53,432
499,12	58,431
499,32	51,134
499,52	52,297
499,72	55,836
499,92	54,610
500,12	55,078
500,32	56,716
500,52	53,577
500,72	58,502
500,91	56,699
501,11	53,443
501,31	49,565
501,51	54,055
501,71	55,569
501,91	54,646
502,11	52,440
502,31	53,123
502,51	54,442
502,71	52,655
502,91	55,012
503,11	54,560
503,31	54,531
503,51	52,027
503,71	52,119
503,91	52,257
504,11	53,746
504,31	55,777
504,51	55,650
504,71	56,157
504,91	54,091
505,10	52,353
505,30	54,577
505,50	53,979
505,70	55,202
505,90	54,559
506,10	52,171
506,30	53,553
506,50	55,177
506,70	56,484
506,90	53,667
507,10	54,168
507,30	55,310
507,50	52,465
507,70	55,271
507,89	55,605
508,09	54,812
508,29	49,024
508,49	52,907
508,69	55,163
508,89	53,614
509,09	54,295
509,29	52,347
509,49	56,291
509,69	57,855
509,89	54,028
510,09	53,773
510,28	54,522
510,48	54,615
510,68	55,241
510,88	53,214
511,08	52,724
511,28	55,816
511,48	54,081
511,68	50,772
511,88	52,924
512,07	51,257
512,27	53,752
512,47	54,573
512,67	56,079
512,87	52,291
513,07	53,749
513,27	53,340
513,47	51,823
513,67	52,614
513,86	54,645
514,06	52,269
514,26	53,408
514,46	55,537
514,66	53,594
514,86	53,751
515,06	58,116
515,26	56,475
515,45	55,211
515,65	53,868
515,85	56,087
516,05	53,383
516,25	53,230
516,45	57,669
516,65	52,171
516,84	55,487
517,04	56,422
517,24	53,235
517,44	56,456
517,64	56,846
517,84	55,908
518,04	55,670
518,23	56,304
518,43	57,731
518,63	50,713
518,83	50,418
519,03	54,635
519,23	53,591
519,42	53,715
519,62	54,698
519,82	53,949
520,02	53,253
520,22	54,137
520,42	52,199
520,61	54,384
520,81	56,483
521,01	58,887
521,21	52,106
521,41	52,325
521,61	54,447
521,80	53,786
522,00	56,252
522,20	54,482
522,40	55,389
522,60	56,024
522,79	52,972
522,99	54,756
523,19	53,469
523,39	55,283
523,59	54,553
523,78	55,132
523,98	52,856
524,18	53,513
524,38	50,375
524,58	54,770
524,77	56,258
524,97	54,132
525,17	53,689
525,37	52,112
525,57	57,267
525,76	51,136
525,96	53,107
526,16	54,236
526,36	49,803
526,56	53,303
526,75	51,967
526,95	55,983
527,15	53,788
527,35	54,208
527,55	52,918
527,74	56,642
527,94	53,085
528,14	53,601
528,34	53,636
528,53	53,788
528,73	56,411
528,93	52,661
529,13	50,436
529,32	55,611
529,52	54,755
529,72	52,072
529,92	51,806
530,12	53,158
530,31	51,385
530,51	53,053
530,71	56,500
530,91	51,941
531,10	48,448
531,30	51,852
531,50	50,135
531,70	54,670
531,89	54,042
532,09	51,430
532,29	51,550
532,49	52,563
532,68	57,511
532,88	51,918
533,08	52,977
533,28	53,743
533,47	52,289
533,67	51,147
533,87	51,605
534,06	58,352
534,26	52,298
534,46	52,804
534,66	54,102
534,85	54,134
535,05	49,270
535,25	50,960
535,45	52,873
535,64	52,528
535,84	51,813
536,04	49,467
536,23	51,414
536,43	52,334
536,63	48,130
536,83	52,992
537,02	49,579
537,22	51,186
537,42	49,586
537,61	49,880
537,81	50,679
538,01	51,306
538,20	50,183
538,40	47,654
538,60	49,519
538,80	45,785
538,99	48,143
539,19	46,523
539,39	44,725
539,58	44,533
539,78	42,672
539,98	43,675
540,17	43,313
540,37	42,059
540,57	40,600
540,76	41,213
540,96	39,771
541,16	40,522
541,36	38,576
541,55	36,645
541,75	35,388
541,95	38,102
542,14	37,847
542,34	35,404
542,54	35,098
542,73	36,156
542,93	36,982
543,13	34,910
543,32	34,221
543,52	36,761
543,72	35,906
543,91	35,756
544,11	35,803
544,31	34,656
544,50	37,257
544,70	37,857
544,89	37,075
545,09	39,131
545,29	36,775
545,48	38,179
545,68	35,952
545,88	38,885
546,07	38,684
546,27	39,532
546,47	39,303
546,66	40,189
546,86	42,258
547,06	42,659
547,25	43,197
547,45	44,177
547,64	44,612
547,84	47,021
548,04	46,926
548,23	50,113
548,43	47,709
548,63	46,976
548,82	49,188
549,02	43,905
549,21	46,952
549,41	47,308
549,61	47,287
549,80	48,681
550,00	48,171
550,20	45,878
550,39	48,325
550,59	45,579
550,78	48,779
550,98	47,421
551,18	47,256
551,37	47,896
551,57	47,659
551,76	47,431
551,96	48,625
552,16	50,444
552,35	49,008
552,55	48,948
552,74	47,770
552,94	51,603
553,14	50,495
553,33	49,367
553,53	49,663
553,72	51,281
553,92	49,517
554,12	52,209
554,31	51,677
554,51	50,829
554,70	49,033
554,90	50,112
555,09	51,303
555,29	51,990
555,49	52,748
555,68	53,120
555,88	50,085
556,07	50,583
556,27	52,553
556,46	50,148
556,66	49,436
556,86	54,713
557,05	52,637
557,25	49,087
557,44	51,874
557,64	51,266
557,83	53,308
558,03	49,480
558,22	49,791
558,42	51,583
558,62	53,905
558,81	52,584
559,01	51,617
559,20	52,038
559,40	51,498
559,59	51,065
559,79	52,017
559,98	53,119
560,18	52,191
560,37	52,809
560,57	50,536
560,76	48,526
560,96	49,990
561,16	52,216
561,35	51,642
561,55	54,260
561,74	51,343
561,94	52,915
562,13	50,010
562,33	53,442
562,52	56,062
562,72	50,844
562,91	52,157
563,11	53,324
563,30	54,493
563,50	50,385
563,69	48,717
563,89	49,007
564,08	53,299
564,28	52,584
564,47	50,415
564,67	53,620
564,86	51,502
565,06	52,209
565,25	53,015
565,45	49,786
565,64	56,657
565,84	50,325
566,03	51,220
566,23	54,490
566,42	53,709
566,62	49,389
566,81	53,599
567,01	52,209
567,20	54,787
567,40	48,749
567,59	49,781
567,79	54,544
567,98	55,315
568,18	51,821
568,37	54,523
568,57	51,592
568,76	53,754
568,96	52,724
569,15	51,749
569,35	53,355
569,54	56,637
569,73	54,697
569,93	52,995
570,12	53,576
570,32	53,120
570,51	53,230
570,71	53,559
570,90	54,917
571,10	52,850
571,29	52,313
571,49	52,042
571,68	52,340
571,87	53,270
572,07	52,851
572,26	50,987
572,46	52,903
572,65	52,752
572,85	50,519
573,04	51,991
573,24	52,949
573,43	54,691
573,62	54,334
573,82	53,509
574,01	52,113
574,21	51,686
574,40	51,126
574,60	50,967
574,79	53,241
574,98	51,780
575,18	53,136
575,37	50,935
575,57	52,444
575,76	53,152
575,96	51,501
576,15	50,849
576,34	52,025
576,54	52,583
576,73	52,218
576,93	51,899
577,12	53,332
577,31	52,922
577,51	52,219
577,70	51,299
577,90	51,321
578,09	50,916
578,28	51,047
578,48	50,727
578,67	52,157
578,87	51,883
579,06	50,412
579,25	52,373
579,45	52,188
579,64	50,985
579,84	49,542
580,03	50,677
580,22	52,619
580,42	50,734
580,61	50,873
580,81	49,519
581,00	50,941
581,19	51,634
581,39	51,318
581,58	49,866
581,77	49,930
581,97	51,701
582,16	49,803
582,35	50,646
582,55	49,894
582,74	53,238
582,94	51,059
583,13	49,029
583,32	50,707
583,52	50,564
583,71	49,655
583,90	48,752
584,10	50,506
584,29	49,602
584,48	48,451
584,68	49,674
584,87	52,224
585,06	49,577
585,26	48,219
585,45	50,045
585,65	52,133
585,84	48,562
586,03	49,231
586,23	47,420
586,42	49,975
586,61	50,729
586,81	50,185
587,00	48,903
587,19	48,578
587,39	51,605
587,58	49,171
587,77	49,644
587,97	49,760
588,16	48,665
588,35	49,554
588,54	49,014
588,74	47,735
588,93	51,130
589,12	50,795
589,32	50,470
589,51	49,766
589,70	47,760
589,90	49,845
590,09	49,615
590,28	52,458
590,48	47,414
590,67	50,201
590,86	49,139
591,06	50,641
591,25	51,130
591,44	50,028
591,63	50,007
591,83	50,505
592,02	50,287
592,21	49,129
592,41	49,219
592,60	49,298
592,79	48,031
592,98	48,152
593,18	51,102
593,37	50,409
593,56	51,424
593,76	50,509
593,95	50,545
594,14	50,007
594,33	51,208
594,53	49,276
594,72	49,885
594,91	54,489
595,10	51,561
595,30	50,231
595,49	49,784
595,68	52,951
595,88	50,527
596,07	51,450
596,26	51,796
596,45	49,993
596,65	47,004
596,84	51,154
597,03	51,204
597,22	52,145
597,42	55,325
597,61	52,177
597,80	51,149
597,99	50,815
598,19	51,209
598,38	51,389
598,57	50,354
598,76	52,241
598,95	52,746
599,15	52,993
599,34	52,367
599,53	51,008
599,72	51,559
599,92	51,259
600,11	50,220
600,30	51,766
600,49	53,960
600,69	49,083
600,88	51,328
601,07	50,545
601,26	51,323
601,45	51,312
601,65	51,636
601,84	52,032
602,03	51,635
602,22	52,664
602,42	53,164
602,61	50,000
602,80	52,258
602,99	51,388
603,18	49,582
603,38	52,549
603,57	51,450
603,76	51,353
603,95	48,867
604,14	53,141
604,34	50,843
604,53	51,205
604,72	53,172
604,91	51,487
605,10	51,614
605,29	53,109
605,49	50,146
605,68	50,625
605,87	50,891
606,06	50,412
606,25	49,863
606,45	50,868
606,64	52,564
606,83	50,824
607,02	49,757
607,21	52,337
607,40	50,472
607,60	47,405
607,79	48,617
607,98	47,070
608,17	47,150
608,36	46,886
608,55	46,644
608,75	47,049
608,94	45,794
609,13	43,222
609,32	40,736
609,51	41,139
609,70	41,608
609,89	41,614
610,09	40,255
610,28	43,103
610,47	40,697
610,66	39,948
610,85	39,302
611,04	42,484
611,23	40,117
611,43	40,040
611,62	39,164
611,81	40,040
612,00	39,974
612,19	39,754
612,38	40,563
612,57	43,036
612,77	42,619
612,96	42,789
613,15	43,778
613,34	43,723
613,53	45,209
613,72	45,996
613,91	45,619
614,10	44,658
614,29	47,776
614,49	44,143
614,68	45,030
614,87	46,288
615,06	50,478
615,25	45,124
615,44	47,492
615,63	49,077
615,82	44,618
616,01	46,681
616,21	48,112
616,40	48,959
616,59	50,877
616,78	48,186
616,97	49,545
617,16	48,744
617,35	49,199
617,54	48,974
617,73	49,527
617,92	47,757
618,11	49,044
618,31	46,509
618,50	49,683
618,69	48,336
618,88	46,739
619,07	46,335
619,26	48,032
619,45	46,740
619,64	47,333
619,83	47,182
620,02	46,373
620,21	49,266
620,40	48,366
620,59	47,854
620,78	46,582
620,97	49,172
621,17	49,826
621,36	47,241
621,55	46,728
621,74	48,187
621,93	48,720
622,12	48,294
622,31	47,289
622,50	47,553
622,69	49,624
622,88	48,619
623,07	50,353
623,26	47,574
623,45	48,634
623,64	47,209
623,83	45,620
624,02	48,871
624,21	50,000
624,40	48,619
624,59	47,557
624,78	49,176
624,97	49,254
625,16	46,596
625,35	45,725
625,54	47,782
625,73	48,430
625,92	49,070
626,12	49,014
626,31	49,671
626,50	50,150
626,69	48,690
626,88	47,715
627,07	49,074
627,26	47,463
627,45	47,485
627,64	48,330
627,83	48,457
628,02	46,697
628,21	45,947
628,40	46,797
628,59	48,602
628,78	47,885
628,97	47,342
629,16	46,769
629,35	46,937
629,54	48,007
629,73	46,522
629,92	45,770
630,10	47,741
630,29	47,299
630,48	47,164
630,67	46,436
630,86	49,400
631,05	47,683
631,24	48,792
631,43	44,657
631,62	47,161
631,81	47,676
632,00	47,958
632,19	45,295
632,38	46,662
632,57	50,571
632,76	47,448
632,95	48,040
633,14	50,153
633,33	48,982
633,52	47,830
633,71	49,664
633,90	46,607
634,09	46,430
634,28	48,127
634,47	48,074
634,66	47,149
634,85	49,016
635,04	48,855
635,22	48,695
635,41	48,596
635,60	49,470
635,79	48,860
635,98	45,922
636,17	49,426
636,36	47,701
636,55	49,603
636,74	46,730
636,93	47,261
637,12	48,488
637,31	47,279
637,50	46,166
637,69	49,429
637,87	49,164
638,06	47,930
638,25	48,935
638,44	48,915
638,63	46,512
638,82	47,618
639,01	48,489
639,20	46,673
639,39	49,045
639,58	47,077
639,77	48,671
639,95	47,910
640,14	50,276
640,33	48,111
640,52	49,187
640,71	49,993
640,90	47,014
641,09	49,861
641,28	45,902
641,47	50,126
641,66	47,080
641,84	47,512
642,03	47,182
642,22	47,420
642,41	50,636
642,60	48,324
642,79	51,169
642,98	48,464
643,17	47,532
643,35	46,160
643,54	49,264
643,73	47,476
643,92	48,983
644,11	47,164
644,30	46,854
644,49	50,967
644,67	48,784
644,86	46,128
645,05	49,018
645,24	47,085
645,43	48,492
645,62	48,562
645,81	47,593
645,99	50,312
646,18	48,611
646,37	47,454
646,56	47,392
646,75	49,837
646,94	50,282
647,13	48,410
647,31	48,164
647,50	48,384
647,69	48,696
647,88	46,810
648,07	47,972
648,26	51,543
648,44	48,226
648,63	47,540
648,82	48,940
649,01	49,783
649,20	46,930
649,38	48,273
649,57	47,488
649,76	46,555
649,95	49,938
650,14	47,383
650,33	48,663
650,51	47,876
650,70	48,601
650,89	46,974
651,08	47,138
651,27	49,972
651,45	46,616
651,64	46,544
651,83	49,094
652,02	47,560
652,21	47,589
652,39	48,552
652,58	49,127
652,77	49,303
652,96	49,100
653,15	48,469
653,33	47,961
653,52	48,761
653,71	52,639
653,90	50,518
654,09	48,864
654,27	51,563
654,46	52,561
654,65	50,445
654,84	49,961
655,02	51,638
655,21	52,347
655,40	51,411
655,59	49,535
655,77	51,949
655,96	50,033
656,15	50,875
656,34	52,443
656,53	50,502
656,71	49,636
656,90	51,088
657,09	50,076
657,28	50,179
657,46	50,315
657,65	50,032
657,84	49,163
658,03	50,214
658,21	49,865
658,40	49,762
658,59	48,208
658,78	49,203
658,96	49,003
659,15	47,985
659,34	48,898
659,52	50,894
659,71	48,412
659,90	47,086
660,09	48,018
660,27	46,551
660,46	51,308
660,65	49,134
660,84	47,038
661,02	48,850
661,21	47,980
661,40	47,663
661,58	48,937
661,77	47,185
661,96	45,978
662,15	46,720
662,33	47,524
662,52	47,447
662,71	47,976
662,89	46,398
663,08	48,056
663,27	47,595
663,45	47,396
663,64	46,846
663,83	45,888
664,02	47,145
664,20	47,761
664,39	45,434
664,58	47,725
664,76	47,632
664,95	47,267
665,14	48,171
665,32	47,783
665,51	48,214
665,70	49,430
665,88	46,729
666,07	46,825
666,26	50,332
666,44	48,269
666,63	45,977
666,82	47,289
667,00	47,595
667,19	47,086
667,38	47,372
667,56	47,675
667,75	47,645
667,94	48,836
668,12	46,616
668,31	47,688
668,50	49,797
668,68	48,896
668,87	47,847
669,06	46,974
669,24	50,082
669,43	48,533
669,62	47,160
669,80	45,471
669,99	48,146
670,18	47,196
670,36	45,124
670,55	47,674
670,74	49,049
670,92	46,682
671,11	46,776
671,29	46,438
671,48	50,455
671,67	48,752
671,85	48,568
672,04	45,809
672,23	47,268
672,41	48,705
672,60	47,520
672,78	47,176
672,97	46,204
673,16	48,171
673,34	47,365
673,53	46,618
673,71	47,878
673,90	49,343
674,09	48,318
674,27	45,306
674,46	46,924
674,64	48,006
674,83	47,602
675,02	45,006
675,20	47,305
675,39	46,672
675,57	47,823
675,76	46,278
675,95	49,681
676,13	48,951
676,32	48,556
676,50	48,092
676,69	45,532
676,88	46,432
677,06	47,713
677,25	47,933
677,43	49,521
677,62	48,690
677,80	48,374
677,99	47,575
678,18	47,370
678,36	50,844
678,55	46,031
678,73	47,140
678,92	49,618
679,10	49,105
679,29	47,044
679,48	46,391
679,66	45,846
679,85	46,718
680,03	48,185
680,22	47,597
680,40	47,454
680,59	46,299
680,77	47,069
680,96	47,750
681,15	47,134
681,33	47,058
681,52	45,642
681,70	47,832
681,89	49,675
682,07	47,909
682,26	49,073
682,44	48,189
682,63	47,716
682,81	47,170
683,00	49,340
683,18	45,917
683,37	48,077
683,55	47,133
683,74	48,372
683,92	51,862
684,11	49,172
684,29	48,360
684,48	44,658
684,67	45,453
684,85	47,871
685,04	47,000
685,22	47,867
685,41	45,919
685,59	48,042
685,78	47,441
685,96	46,468
686,15	47,408
686,33	47,005
686,52	46,182
686,70	46,991
686,89	48,180
687,07	49,097
687,26	48,193
687,44	47,394
687,62	46,395
687,81	47,730
687,99	48,006
688,18	47,847
688,36	46,732
688,55	47,915
688,73	46,872
688,92	45,905
689,10	46,704
689,29	46,295
689,47	48,639
689,66	46,693
689,84	46,294
690,03	44,732
690,21	46,855
690,40	46,237
690,58	45,166
690,76	45,335
690,95	48,721
691,13	46,546
691,32	45,341
691,50	46,593
691,69	48,262
691,87	45,723
692,06	45,447
692,24	45,333
692,43	49,273
692,61	47,064
692,79	46,966
692,98	45,908
693,16	48,889
693,35	45,176
693,53	47,486
693,72	47,666
693,90	48,540
694,08	46,147
694,27	45,215
694,45	49,342
694,64	49,612
694,82	46,698
695,01	44,430
695,19	47,698
695,37	46,596
695,56	46,542
695,74	46,526
695,93	48,465
696,11	44,880
696,29	47,451
696,48	46,532
696,66	46,692
696,85	45,960
697,03	44,816
697,21	47,220
697,40	46,733
697,58	46,652
697,77	45,952
697,95	46,732
698,13	47,948
698,32	47,580
698,50	47,285
698,69	46,707
698,87	46,469
699,05	45,937
699,24	45,894
699,42	46,346
699,60	45,874
699,79	46,571
699,97	47,282
700,16	44,712
700,34	47,742
700,52	47,066
700,71	45,460
700,89	46,281
701,07	46,882
701,26	46,856
701,44	45,383
701,63	45,161
701,81	46,988
701,99	49,455
702,18	43,341
702,36	43,701
702,54	47,390
702,73	46,133
702,91	46,602
703,09	46,652
703,28	46,491
703,46	48,621
703,64	47,626
703,83	46,195
704,01	47,686
704,19	46,948
704,38	44,011
704,56	45,256
704,74	46,968
704,93	45,844
705,11	47,772
705,29	48,041
705,48	49,419
705,66	48,308
705,84	46,006
706,03	43,599
706,21	45,702
706,39	46,782
706,58	45,071
706,76	43,041
706,94	45,226
707,12	47,085
707,31	45,316
707,49	43,995
707,67	47,634
707,86	49,178
708,04	45,874
708,22	44,999
708,41	46,541
708,59	47,253
708,77	43,743
708,95	47,177
709,14	47,234
709,32	48,630
709,50	45,726
709,69	44,742
709,87	44,804
710,05	45,064
710,23	45,446
710,42	44,790
710,60	45,950
710,78	47,740
710,97	44,758
711,15	44,954
711,33	49,012
711,51	44,486
711,70	44,152
711,88	45,097
712,06	47,525
712,24	47,749
712,43	46,862
712,61	45,675
712,79	45,950
712,97	44,168
713,16	46,345
713,34	44,664
713,52	47,668
713,70	46,032
713,89	46,735
714,07	45,408
714,25	46,006
714,43	47,502
714,62	44,811
714,80	45,767
714,98	44,287
715,16	47,619
715,35	43,993
715,53	45,757
715,71	47,745
715,89	47,648
716,07	45,123
716,26	51,078
716,44	47,187
716,62	46,346
716,80	45,686
716,99	46,252
717,17	47,755
717,35	46,105
717,53	45,152
717,71	44,151
717,90	47,839
718,08	45,282
718,26	44,258
718,44	45,822
718,62	48,055
718,81	47,963
718,99	43,689
719,17	44,462
719,35	44,842
719,53	45,829
719,72	46,116
719,90	45,822
720,08	44,250
720,26	46,576
720,44	46,298
720,62	44,830
720,81	48,492
720,99	48,667
721,17	45,281
721,35	46,745
721,53	45,168
721,72	45,538
721,90	47,635
722,08	45,601
722,26	47,293
722,44	45,667
722,62	47,331
722,81	45,458
722,99	46,314
723,17	45,735
723,35	46,175
723,53	46,298
723,71	47,315
723,89	47,240
724,08	42,977
724,26	45,851
724,44	45,762
724,62	46,070
724,80	43,831
724,98	46,096
725,16	47,600
725,35	45,783
725,53	46,187
725,71	43,770
725,89	47,606
726,07	49,959
726,25	48,683
726,43	44,504
726,61	47,146
726,80	46,623
726,98	45,614
727,16	45,537
727,34	48,543
727,52	47,117
727,70	44,082
727,88	45,775
728,06	45,841
728,25	45,812
728,43	47,413
728,61	44,681
728,79	44,117
728,97	44,341
729,15	44,480
729,33	44,777
729,51	47,446
729,69	46,294
729,87	46,452
730,06	45,990
730,24	45,886
730,42	47,666
730,60	46,516
730,78	46,193
730,96	45,789
731,14	47,164
731,32	45,212
731,50	45,419
731,68	45,203
731,86	44,777
732,04	46,404
732,22	43,333
732,41	49,227
732,59	46,912
732,77	49,470
732,95	48,205
733,13	48,103
733,31	47,329
733,49	45,216
733,67	48,312
733,85	48,089
734,03	48,378
734,21	45,859
734,39	46,744
734,57	47,675
734,75	46,201
734,93	44,413
735,11	45,999
735,29	44,916
735,47	47,185
735,65	46,131
735,84	43,257
736,02	47,175
736,20	50,701
736,38	45,470
736,56	46,417
736,74	45,818
736,92	45,314
737,10	46,259
737,28	48,632
737,46	45,816
737,64	44,017
737,82	45,148
738,00	47,797
738,18	47,114
738,36	45,815
738,54	44,422
738,72	44,186
738,90	47,490
739,08	49,614
739,26	44,747
739,44	44,790
739,62	46,175
739,80	47,175
739,98	45,661
740,16	43,842
740,34	46,778
740,52	47,132
740,70	45,778
740,88	45,271
741,06	45,768
741,24	46,311
741,42	46,899
741,60	45,166
741,78	49,009
741,96	44,542
742,14	46,063
742,32	44,337
742,50	46,998
742,68	48,705
742,86	44,801
743,04	44,475
743,21	47,130
743,39	46,692
743,57	44,784
743,75	44,315
743,93	44,154
744,11	43,701
744,29	44,249
744,47	46,605
744,65	47,280
744,83	44,279
745,01	45,425
745,19	46,585
745,37	48,442
745,55	47,075
745,73	46,263
745,91	44,475
746,09	43,260
746,27	46,335
746,45	42,694
746,62	44,796
746,80	46,041
746,98	47,178
747,16	44,058
747,34	45,677
747,52	44,464
747,70	46,616
747,88	45,713
748,06	45,963
748,24	45,511
748,42	47,387
748,60	46,164
748,78	44,635
748,95	46,335
749,13	47,592
749,31	46,280
749,49	45,409
749,67	46,558
749,85	46,841
750,03	45,059
750,21	46,820
750,39	48,155
750,57	46,805
750,74	45,894
750,92	45,650
751,10	49,257
751,28	45,857
751,46	45,884
751,64	46,590
751,82	46,790
752,00	44,325
752,17	45,818
752,35	44,557
752,53	47,371
752,71	46,397
752,89	47,358
753,07	47,016
753,25	46,437
753,43	45,277
753,60	46,898
753,78	45,286
753,96	48,750
754,14	45,550
754,32	45,824
754,50	45,835
754,68	47,652
754,85	47,377
755,03	44,564
755,21	46,587
755,39	49,331
755,57	46,018
755,75	45,789
755,92	45,808
756,10	45,661
756,28	47,035
756,46	44,390
756,64	45,298
756,82	44,723
756,99	44,545
757,17	45,483
757,35	44,545
757,53	47,434
757,71	45,864
757,89	45,617
758,06	44,422
758,24	46,522
758,42	46,063
758,60	45,681
758,78	46,672
758,95	47,422
759,13	47,297
759,31	46,320
759,49	46,216
759,67	46,958
759,84	44,317
760,02	47,123
760,20	45,528
760,38	45,480
760,56	46,461
760,73	45,564
760,91	46,852
761,09	46,408
761,27	44,717
761,45	45,756
761,62	45,049
761,80	47,346
761,98	47,646
762,16	46,272
762,33	45,309
762,51	46,587
762,69	46,074
762,87	45,805
763,05	48,842
763,22	44,271
763,40	46,218
763,58	45,982
763,76	45,600
763,93	47,709
764,11	46,824
764,29	44,919
764,47	46,572
764,64	47,140
764,82	49,941
765,00	45,028
765,18	43,387
765,35	45,703
765,53	47,265
765,71	46,512
765,89	45,962
766,06	46,808
766,24	46,110
766,42	46,165
766,60	45,295
766,77	44,857
766,95	45,079
767,13	46,206
767,30	45,873
767,48	45,139
767,66	44,603
767,84	46,010
768,01	46,324
768,19	45,750
768,37	46,398
768,54	47,083
768,72	47,759
768,90	48,406
769,08	47,416
769,25	46,785
769,43	44,525
769,61	41,997
769,78	45,900
769,96	44,903
770,14	45,713
770,31	47,558
770,49	48,060
770,67	46,395
770,85	44,131
771,02	47,650
771,20	45,137
771,38	48,879
771,55	44,492
771,73	47,590
771,91	44,791
772,08	47,666
772,26	46,952
772,44	44,689
772,61	45,518
772,79	44,313
772,97	47,519
773,14	44,806
773,32	47,574
773,50	43,704
773,67	45,100
773,85	47,001
774,03	43,262
774,20	45,723
774,38	45,645
774,56	45,817
774,73	46,020
774,91	45,260
775,09	45,538
775,26	43,082
775,44	45,889
775,61	45,932
775,79	43,803
775,97	46,285
776,14	43,972
776,32	44,605
776,50	45,742
776,67	46,733
776,85	46,336
777,03	44,298
777,20	45,827
777,38	48,293
777,55	47,153
777,73	43,146
777,91	42,771
778,08	46,048
778,26	45,913
778,43	49,002
778,61	43,035
778,79	44,506
778,96	45,360
779,14	44,050
779,32	47,754
779,49	47,214
779,67	48,741
779,84	45,780
780,02	46,118
780,20	42,208
780,37	46,972
780,55	40,145
780,72	49,758
780,90	46,110
781,07	46,702
781,25	44,513
781,43	46,964
781,60	45,353
781,78	45,178
781,95	46,576
782,13	44,662
782,30	48,767
782,48	47,700
782,66	47,392
782,83	43,739
783,01	51,902
783,18	46,915
783,36	46,026
783,53	47,361
783,71	44,747
783,89	44,860
784,06	44,739
784,24	47,678
784,41	47,535
784,59	45,712
784,76	48,570
784,94	47,676
785,11	46,493
785,29	47,071
785,46	44,174
785,64	47,365
785,82	45,707
785,99	47,917
786,17	46,511
786,34	44,515
786,52	48,331
786,69	50,609
786,87	46,615
787,04	47,110
787,22	45,147
787,39	48,319
787,57	48,893
787,74	48,254
787,92	50,511
788,09	50,309
788,27	44,507
788,44	46,205
788,62	48,981
788,79	46,455
788,97	47,939
789,14	46,288
789,32	47,266
789,49	48,297
789,67	46,126
789,84	47,907
790,02	49,537
790,19	46,484
790,37	46,063
790,54	46,636
790,72	52,052
790,89	49,950
791,07	48,216
791,24	45,623
791,42	46,880
791,59	47,089
791,77	48,608
791,94	44,464
792,12	46,946
792,29	48,587
792,47	48,921
792,64	48,996
792,81	48,693
792,99	46,793
793,16	45,165
793,34	49,046
793,51	48,696
793,69	50,150
793,86	45,709
794,04	47,681
794,21	49,555
794,39	44,242
794,56	47,834
794,73	50,606
794,91	48,855
795,08	45,791
795,26	48,336
795,43	46,367
795,61	48,666
795,78	49,802
795,95	49,218
796,13	47,122
796,30	47,215
796,48	45,201
796,65	46,544
796,83	46,929
797,00	53,269
797,17	47,372
797,35	48,126
797,52	48,337
797,70	53,448
797,87	47,357
798,04	44,837
798,22	48,474
798,39	48,777
798,57	45,711
798,74	48,254
798,91	46,213
799,09	48,253
799,26	48,768
799,44	46,498
799,61	47,871
799,78	48,722
799,96	49,441
800,13	47,286
800,31	47,820
800,48	51,778
800,65	51,944
800,83	47,682
801,00	48,495
801,17	45,629
801,35	48,693
801,52	46,062
801,70	49,203
801,87	45,610
802,04	51,438
802,22	44,408
802,39	48,160
802,56	54,805
802,74	50,550
802,91	49,504
803,08	47,230
803,26	48,362
803,43	50,263
803,61	44,737
803,78	48,208
803,95	53,401
804,13	50,543
804,30	46,374
804,47	52,412
804,65	48,640
804,82	50,819
804,99	46,997
805,17	49,151
805,34	52,259
805,51	49,936
805,69	49,036
805,86	46,875
806,03	48,308
806,21	50,753
806,38	46,796
806,55	48,304
806,72	51,341
806,90	50,532
807,07	47,023
807,24	46,139
807,42	48,402
807,59	51,737
807,76	44,023
807,94	47,609
808,11	48,714
808,28	53,445
808,45	49,231
808,63	49,710
808,80	47,937
808,97	50,402
809,15	47,867
809,32	47,252
809,49	47,142
809,67	45,970
809,84	51,958
810,01	52,068
810,18	54,967
810,36	50,868
810,53	55,518
810,70	48,489
810,87	53,501
811,05	50,713
811,22	51,796
811,39	50,142
811,57	54,349
811,74	51,216
811,91	43,996
812,08	48,092
812,26	54,058
812,43	45,677
812,60	50,549
812,77	47,956
812,95	49,577
813,12	50,478
813,29	44,458
813,46	46,243
813,64	51,023
813,81	52,079
813,98	48,401
814,15	50,908
814,32	52,807
814,50	52,166
814,67	51,969
814,84	54,914
815,01	50,176
815,19	46,755
815,36	42,631
815,53	47,590
815,70	44,664
815,87	43,710
816,05	45,078
816,22	51,369
816,39	52,389
816,56	51,210
816,74	51,718
816,91	47,587
817,08	59,609
817,25	49,460
817,42	53,797
817,60	46,957
817,77	49,692
817,94	43,639
818,11	49,342
818,28	52,205
818,45	50,064
818,63	51,011
818,80	52,870
818,97	49,760
819,14	53,207
819,31	56,957
819,49	50,609
819,66	47,392
819,83	49,518
820,00	51,691
820,17	46,364
820,34	51,038
820,52	51,095
820,69	53,863
820,86	47,620
821,03	49,471
821,20	58,097
821,37	52,516
821,55	42,201
821,72	51,595
821,89	52,480
822,06	52,244
822,23	44,778
822,40	48,478
822,57	54,781
822,75	60,475
822,92	50,024
823,09	50,145
823,26	51,954
823,43	54,950
823,60	48,081
823,77	49,407
823,94	54,547
824,12	59,358
824,29	47,691
824,46	47,057
824,63	56,604
824,80	54,627
824,97	49,736
825,14	51,336
825,31	52,694
825,49	48,855
825,66	50,547
825,83	45,579
826,00	53,383
826,17	63,970
826,34	50,050
826,51	49,100
826,68	47,993
826,85	53,535
827,02	50,572
827,20	48,657
827,37	51,135
827,54	58,398
827,71	55,244
827,88	53,673
828,05	55,190
828,22	54,370
828,39	55,742
828,56	56,261
828,73	52,310
828,90	54,895
829,07	47,739
829,25	54,493
829,42	53,161
829,59	48,957
829,76	50,763
829,93	44,901
830,10	56,864
830,27	54,438
830,44	51,727
830,61	54,240
830,78	38,328
830,95	55,785
831,12	45,671
831,29	52,494
831,46	50,186
831,63	49,972
831,80	58,080
831,97	53,687
832,14	59,245
832,31	66,268
832,48	48,115
832,65	57,378
832,83	51,187
833,00	54,679
833,17	53,557
833,34	54,151
833,51	59,414
833,68	58,553
833,85	57,599
834,02	47,005
834,19	48,060
834,36	64,314
834,53	41,625
834,70	53,190
834,87	59,169
835,04	50,826
835,21	55,658
835,38	51,137
835,55	55,324
835,72	65,986
835,89	51,197
836,06	55,564
836,23	60,150
836,40	47,366
836,57	51,490
836,74	59,002
836,91	54,059
837,08	53,838
837,25	51,550
837,42	46,391
837,59	53,630
837,76	52,927
837,93	51,193
838,09	45,933
838,26	60,057
838,43	62,282
838,60	55,121
838,77	50,662
838,94	62,201
839,11	56,945
839,28	56,453
839,45	52,470
839,62	50,534
839,79	56,605
839,96	60,134
840,13	59,748
840,30	53,335
840,47	46,734
840,64	55,864
840,81	56,097
840,98	55,993
841,15	63,323
841,32	45,214
841,48	64,136
841,65	59,011
841,82	58,312
841,99	62,019
842,16	49,203
842,33	52,093
842,50	57,213
842,67	54,008
842,84	57,774
843,01	55,533
843,18	55,329
843,35	52,430
843,52	53,911
843,68	60,119
843,85	57,709
844,02	51,140
844,19	51,349
844,36	66,884
844,53	72,055
844,70	52,899
844,87	64,714
845,04	53,752
845,21	47,587
845,37	57,200
845,54	49,232
845,71	46,268
845,88	69,943
846,05	49,348
846,22	47,481
846,39	63,456
846,56	63,455
846,72	48,224
846,89	53,649
847,06	63,203
847,23	74,523
847,40	51,197
847,57	47,248
847,74	58,243
847,90	76,901
848,07	54,524
848,24	56,568
848,41	58,104
848,58	64,479
848,75	57,808
848,92	43,854
849,08	50,457
849,25	60,625
849,42	48,085
849,59	69,764
849,76	57,665
849,93	62,883
850,09	59,904
850,26	48,457
850,43	65,355
850,60	53,486
850,77	61,193
850,94	54,951
851,10	60,675
851,27	56,109
851,44	53,464
851,61	51,560
851,78	70,054
851,95	66,896
852,11	49,586
852,28	57,987
852,45	68,780
852,62	61,389
852,79	61,618
852,95	51,739
853,12	69,663
853,29	58,692
853,46	46,762
853,63	51,197
853,79	44,829
853,96	63,886
854,13	77,796
854,30	46,950
854,46	85,704
854,63	55,994
854,80	48,129
854,97	53,068
855,14	73,119
855,30	63,819
855,47	51,559
855,64	54,367
855,81	54,538
855,97	61,609
856,14	55,275
856,31	49,578
856,48	74,213
856,65	66,247
856,81	58,701
856,98	53,413
857,15	46,086
857,32	73,792
857,48	55,225
857,65	78,966
857,82	58,077
857,99	76,405
858,15	54,527
858,32	57,700
858,49	65,875
858,65	82,275
858,82	61,099
858,99	60,832
859,16	62,036
859,32	60,296
859,49	55,227
859,66	59,979
859,83	52,907
859,99	56,812
860,16	56,909
860,33	62,776
860,49	71,611
860,66	58,376
860,83	65,924
861,00	50,669
861,16	69,514
861,33	52,188
861,50	58,744
861,66	58,508
861,83	73,257
862,00	65,643
862,16	75,930
862,33	70,348
862,50	105,956
862,67	65,522
862,83	63,953
863,00	75,006
863,17	101,913
863,33	60,187
863,50	49,149
863,67	52,429
863,83	65,378
864,00	86,918
864,17	51,277
864,33	53,601
864,50	72,958
864,67	59,973
864,83	59,177
865,00	42,463
865,17	56,445
865,33	83,394
865,50	47,041
865,67	61,570
865,83	75,253
866,00	92,321
866,17	66,493
866,33	77,229
866,50	78,471
866,66	71,486
866,83	83,735
867,00	94,730
867,16	64,157
867,33	92,275
867,50	33,561
867,66	36,555
867,83	64,564
868,00	84,653
868,16	51,940
868,33	42,598
868,49	70,702
868,66	76,491
868,83	61,456
868,99	61,025
869,16	90,939
869,32	96,938
869,49	65,878
869,66	59,366
869,82	84,712
869,99	97,706
870,15	60,343
870,32	78,156
870,49	75,051
870,65	115,661
870,82	78,081
870,98	57,040
871,15	86,133
871,32	72,303
871,48	43,151
871,65	43,489
871,81	70,031
871,98	29,165
872,15	38,992
872,31	46,452
872,48	107,058
872,64	71,139
872,81	50,354
872,97	80,965
873,14	107,631
873,31	94,740
873,47	50,570
873,64	79,200
873,80	119,354
873,97	117,639
874,13	34,826
874,30	55,453
874,46	97,667
874,63	80,605
874,80	49,728
874,96	51,695
875,13	126,657
875,29	55,349
875,46	90,142
875,62	35,571
875,79	114,747
875,95	78,632
876,12	60,535
876,28	13,130
876,45	122,946
876,61	82,937
876,78	51,912
876,94	86,916
877,11	81,804
877,27	84,049
877,44	87,965
877,60	69,030
877,77	115,612
877,94	118,758
878,10	32,949
878,27	87,068
878,43	124,554
878,60	43,810
878,76	75,948
878,93	80,869
879,09	122,731
879,26	115,218
879,42	69,460
879,58	65,896
879,75	71,879
879,91	105,436
880,08	-41,222
880,24	66,777
880,41	76,790
880,57	90,861
880,74	47,333
880,90	99,430
881,07	68,690
881,23	178,109
881,40	79,220
881,56	97,828
881,73	102,992
881,89	98,409
882,06	83,041
882,22	139,675
882,38	151,860
882,55	177,069
882,71	39,347
882,88	96,746
883,04	155,691
883,21	179,827
883,37	85,506
883,54	88,865
883,70	184,916
883,86	115,918
884,03	92,025
884,19	53,643
884,36	139,652
884,52	195,771
884,69	99,381
884,85	102,336
885,01	270,173
885,18	123,568
885,34	156,940
885,51	38,499
885,67	88,065
>>>>> Data<<<<< Espectral Procesado Extremo
