Fichero De Datos De SpectraSuite
++++++++++++++++++++++++++++++++++++
Fecha: Wed Apr 22 12:11:50 CEST 2009
Usuario: evoflor
Presente Oscuro Del Espectro: Sí
La Referencia de Presente Del Espectro De: Sí
Muestreados de los componentes de Número de espectros: 1
Espectrómetros: USB4F02353
Tiempo de integración (usec): 500000 (USB4F02353)
Promedio de Espectros Hechos un: 5 (USB4F02353)
El Alisar Del Furgón: 0 (USB4F02353)
Párrafo de de Corregir del la del del de Eléctrica del obscuridad: Sí (USB4F02353)
Estrobo/Lámpara Permitido: No (USB4F02353)
Correct for Detector Non-linearity: No (USB4F02353)
Párrafo de de Corregir del la del del de Externa del luz: No (USB4F02353)
Procesado del espectro de Número de pixeles en: 3648
>>>>> Comienza Data<<<<< Espectral Procesado Del EL
177,79	257,199
178,00	257,199
178,22	257,199
178,44	1554,615
178,66	-282,149
178,88	129,544
179,09	-144,809
179,31	284,574
179,53	684,923
179,75	362,741
179,96	1139,052
180,18	-149,015
180,40	354,873
180,62	398,223
180,83	-420,950
181,05	-1073,537
181,27	-182530,000
181,49	35,587
181,70	-76,808
181,92	451,421
182,14	582,319
182,36	241,243
182,58	-52,300
182,79	766,652
183,01	-15,344
183,23	181,350
183,45	-198,862
183,66	-70,929
183,88	496,647
184,10	-2631,455
184,32	244,629
184,53	278,078
184,75	-241,199
184,97	56,101
185,18	-184,079
185,40	-332,356
185,62	154,112
185,84	90,022
186,05	122,782
186,27	-116,313
186,49	3005,000
186,71	-20,302
186,92	58,561
187,14	-242,262
187,36	176,196
187,58	108,588
187,79	-54,453
188,01	227,867
188,23	-178,494
188,45	-4,068
188,66	228,259
188,88	-1633,273
189,10	-1114,300
189,31	-39,642
189,53	-57,792
189,75	425,068
189,97	165,500
190,18	115,150
190,40	337,824
190,62	-94,786
190,83	-341,109
191,05	82,719
191,27	220,657
191,49	369,381
191,70	-228,510
191,92	-997,712
192,14	-101,359
192,35	450,743
192,57	3440,857
192,79	32,398
193,01	265,674
193,22	154,852
193,44	-94,932
193,66	98,632
193,87	86,360
194,09	-54,657
194,31	195,775
194,53	338,671
194,74	63,597
194,96	68,836
195,18	164,282
195,39	-377,124
195,61	-155,073
195,83	-281,370
196,04	159,274
196,26	-134,824
196,48	39,489
196,70	307,416
196,91	48,925
197,13	10,962
197,35	-53,406
197,56	542,817
197,78	1637,537
198,00	615,594
198,21	610,825
198,43	-914,709
198,65	141,712
198,86	-65,360
199,08	-186,459
199,30	300,263
199,51	-486,091
199,73	205,178
199,95	313,688
200,16	515,115
200,38	315,083
200,60	184,636
200,81	263,662
201,03	143,832
201,25	-1906,300
201,46	168,420
201,68	10,867
201,90	793,864
202,11	-281,031
202,33	88,564
202,55	155,375
202,76	-101,751
202,98	149,930
203,20	-349,663
203,41	-477,526
203,63	151,436
203,85	-123130,000
204,06	149,954
204,28	-19,108
204,50	221,980
204,71	308,180
204,93	423,440
205,15	178,404
205,36	-233,709
205,58	217,332
205,80	-46,386
206,01	90,772
206,23	143,176
206,45	123,231
206,66	222,265
206,88	-25,429
207,10	216,432
207,31	326,397
207,53	107,514
207,75	160,203
207,96	1288,284
208,18	-196,297
208,39	96,823
208,61	2849,429
208,83	-231,697
209,04	180,792
209,26	-418,111
209,48	337,833
209,69	136,177
209,91	522,399
210,13	11,883
210,34	51,889
210,56	198,486
210,77	-1997,087
210,99	78,481
211,21	10525,294
211,42	-207,343
211,64	-62,346
211,86	225,090
212,07	289,783
212,29	168,594
212,50	125,520
212,72	-76,808
212,94	88,905
213,15	66,194
213,37	165,075
213,58	-141,308
213,80	-3593,929
214,02	14284,118
214,23	285,456
214,45	329,934
214,67	-1479,634
214,88	33,792
215,10	-340,370
215,31	72,336
215,53	103,932
215,75	445,791
215,96	1273,478
216,18	213,099
216,39	210,056
216,61	628,450
216,83	316,652
217,04	1484,607
217,26	51,984
217,47	115,064
217,69	208,042
217,91	165,129
218,12	-72730,000
218,34	4,966
218,55	307,507
218,77	63,441
218,99	72,876
219,20	-236,805
219,42	367,424
219,63	-114,776
219,85	7,725
220,06	-163,346
220,28	171,188
220,50	52,124
220,71	90,974
220,93	2493,019
221,14	-1312,300
221,36	-101,205
221,58	-24,236
221,79	3,947
222,01	875,259
222,22	407,434
222,44	-507,528
222,65	58,132
222,87	-133,357
223,09	137,244
223,30	87,428
223,52	189,493
223,73	140,204
223,95	-78,831
224,16	149,959
224,38	37,986
224,60	78,950
224,81	28,840
225,03	101,905
225,24	144,700
225,46	53,538
225,67	65,653
225,89	106,976
226,10	517,259
226,32	502,640
226,54	-46,500
226,75	5,998
226,97	176,438
227,18	145,872
227,40	26,787
227,61	36,935
227,83	47,320
228,04	87,245
228,26	98,536
228,47	48,995
228,69	148,888
228,91	82,949
229,12	68,960
229,34	57,584
229,55	68,561
229,77	41,549
229,98	47,507
230,20	99,380
230,41	-35,850
230,63	82,054
230,84	23,998
231,06	26,040
231,27	35,975
231,49	54,869
231,71	31,525
231,92	30,192
232,14	0,699
232,35	79,866
232,57	73,665
232,78	6,513
233,00	44,715
233,21	48,694
233,43	19,123
233,64	12,425
233,86	33,118
234,07	31,395
234,29	21,884
234,50	12,576
234,72	48,604
234,93	-3,941
235,15	26,058
235,36	31,431
235,58	29,911
235,79	35,212
236,01	20,497
236,22	23,616
236,44	45,061
236,65	27,679
236,87	6,669
237,08	17,119
237,30	-2,335
237,51	15,235
237,73	-4,945
237,94	13,461
238,16	16,258
238,37	8,723
238,59	16,240
238,80	11,330
239,02	3,923
239,23	12,022
239,45	-3,198
239,66	25,986
239,88	37,881
240,09	24,536
240,31	-4,290
240,52	8,699
240,74	13,278
240,95	9,186
241,17	-3,842
241,38	2,393
241,60	14,215
241,81	25,380
242,03	4,710
242,24	9,084
242,46	24,821
242,67	8,934
242,89	10,017
243,10	12,759
243,32	16,021
243,53	16,309
243,75	9,318
243,96	12,691
244,18	16,727
244,39	15,248
244,60	7,060
244,82	7,980
245,03	18,569
245,25	7,053
245,46	27,436
245,68	6,059
245,89	19,537
246,11	14,831
246,32	9,862
246,54	1,579
246,75	10,020
246,97	14,434
247,18	17,776
247,39	7,443
247,61	12,248
247,82	4,357
248,04	8,681
248,25	6,754
248,47	11,511
248,68	10,942
248,90	2,841
249,11	5,217
249,33	16,735
249,54	1,943
249,75	6,334
249,97	2,645
250,18	12,187
250,40	21,126
250,61	-0,925
250,83	7,357
251,04	5,061
251,25	12,204
251,47	-0,965
251,68	11,752
251,90	10,284
252,11	8,174
252,33	6,735
252,54	6,496
252,76	7,227
252,97	3,848
253,18	0,817
253,40	4,625
253,61	4,884
253,83	9,412
254,04	7,851
254,25	6,957
254,47	3,773
254,68	8,598
254,90	2,832
255,11	4,095
255,33	8,622
255,54	6,655
255,75	8,269
255,97	5,971
256,18	7,654
256,40	7,723
256,61	10,336
256,82	2,741
257,04	11,987
257,25	0,602
257,47	7,318
257,68	2,894
257,89	9,241
258,11	10,720
258,32	5,469
258,54	2,841
258,75	9,891
258,96	12,338
259,18	6,004
259,39	1,624
259,61	10,556
259,82	4,413
260,03	4,551
260,25	7,237
260,46	6,416
260,68	3,454
260,89	4,313
261,10	6,025
261,32	7,896
261,53	5,340
261,75	8,463
261,96	-0,382
262,17	12,576
262,39	11,813
262,60	6,380
262,81	-1,711
263,03	15,883
263,24	5,923
263,46	3,067
263,67	3,895
263,88	4,038
264,10	8,071
264,31	3,518
264,52	8,131
264,74	7,286
264,95	5,039
265,17	5,327
265,38	5,400
265,59	11,803
265,81	8,949
266,02	2,502
266,23	3,062
266,45	12,402
266,66	11,494
266,87	8,936
267,09	6,118
267,30	7,637
267,52	9,156
267,73	5,135
267,94	5,755
268,16	6,672
268,37	7,612
268,58	5,559
268,80	5,551
269,01	5,540
269,22	10,601
269,44	6,830
269,65	3,901
269,86	1,932
270,08	8,336
270,29	2,870
270,50	9,134
270,72	8,597
270,93	5,210
271,14	4,120
271,36	3,735
271,57	9,345
271,78	8,254
272,00	9,852
272,21	6,864
272,42	7,582
272,64	7,733
272,85	2,523
273,06	5,173
273,28	6,584
273,49	6,739
273,70	7,906
273,92	8,570
274,13	10,161
274,34	5,295
274,56	7,499
274,77	3,126
274,98	6,182
275,20	7,765
275,41	7,697
275,62	8,023
275,84	7,116
276,05	11,832
276,26	3,837
276,47	3,034
276,69	7,736
276,90	5,232
277,11	6,811
277,33	5,509
277,54	9,809
277,75	6,452
277,97	1,983
278,18	2,827
278,39	7,724
278,61	5,056
278,82	5,654
279,03	4,342
279,24	8,175
279,46	5,080
279,67	5,407
279,88	3,796
280,10	9,839
280,31	0,674
280,52	6,410
280,73	3,257
280,95	8,506
281,16	8,190
281,37	4,751
281,59	8,721
281,80	12,327
282,01	5,017
282,22	6,910
282,44	1,640
282,65	10,916
282,86	9,024
283,08	4,649
283,29	6,816
283,50	8,535
283,71	7,177
283,93	6,435
284,14	8,115
284,35	5,888
284,56	4,038
284,78	5,988
284,99	5,305
285,20	8,100
285,42	5,373
285,63	3,499
285,84	0,302
286,05	2,428
286,27	6,604
286,48	4,337
286,69	3,181
286,90	4,788
287,12	6,073
287,33	1,919
287,54	4,969
287,75	6,931
287,97	6,292
288,18	7,178
288,39	5,378
288,60	7,181
288,82	6,789
289,03	3,520
289,24	3,766
289,45	10,182
289,67	7,312
289,88	5,533
290,09	7,648
290,30	7,119
290,52	4,031
290,73	5,944
290,94	1,809
291,15	5,974
291,37	5,404
291,58	5,165
291,79	4,532
292,00	6,923
292,21	7,015
292,43	4,129
292,64	1,946
292,85	3,584
293,06	8,538
293,28	2,624
293,49	2,238
293,70	9,763
293,91	5,656
294,12	6,581
294,34	6,422
294,55	7,002
294,76	6,892
294,97	7,249
295,19	0,371
295,40	6,755
295,61	6,381
295,82	2,186
296,03	6,960
296,25	7,806
296,46	2,960
296,67	2,540
296,88	0,223
297,09	6,900
297,31	4,059
297,52	6,206
297,73	3,874
297,94	7,258
298,15	4,319
298,37	3,846
298,58	4,202
298,79	5,940
299,00	3,877
299,21	3,451
299,43	4,348
299,64	9,984
299,85	6,951
300,06	3,463
300,27	3,800
300,49	9,705
300,70	7,451
300,91	5,412
301,12	3,227
301,33	9,349
301,54	3,495
301,76	6,390
301,97	4,494
302,18	4,150
302,39	8,959
302,60	13,687
302,82	5,521
303,03	10,427
303,24	6,381
303,45	7,183
303,66	2,190
303,87	3,103
304,09	9,419
304,30	2,766
304,51	4,677
304,72	4,486
304,93	8,761
305,14	4,714
305,36	1,874
305,57	2,422
305,78	5,050
305,99	4,461
306,20	4,142
306,41	3,974
306,62	3,080
306,84	4,141
307,05	3,740
307,26	4,802
307,47	10,332
307,68	6,968
307,89	2,340
308,11	6,845
308,32	3,767
308,53	5,513
308,74	4,624
308,95	4,039
309,16	9,317
309,37	8,800
309,59	3,244
309,80	6,156
310,01	4,530
310,22	5,908
310,43	4,590
310,64	6,083
310,85	5,811
311,06	6,079
311,28	4,640
311,49	5,176
311,70	8,410
311,91	2,881
312,12	3,810
312,33	6,999
312,54	6,772
312,75	4,413
312,97	4,423
313,18	6,846
313,39	4,548
313,60	4,913
313,81	5,328
314,02	6,499
314,23	9,369
314,44	1,538
314,65	4,081
314,87	3,631
315,08	2,612
315,29	8,409
315,50	5,583
315,71	9,518
315,92	8,976
316,13	4,049
316,34	4,969
316,55	6,618
316,77	3,224
316,98	4,170
317,19	3,500
317,40	6,432
317,61	9,855
317,82	6,346
318,03	5,161
318,24	5,882
318,45	8,734
318,66	5,439
318,87	4,955
319,09	5,864
319,30	6,173
319,51	8,155
319,72	6,632
319,93	4,983
320,14	8,786
320,35	7,045
320,56	5,035
320,77	4,996
320,98	8,009
321,19	4,190
321,40	3,592
321,62	4,039
321,83	6,739
322,04	6,754
322,25	4,129
322,46	9,879
322,67	8,480
322,88	6,091
323,09	4,067
323,30	5,873
323,51	8,741
323,72	9,171
323,93	4,867
324,14	5,193
324,35	2,447
324,56	0,728
324,77	4,277
324,99	3,351
325,20	0,805
325,41	4,172
325,62	4,109
325,83	3,692
326,04	5,846
326,25	9,663
326,46	3,285
326,67	6,020
326,88	7,717
327,09	5,600
327,30	4,040
327,51	5,365
327,72	8,069
327,93	6,544
328,14	-2,989
328,35	4,808
328,56	7,099
328,77	5,587
328,98	9,068
329,19	6,094
329,40	6,818
329,61	5,793
329,82	6,474
330,04	5,214
330,25	2,650
330,46	3,784
330,67	3,773
330,88	3,569
331,09	5,423
331,30	5,751
331,51	4,574
331,72	5,318
331,93	3,795
332,14	2,618
332,35	8,083
332,56	5,372
332,77	7,489
332,98	2,648
333,19	5,067
333,40	4,728
333,61	2,547
333,82	10,431
334,03	7,148
334,24	7,142
334,45	4,070
334,66	9,105
334,87	7,286
335,08	4,367
335,29	1,744
335,50	1,816
335,71	2,329
335,92	7,799
336,13	7,903
336,34	4,559
336,55	6,013
336,76	8,432
336,97	5,412
337,18	3,528
337,39	4,933
337,60	8,947
337,81	3,936
338,02	4,294
338,23	3,406
338,44	7,086
338,65	6,184
338,86	7,661
339,07	3,961
339,28	6,910
339,49	6,397
339,70	0,470
339,91	2,132
340,11	8,725
340,32	5,368
340,53	3,961
340,74	3,498
340,95	2,645
341,16	6,518
341,37	4,450
341,58	3,205
341,79	4,087
342,00	2,954
342,21	4,427
342,42	3,832
342,63	4,927
342,84	1,014
343,05	7,262
343,26	7,252
343,47	7,957
343,68	3,604
343,89	3,504
344,10	6,565
344,31	8,531
344,52	3,867
344,73	5,122
344,94	7,901
345,14	5,233
345,35	7,688
345,56	8,089
345,77	1,959
345,98	5,811
346,19	5,549
346,40	6,096
346,61	6,097
346,82	2,726
347,03	5,062
347,24	8,492
347,45	4,223
347,66	6,727
347,87	5,079
348,08	5,599
348,28	1,962
348,49	5,027
348,70	7,154
348,91	4,859
349,12	4,302
349,33	16,148
349,54	5,761
349,75	6,150
349,96	5,211
350,17	5,455
350,38	4,379
350,59	5,499
350,80	6,696
351,00	8,232
351,21	8,861
351,42	4,199
351,63	5,967
351,84	5,414
352,05	7,536
352,26	5,935
352,47	7,265
352,68	6,688
352,89	7,734
353,09	6,458
353,30	1,830
353,51	5,417
353,72	8,184
353,93	7,973
354,14	2,275
354,35	6,275
354,56	9,566
354,77	3,595
354,98	1,220
355,18	7,517
355,39	9,743
355,60	3,545
355,81	5,421
356,02	8,779
356,23	4,890
356,44	4,882
356,65	7,231
356,85	11,545
357,06	8,541
357,27	4,390
357,48	3,113
357,69	6,007
357,90	4,576
358,11	0,691
358,32	7,304
358,52	8,741
358,73	6,494
358,94	5,470
359,15	7,004
359,36	6,015
359,57	6,609
359,78	6,477
359,98	5,188
360,19	3,037
360,40	4,401
360,61	7,267
360,82	4,248
361,03	8,449
361,24	5,466
361,44	2,656
361,65	7,442
361,86	-0,037
362,07	8,264
362,28	4,222
362,49	6,931
362,70	4,171
362,90	9,078
363,11	2,872
363,32	1,997
363,53	6,124
363,74	9,147
363,95	8,014
364,15	6,889
364,36	7,388
364,57	9,201
364,78	4,096
364,99	5,239
365,20	6,839
365,40	8,029
365,61	2,511
365,82	7,027
366,03	5,224
366,24	6,183
366,45	3,128
366,65	4,259
366,86	5,234
367,07	8,453
367,28	5,616
367,49	6,972
367,69	8,941
367,90	5,341
368,11	5,294
368,32	4,557
368,53	7,184
368,73	6,444
368,94	5,605
369,15	3,775
369,36	5,953
369,57	8,161
369,78	4,271
369,98	7,770
370,19	11,422
370,40	4,653
370,61	4,842
370,82	3,855
371,02	7,763
371,23	10,797
371,44	5,518
371,65	4,240
371,85	7,936
372,06	4,432
372,27	4,243
372,48	3,617
372,69	5,781
372,89	5,012
373,10	5,895
373,31	4,946
373,52	6,848
373,73	10,060
373,93	7,814
374,14	5,256
374,35	13,334
374,56	8,726
374,76	4,197
374,97	8,007
375,18	9,360
375,39	7,142
375,60	9,444
375,80	6,431
376,01	4,153
376,22	4,915
376,43	4,105
376,63	6,260
376,84	3,683
377,05	9,048
377,26	2,584
377,46	3,175
377,67	4,260
377,88	8,752
378,09	5,915
378,29	6,986
378,50	8,921
378,71	7,577
378,92	3,042
379,12	6,234
379,33	5,778
379,54	6,221
379,75	7,774
379,95	7,885
380,16	7,863
380,37	8,400
380,58	6,457
380,78	10,396
380,99	4,977
381,20	3,570
381,41	7,466
381,61	9,507
381,82	7,440
382,03	8,069
382,24	6,659
382,44	7,755
382,65	8,938
382,86	9,374
383,06	6,656
383,27	6,164
383,48	8,802
383,69	10,699
383,89	11,161
384,10	6,415
384,31	9,073
384,51	10,864
384,72	9,462
384,93	5,683
385,14	7,432
385,34	9,651
385,55	9,356
385,76	5,737
385,96	11,231
386,17	9,565
386,38	9,856
386,59	10,545
386,79	9,243
387,00	10,997
387,21	9,807
387,41	11,743
387,62	7,101
387,83	14,558
388,03	9,700
388,24	7,456
388,45	8,873
388,66	9,409
388,86	11,068
389,07	8,657
389,28	14,975
389,48	8,638
389,69	9,765
389,90	11,630
390,10	13,489
390,31	13,925
390,52	5,271
390,72	9,227
390,93	13,750
391,14	14,660
391,34	11,237
391,55	15,799
391,76	15,087
391,96	13,273
392,17	14,541
392,38	14,756
392,58	16,683
392,79	12,036
393,00	9,273
393,20	10,334
393,41	14,863
393,62	13,620
393,82	15,096
394,03	15,815
394,24	16,045
394,44	19,282
394,65	14,031
394,86	15,302
395,06	17,929
395,27	12,452
395,48	13,890
395,68	18,857
395,89	17,182
396,10	17,122
396,30	14,846
396,51	13,310
396,72	16,555
396,92	16,087
397,13	17,430
397,34	12,952
397,54	21,017
397,75	18,340
397,95	14,727
398,16	17,313
398,37	17,043
398,57	18,397
398,78	19,360
398,99	24,642
399,19	22,381
399,40	24,180
399,60	17,333
399,81	18,691
400,02	22,939
400,22	25,293
400,43	19,616
400,64	22,098
400,84	17,976
401,05	21,512
401,25	22,779
401,46	24,613
401,67	19,629
401,87	20,008
402,08	18,014
402,29	23,632
402,49	25,248
402,70	24,669
402,90	21,025
403,11	22,266
403,32	22,473
403,52	23,203
403,73	24,616
403,93	26,099
404,14	30,373
404,35	27,826
404,55	22,805
404,76	21,687
404,96	28,788
405,17	31,515
405,38	28,843
405,58	26,426
405,79	28,001
405,99	31,161
406,20	26,269
406,40	25,417
406,61	30,354
406,82	25,375
407,02	30,620
407,23	26,766
407,43	26,005
407,64	28,033
407,85	29,147
408,05	24,441
408,26	35,409
408,46	33,460
408,67	32,744
408,87	29,289
409,08	31,590
409,29	38,405
409,49	33,783
409,70	31,941
409,90	32,179
410,11	34,513
410,31	38,652
410,52	33,235
410,72	38,892
410,93	36,995
411,14	32,793
411,34	30,435
411,55	35,483
411,75	37,759
411,96	35,112
412,16	36,441
412,37	32,568
412,57	36,744
412,78	34,701
412,99	34,201
413,19	37,982
413,40	36,829
413,60	34,160
413,81	33,596
414,01	34,537
414,22	41,695
414,42	36,072
414,63	33,365
414,83	40,374
415,04	41,549
415,24	37,370
415,45	35,542
415,65	39,870
415,86	38,972
416,07	39,086
416,27	36,615
416,48	39,895
416,68	46,380
416,89	33,206
417,09	37,481
417,30	46,356
417,50	36,702
417,71	43,353
417,91	44,574
418,12	41,816
418,32	42,733
418,53	37,159
418,73	40,630
418,94	40,400
419,14	43,050
419,35	40,676
419,55	39,773
419,76	42,994
419,96	43,745
420,17	42,197
420,37	41,930
420,58	42,104
420,78	43,611
420,99	39,424
421,19	46,585
421,40	43,640
421,60	51,938
421,81	41,821
422,01	44,169
422,22	45,264
422,42	48,626
422,63	43,117
422,83	42,464
423,04	50,754
423,24	47,179
423,45	42,567
423,65	47,598
423,86	47,652
424,06	44,125
424,27	43,917
424,47	42,948
424,67	43,874
424,88	49,615
425,08	44,118
425,29	50,234
425,49	44,974
425,70	44,070
425,90	46,451
426,11	46,394
426,31	50,662
426,52	49,154
426,72	43,639
426,93	43,486
427,13	46,899
427,33	48,180
427,54	47,809
427,74	51,879
427,95	53,059
428,15	45,074
428,36	42,617
428,56	46,319
428,77	47,345
428,97	47,342
429,18	49,139
429,38	41,569
429,58	52,172
429,79	50,422
429,99	47,040
430,20	42,640
430,40	52,790
430,61	44,435
430,81	42,981
431,01	49,463
431,22	49,978
431,42	47,422
431,63	39,845
431,83	47,455
432,04	47,098
432,24	52,207
432,44	44,604
432,65	43,075
432,85	44,205
433,06	46,055
433,26	41,386
433,47	42,372
433,67	43,363
433,87	41,929
434,08	43,203
434,28	43,210
434,49	45,766
434,69	50,256
434,89	41,423
435,10	43,264
435,30	46,037
435,51	41,788
435,71	44,447
435,91	45,049
436,12	41,478
436,32	46,579
436,53	45,164
436,73	46,376
436,93	46,854
437,14	45,987
437,34	47,033
437,55	45,105
437,75	46,940
437,95	50,304
438,16	48,535
438,36	47,536
438,57	46,679
438,77	48,040
438,97	50,685
439,18	50,780
439,38	46,860
439,58	43,874
439,79	49,538
439,99	48,256
440,20	52,613
440,40	47,685
440,60	45,734
440,81	49,425
441,01	46,041
441,21	52,760
441,42	48,533
441,62	54,510
441,83	52,680
442,03	48,980
442,23	52,915
442,44	51,464
442,64	50,619
442,84	43,096
443,05	49,181
443,25	49,670
443,45	49,626
443,66	49,384
443,86	44,290
444,06	49,611
444,27	46,981
444,47	53,569
444,67	47,481
444,88	50,385
445,08	51,151
445,28	50,065
445,49	47,172
445,69	45,650
445,90	50,465
446,10	51,724
446,30	51,200
446,51	47,238
446,71	54,489
446,91	51,579
447,12	55,485
447,32	50,608
447,52	48,978
447,72	50,032
447,93	49,762
448,13	45,034
448,33	55,911
448,54	54,716
448,74	46,497
448,94	53,057
449,15	50,845
449,35	51,242
449,55	51,526
449,76	54,541
449,96	49,611
450,16	54,103
450,37	46,133
450,57	47,968
450,77	44,452
450,98	53,070
451,18	50,597
451,38	48,833
451,58	51,087
451,79	53,519
451,99	50,430
452,19	48,927
452,40	51,741
452,60	48,141
452,80	48,924
453,00	50,468
453,21	52,701
453,41	53,740
453,61	49,319
453,82	48,993
454,02	44,722
454,22	58,052
454,42	57,556
454,63	48,967
454,83	48,093
455,03	51,114
455,24	51,621
455,44	49,780
455,64	49,995
455,84	50,250
456,05	44,550
456,25	48,607
456,45	52,448
456,65	50,467
456,86	52,045
457,06	56,012
457,26	55,654
457,47	54,728
457,67	48,344
457,87	48,368
458,07	46,615
458,28	51,374
458,48	50,250
458,68	47,132
458,88	57,765
459,09	49,730
459,29	54,522
459,49	47,443
459,69	53,022
459,90	52,721
460,10	46,311
460,30	51,371
460,50	46,886
460,71	53,358
460,91	50,946
461,11	48,369
461,31	49,425
461,52	56,080
461,72	51,785
461,92	50,014
462,12	56,568
462,32	48,412
462,53	50,299
462,73	50,542
462,93	50,049
463,13	53,487
463,34	48,409
463,54	47,786
463,74	51,614
463,94	50,348
464,14	50,818
464,35	50,391
464,55	54,317
464,75	57,445
464,95	50,720
465,16	45,068
465,36	52,657
465,56	51,312
465,76	53,763
465,96	51,015
466,17	51,566
466,37	45,657
466,57	52,939
466,77	51,924
466,97	49,922
467,18	54,185
467,38	52,086
467,58	52,644
467,78	53,203
467,98	53,903
468,19	50,014
468,39	49,749
468,59	56,022
468,79	51,823
468,99	49,541
469,19	49,111
469,40	53,698
469,60	45,800
469,80	49,406
470,00	52,221
470,20	52,111
470,41	49,721
470,61	51,735
470,81	50,756
471,01	46,219
471,21	49,489
471,41	46,848
471,62	49,737
471,82	49,650
472,02	50,626
472,22	49,242
472,42	49,790
472,62	52,970
472,83	49,909
473,03	52,445
473,23	53,297
473,43	53,340
473,63	51,955
473,83	52,322
474,03	52,326
474,24	54,666
474,44	50,258
474,64	50,209
474,84	49,562
475,04	49,107
475,24	52,349
475,45	50,075
475,65	47,920
475,85	52,268
476,05	45,776
476,25	49,475
476,45	49,075
476,65	56,773
476,85	50,150
477,06	50,133
477,26	50,092
477,46	49,765
477,66	51,183
477,86	49,953
478,06	50,927
478,26	56,090
478,46	53,936
478,67	52,796
478,87	51,111
479,07	49,806
479,27	55,514
479,47	49,825
479,67	46,132
479,87	47,593
480,07	46,340
480,28	46,692
480,48	48,012
480,68	52,773
480,88	56,662
481,08	50,497
481,28	51,541
481,48	52,546
481,68	46,994
481,88	48,760
482,08	48,675
482,29	53,890
482,49	48,666
482,69	48,258
482,89	46,627
483,09	55,203
483,29	46,404
483,49	46,670
483,69	51,035
483,89	46,261
484,09	46,086
484,29	45,399
484,50	47,215
484,70	48,003
484,90	48,679
485,10	46,289
485,30	48,882
485,50	52,991
485,70	49,537
485,90	48,089
486,10	44,315
486,30	46,587
486,50	45,458
486,70	46,662
486,90	46,446
487,10	49,863
487,30	44,960
487,51	48,466
487,71	43,817
487,91	45,738
488,11	47,171
488,31	42,822
488,51	46,896
488,71	47,216
488,91	49,289
489,11	44,226
489,31	45,320
489,51	46,095
489,71	48,305
489,91	45,772
490,11	45,783
490,31	45,591
490,51	49,779
490,71	47,642
490,91	47,056
491,11	47,731
491,31	46,073
491,51	45,572
491,72	50,055
491,92	48,666
492,12	53,344
492,32	50,354
492,52	50,163
492,72	47,609
492,92	48,376
493,12	47,462
493,32	43,771
493,52	43,836
493,72	50,032
493,92	49,537
494,12	49,435
494,32	48,511
494,52	47,381
494,72	49,653
494,92	48,445
495,12	50,480
495,32	53,990
495,52	47,053
495,72	51,263
495,92	50,041
496,12	53,914
496,32	46,825
496,52	49,570
496,72	47,212
496,92	47,706
497,12	49,298
497,32	50,417
497,52	51,875
497,72	52,460
497,92	51,656
498,12	48,022
498,32	47,462
498,52	51,225
498,72	45,670
498,92	47,947
499,12	53,106
499,32	48,839
499,52	50,591
499,72	50,554
499,92	53,157
500,12	51,659
500,32	51,655
500,52	50,481
500,72	55,153
500,91	53,352
501,11	50,727
501,31	49,035
501,51	52,081
501,71	54,596
501,91	53,724
502,11	50,485
502,31	48,408
502,51	50,238
502,71	49,618
502,91	52,673
503,11	53,445
503,31	49,916
503,51	48,781
503,71	51,865
503,91	51,401
504,11	51,673
504,31	48,539
504,51	52,536
504,71	54,275
504,91	50,279
505,10	52,813
505,30	49,997
505,50	52,054
505,70	49,599
505,90	50,951
506,10	49,974
506,30	50,795
506,50	53,257
506,70	54,312
506,90	47,064
507,10	52,540
507,30	51,115
507,50	49,901
507,70	50,746
507,89	53,128
508,09	50,820
508,29	48,393
508,49	52,282
508,69	51,550
508,89	50,982
509,09	51,246
509,29	50,398
509,49	53,037
509,69	55,990
509,89	51,106
510,09	51,580
510,28	49,449
510,48	52,518
510,68	50,872
510,88	50,800
511,08	50,556
511,28	49,288
511,48	50,794
511,68	49,249
511,88	49,551
512,07	50,311
512,27	53,316
512,47	50,945
512,67	51,026
512,87	48,066
513,07	50,045
513,27	49,077
513,47	53,728
513,67	47,604
513,86	51,407
514,06	49,448
514,26	49,223
514,46	52,082
514,66	48,980
514,86	53,771
515,06	54,230
515,26	51,911
515,45	50,294
515,65	48,985
515,85	51,521
516,05	51,556
516,25	50,497
516,45	52,761
516,65	50,728
516,84	48,962
517,04	52,319
517,24	49,729
517,44	50,384
517,64	54,987
517,84	52,295
518,04	53,296
518,23	54,642
518,43	56,398
518,63	50,211
518,83	48,817
519,03	49,226
519,23	51,560
519,42	51,007
519,62	49,972
519,82	53,015
520,02	53,098
520,22	53,020
520,42	47,625
520,61	54,060
520,81	54,326
521,01	54,798
521,21	48,931
521,41	50,293
521,61	51,681
521,80	49,097
522,00	51,482
522,20	53,089
522,40	52,913
522,60	50,249
522,79	50,730
522,99	51,305
523,19	48,532
523,39	52,751
523,59	49,101
523,78	52,066
523,98	49,556
524,18	52,482
524,38	50,565
524,58	51,363
524,77	55,005
524,97	53,139
525,17	48,604
525,37	52,282
525,57	54,739
525,76	49,489
525,96	51,562
526,16	51,237
526,36	48,960
526,56	52,255
526,75	50,498
526,95	52,664
527,15	51,603
527,35	51,697
527,55	48,721
527,74	51,141
527,94	48,370
528,14	48,903
528,34	51,473
528,53	49,072
528,73	52,424
528,93	52,901
529,13	49,827
529,32	49,760
529,52	51,194
529,72	48,366
529,92	50,143
530,12	49,553
530,31	48,758
530,51	51,262
530,71	51,443
530,91	52,533
531,10	46,074
531,30	48,947
531,50	48,448
531,70	52,482
531,89	50,588
532,09	49,997
532,29	50,396
532,49	47,550
532,68	50,209
532,88	49,132
533,08	47,090
533,28	49,689
533,47	49,345
533,67	50,935
533,87	49,272
534,06	57,385
534,26	51,459
534,46	48,906
534,66	50,502
534,85	51,160
535,05	47,807
535,25	47,071
535,45	48,287
535,64	49,975
535,84	48,323
536,04	46,922
536,23	48,771
536,43	49,593
536,63	47,378
536,83	48,670
537,02	46,801
537,22	45,783
537,42	47,598
537,61	47,804
537,81	48,894
538,01	47,271
538,20	47,686
538,40	45,442
538,60	46,436
538,80	45,063
538,99	42,804
539,19	42,866
539,39	43,733
539,58	41,003
539,78	41,228
539,98	40,519
540,17	37,919
540,37	39,739
540,57	38,626
540,76	37,733
540,96	36,387
541,16	38,110
541,36	35,752
541,55	32,026
541,75	33,533
541,95	34,718
542,14	34,529
542,34	32,748
542,54	31,612
542,73	34,484
542,93	34,029
543,13	33,223
543,32	33,048
543,52	34,217
543,72	30,797
543,91	31,193
544,11	32,020
544,31	31,953
544,50	33,973
544,70	34,860
544,89	34,274
545,09	36,531
545,29	33,361
545,48	34,186
545,68	34,841
545,88	36,759
546,07	33,906
546,27	36,462
546,47	36,119
546,66	41,562
546,86	37,403
547,06	38,402
547,25	38,329
547,45	42,389
547,64	41,424
547,84	45,754
548,04	42,524
548,23	45,305
548,43	45,414
548,63	46,488
548,82	44,947
549,02	41,915
549,21	42,224
549,41	43,974
549,61	44,846
549,80	42,307
550,00	44,155
550,20	43,937
550,39	44,191
550,59	44,845
550,78	44,991
550,98	43,088
551,18	47,293
551,37	45,968
551,57	46,193
551,76	45,177
551,96	44,889
552,16	46,122
552,35	46,763
552,55	47,643
552,74	46,526
552,94	49,342
553,14	45,600
553,33	47,029
553,53	45,814
553,72	47,526
553,92	50,995
554,12	45,388
554,31	47,093
554,51	48,825
554,70	46,952
554,90	49,212
555,09	50,643
555,29	50,167
555,49	46,729
555,68	49,046
555,88	48,013
556,07	46,278
556,27	49,303
556,46	45,572
556,66	46,686
556,86	50,061
557,05	47,902
557,25	49,588
557,44	48,817
557,64	48,187
557,83	49,651
558,03	48,561
558,22	49,536
558,42	48,559
558,62	50,061
558,81	47,414
559,01	51,553
559,20	50,482
559,40	49,861
559,59	49,435
559,79	48,270
559,98	49,671
560,18	51,628
560,37	48,480
560,57	50,136
560,76	47,217
560,96	46,689
561,16	49,546
561,35	49,097
561,55	52,368
561,74	48,498
561,94	48,780
562,13	50,203
562,33	50,326
562,52	48,472
562,72	48,232
562,91	47,801
563,11	49,459
563,30	51,881
563,50	46,031
563,69	48,438
563,89	47,931
564,08	47,458
564,28	47,695
564,47	50,917
564,67	49,012
564,86	48,377
565,06	47,331
565,25	49,191
565,45	47,424
565,64	51,836
565,84	46,923
566,03	47,616
566,23	49,479
566,42	48,646
566,62	46,350
566,81	47,681
567,01	49,455
567,20	49,394
567,40	48,148
567,59	48,976
567,79	51,876
567,98	52,587
568,18	49,222
568,37	50,746
568,57	49,026
568,76	50,947
568,96	49,176
569,15	47,172
569,35	49,350
569,54	52,840
569,73	52,039
569,93	48,759
570,12	48,902
570,32	51,447
570,51	51,780
570,71	49,949
570,90	50,925
571,10	50,241
571,29	48,642
571,49	47,864
571,68	49,792
571,87	49,844
572,07	50,352
572,26	46,856
572,46	49,125
572,65	49,821
572,85	46,423
573,04	48,180
573,24	48,960
573,43	52,295
573,62	51,477
573,82	50,877
574,01	48,931
574,21	48,717
574,40	47,405
574,60	47,532
574,79	51,600
574,98	47,723
575,18	48,603
575,37	47,371
575,57	49,000
575,76	50,252
575,96	49,058
576,15	49,027
576,34	49,810
576,54	50,157
576,73	49,544
576,93	49,352
577,12	48,177
577,31	49,425
577,51	47,413
577,70	48,331
577,90	48,585
578,09	46,817
578,28	47,457
578,48	48,212
578,67	47,035
578,87	48,254
579,06	47,965
579,25	49,006
579,45	49,002
579,64	47,043
579,84	46,857
580,03	47,032
580,22	50,184
580,42	46,331
580,61	47,781
580,81	47,368
581,00	48,599
581,19	49,000
581,39	48,237
581,58	47,955
581,77	48,252
581,97	50,484
582,16	46,004
582,35	46,898
582,55	46,817
582,74	48,427
582,94	47,119
583,13	46,211
583,32	46,897
583,52	47,820
583,71	47,492
583,90	47,036
584,10	46,693
584,29	49,215
584,48	46,605
584,68	47,144
584,87	47,531
585,06	46,756
585,26	45,572
585,45	46,375
585,65	47,878
585,84	46,439
586,03	46,627
586,23	46,001
586,42	45,789
586,61	46,704
586,81	46,799
587,00	45,916
587,19	45,480
587,39	48,183
587,58	45,959
587,77	45,719
587,97	44,709
588,16	44,560
588,35	46,123
588,54	46,489
588,74	43,975
588,93	48,729
589,12	47,402
589,32	45,233
589,51	45,313
589,70	44,982
589,90	46,293
590,09	45,335
590,28	50,154
590,48	45,146
590,67	46,683
590,86	46,652
591,06	44,698
591,25	46,761
591,44	50,233
591,63	47,403
591,83	48,675
592,02	46,596
592,21	45,751
592,41	45,564
592,60	47,369
592,79	46,554
592,98	45,740
593,18	46,803
593,37	47,994
593,56	47,565
593,76	47,757
593,95	47,022
594,14	47,862
594,33	48,537
594,53	48,097
594,72	48,899
594,91	50,020
595,10	47,999
595,30	47,948
595,49	47,025
595,68	48,019
595,88	48,033
596,07	48,805
596,26	47,555
596,45	46,960
596,65	45,740
596,84	46,973
597,03	47,700
597,22	49,007
597,42	50,275
597,61	50,142
597,80	48,252
597,99	48,684
598,19	50,011
598,38	49,225
598,57	47,106
598,76	47,810
598,95	49,312
599,15	48,462
599,34	50,477
599,53	48,730
599,72	47,867
599,92	48,462
600,11	47,280
600,30	47,169
600,49	48,611
600,69	46,847
600,88	48,603
601,07	48,635
601,26	48,226
601,45	46,691
601,65	47,481
601,84	48,220
602,03	48,808
602,22	47,900
602,42	48,664
602,61	46,900
602,80	48,692
602,99	47,732
603,18	47,109
603,38	47,626
603,57	47,813
603,76	46,729
603,95	48,594
604,14	49,978
604,34	48,319
604,53	48,301
604,72	48,322
604,91	49,056
605,10	48,477
605,29	47,944
605,49	46,867
605,68	49,453
605,87	48,531
606,06	46,558
606,25	45,684
606,45	47,746
606,64	48,409
606,83	48,225
607,02	47,863
607,21	48,047
607,40	48,190
607,60	44,530
607,79	44,213
607,98	43,074
608,17	44,571
608,36	43,627
608,55	43,660
608,75	43,217
608,94	44,431
609,13	38,619
609,32	37,330
609,51	35,234
609,70	37,763
609,89	38,261
610,09	38,741
610,28	40,130
610,47	38,998
610,66	37,813
610,85	36,226
611,04	38,221
611,23	37,237
611,43	36,858
611,62	38,098
611,81	37,888
612,00	36,895
612,19	36,051
612,38	36,577
612,57	38,717
612,77	38,916
612,96	39,647
613,15	40,885
613,34	41,744
613,53	42,471
613,72	43,089
613,91	42,395
614,10	41,783
614,29	43,614
614,49	41,766
614,68	41,829
614,87	43,650
615,06	45,416
615,25	43,011
615,44	45,007
615,63	44,404
615,82	42,798
616,01	43,939
616,21	42,344
616,40	44,871
616,59	47,368
616,78	45,104
616,97	45,519
617,16	45,531
617,35	46,362
617,54	44,241
617,73	45,798
617,92	43,228
618,11	47,131
618,31	44,170
618,50	44,882
618,69	43,949
618,88	44,463
619,07	42,525
619,26	42,799
619,45	43,136
619,64	44,670
619,83	44,022
620,02	43,111
620,21	46,617
620,40	45,066
620,59	42,240
620,78	43,299
620,97	44,825
621,17	43,639
621,36	43,788
621,55	44,204
621,74	45,440
621,93	45,296
622,12	44,710
622,31	42,831
622,50	43,855
622,69	45,290
622,88	45,008
623,07	45,796
623,26	44,535
623,45	46,652
623,64	44,864
623,83	44,327
624,02	45,678
624,21	46,417
624,40	44,461
624,59	42,853
624,78	43,751
624,97	48,385
625,16	43,197
625,35	40,861
625,54	42,409
625,73	44,663
625,92	45,405
626,12	45,674
626,31	45,998
626,50	45,737
626,69	45,421
626,88	42,053
627,07	45,855
627,26	44,458
627,45	41,702
627,64	43,276
627,83	43,609
628,02	44,867
628,21	43,764
628,40	43,393
628,59	45,195
628,78	43,625
628,97	42,386
629,16	42,038
629,35	43,927
629,54	46,427
629,73	44,117
629,92	43,008
630,10	43,714
630,29	44,263
630,48	43,407
630,67	43,090
630,86	45,154
631,05	44,175
631,24	45,222
631,43	43,477
631,62	44,284
631,81	45,165
632,00	43,600
632,19	41,278
632,38	45,869
632,57	44,792
632,76	43,806
632,95	46,275
633,14	46,482
633,33	43,893
633,52	44,809
633,71	45,630
633,90	44,782
634,09	43,836
634,28	45,181
634,47	43,516
634,66	44,954
634,85	45,453
635,04	46,419
635,22	44,794
635,41	44,329
635,60	45,582
635,79	44,438
635,98	42,410
636,17	43,900
636,36	44,150
636,55	44,305
636,74	43,573
636,93	46,168
637,12	45,829
637,31	43,382
637,50	44,036
637,69	45,215
637,87	44,850
638,06	44,162
638,25	44,986
638,44	46,452
638,63	42,191
638,82	43,851
639,01	45,711
639,20	45,050
639,39	44,731
639,58	43,476
639,77	46,321
639,95	42,597
640,14	45,226
640,33	44,156
640,52	44,217
640,71	47,011
640,90	44,603
641,09	45,587
641,28	43,792
641,47	46,414
641,66	44,772
641,84	43,990
642,03	42,386
642,22	44,158
642,41	46,748
642,60	45,252
642,79	43,700
642,98	46,581
643,17	43,853
643,35	44,894
643,54	45,214
643,73	46,869
643,92	46,599
644,11	43,448
644,30	43,654
644,49	46,188
644,67	43,259
644,86	42,768
645,05	45,788
645,24	43,482
645,43	44,242
645,62	43,991
645,81	43,699
645,99	47,267
646,18	45,614
646,37	44,366
646,56	43,617
646,75	45,257
646,94	47,825
647,13	44,078
647,31	44,171
647,50	44,446
647,69	46,860
647,88	45,695
648,07	44,633
648,26	47,450
648,44	43,266
648,63	44,054
648,82	45,521
649,01	45,432
649,20	42,861
649,38	44,775
649,57	44,469
649,76	41,832
649,95	45,555
650,14	43,577
650,33	43,188
650,51	43,899
650,70	45,577
650,89	45,315
651,08	44,406
651,27	45,279
651,45	43,963
651,64	43,390
651,83	45,880
652,02	43,959
652,21	45,636
652,39	44,781
652,58	45,370
652,77	45,130
652,96	45,652
653,15	45,748
653,33	45,139
653,52	45,481
653,71	47,405
653,90	46,562
654,09	46,919
654,27	46,099
654,46	49,325
654,65	47,856
654,84	46,267
655,02	48,730
655,21	47,718
655,40	49,030
655,59	46,710
655,77	48,292
655,96	47,316
656,15	46,948
656,34	48,673
656,53	46,119
656,71	46,236
656,90	45,695
657,09	48,866
657,28	46,914
657,46	46,045
657,65	45,965
657,84	44,072
658,03	47,036
658,21	45,153
658,40	45,383
658,59	46,159
658,78	48,260
658,96	44,036
659,15	45,093
659,34	44,709
659,52	44,076
659,71	46,574
659,90	43,921
660,09	45,110
660,27	43,526
660,46	46,062
660,65	44,203
660,84	42,887
661,02	44,692
661,21	44,865
661,40	43,788
661,58	45,125
661,77	45,173
661,96	42,974
662,15	44,116
662,33	42,847
662,52	42,845
662,71	44,829
662,89	41,241
663,08	43,261
663,27	45,320
663,45	43,655
663,64	43,874
663,83	41,649
664,02	43,747
664,20	44,529
664,39	43,662
664,58	44,465
664,76	43,373
664,95	43,152
665,14	42,774
665,32	43,152
665,51	43,387
665,70	43,263
665,88	44,592
666,07	45,637
666,26	45,396
666,44	45,860
666,63	43,801
666,82	43,718
667,00	43,886
667,19	42,831
667,38	42,907
667,56	43,406
667,75	44,902
667,94	45,643
668,12	43,666
668,31	43,592
668,50	44,473
668,68	44,410
668,87	43,128
669,06	44,171
669,24	45,780
669,43	43,640
669,62	42,083
669,80	43,207
669,99	43,583
670,18	44,566
670,36	42,976
670,55	44,753
670,74	44,779
670,92	43,175
671,11	43,585
671,29	43,712
671,48	43,954
671,67	45,261
671,85	45,015
672,04	42,899
672,23	43,040
672,41	43,403
672,60	44,192
672,78	43,024
672,97	43,993
673,16	43,631
673,34	43,012
673,53	44,443
673,71	46,693
673,90	43,248
674,09	44,226
674,27	42,365
674,46	44,381
674,64	44,361
674,83	44,552
675,02	41,696
675,20	43,211
675,39	44,648
675,57	42,508
675,76	41,813
675,95	45,771
676,13	45,419
676,32	46,344
676,50	42,351
676,69	41,028
676,88	43,577
677,06	42,988
677,25	43,985
677,43	46,363
677,62	44,202
677,80	44,600
677,99	43,403
678,18	44,509
678,36	45,496
678,55	41,935
678,73	42,724
678,92	44,735
679,10	44,200
679,29	42,737
679,48	43,233
679,66	42,362
679,85	43,682
680,03	44,975
680,22	44,530
680,40	43,247
680,59	42,949
680,77	42,500
680,96	44,636
681,15	42,979
681,33	46,431
681,52	43,471
681,70	43,171
681,89	44,617
682,07	45,202
682,26	41,826
682,44	43,969
682,63	45,624
682,81	44,599
683,00	44,078
683,18	42,602
683,37	41,996
683,55	42,690
683,74	43,689
683,92	49,871
684,11	43,875
684,29	44,519
684,48	42,021
684,67	42,363
684,85	43,650
685,04	42,919
685,22	43,921
685,41	43,160
685,59	43,698
685,78	41,974
685,96	41,979
686,15	41,608
686,33	42,114
686,52	43,804
686,70	41,836
686,89	43,142
687,07	42,714
687,26	43,162
687,44	44,282
687,62	41,658
687,81	43,968
687,99	43,313
688,18	42,453
688,36	43,721
688,55	44,762
688,73	44,696
688,92	41,527
689,10	43,866
689,29	43,247
689,47	44,215
689,66	42,599
689,84	41,009
690,03	45,025
690,21	42,568
690,40	42,673
690,58	42,067
690,76	42,715
690,95	43,722
691,13	43,906
691,32	43,094
691,50	42,823
691,69	43,093
691,87	41,973
692,06	41,814
692,24	42,645
692,43	44,302
692,61	40,485
692,79	42,289
692,98	40,737
693,16	43,733
693,35	41,278
693,53	42,185
693,72	44,048
693,90	43,936
694,08	41,450
694,27	41,952
694,45	45,852
694,64	45,778
694,82	42,387
695,01	42,516
695,19	42,100
695,37	42,598
695,56	41,902
695,74	42,878
695,93	43,930
696,11	42,108
696,29	44,087
696,48	43,048
696,66	46,853
696,85	45,379
697,03	42,769
697,21	44,764
697,40	44,972
697,58	45,156
697,77	42,047
697,95	44,404
698,13	44,311
698,32	43,522
698,50	41,975
698,69	40,744
698,87	43,152
699,05	43,876
699,24	41,442
699,42	42,924
699,60	40,484
699,79	42,580
699,97	41,442
700,16	40,727
700,34	43,833
700,52	42,474
700,71	41,995
700,89	41,905
701,07	44,136
701,26	44,600
701,44	41,331
701,63	40,300
701,81	43,104
701,99	43,220
702,18	39,516
702,36	40,899
702,54	42,412
702,73	44,064
702,91	43,962
703,09	43,052
703,28	43,220
703,46	43,046
703,64	41,718
703,83	42,859
704,01	42,836
704,19	40,448
704,38	41,381
704,56	42,793
704,74	43,077
704,93	41,263
705,11	42,867
705,29	41,923
705,48	45,305
705,66	43,618
705,84	41,826
706,03	40,530
706,21	40,807
706,39	42,208
706,58	41,836
706,76	40,069
706,94	42,611
707,12	41,830
707,31	41,147
707,49	41,909
707,67	41,156
707,86	43,687
708,04	41,863
708,22	41,208
708,41	41,476
708,59	42,703
708,77	39,987
708,95	42,121
709,14	45,778
709,32	43,159
709,50	42,468
709,69	42,219
709,87	41,777
710,05	41,381
710,23	41,626
710,42	41,174
710,60	42,669
710,78	43,231
710,97	41,722
711,15	42,618
711,33	44,725
711,51	41,936
711,70	39,910
711,88	41,564
712,06	43,467
712,24	42,546
712,43	41,999
712,61	41,119
712,79	43,754
712,97	41,127
713,16	42,347
713,34	42,485
713,52	42,144
713,70	41,643
713,89	41,687
714,07	40,985
714,25	43,071
714,43	43,878
714,62	40,406
714,80	41,619
714,98	38,923
715,16	42,944
715,35	38,543
715,53	41,080
715,71	43,395
715,89	43,934
716,07	43,339
716,26	45,384
716,44	44,041
716,62	43,116
716,80	42,673
716,99	41,087
717,17	41,971
717,35	42,644
717,53	39,642
717,71	40,675
717,90	43,348
718,08	43,212
718,26	39,738
718,44	43,349
718,62	42,879
718,81	42,813
718,99	39,642
719,17	40,834
719,35	41,850
719,53	41,724
719,72	40,376
719,90	42,440
720,08	41,826
720,26	44,865
720,44	39,337
720,62	42,307
720,81	42,393
720,99	45,065
721,17	42,007
721,35	43,234
721,53	43,319
721,72	42,561
721,90	43,641
722,08	42,542
722,26	44,304
722,44	41,705
722,62	42,234
722,81	40,169
722,99	44,307
723,17	41,054
723,35	42,165
723,53	44,062
723,71	45,228
723,89	43,366
724,08	39,024
724,26	42,611
724,44	42,999
724,62	41,919
724,80	40,518
724,98	43,033
725,16	44,113
725,35	41,556
725,53	41,332
725,71	40,829
725,89	42,686
726,07	45,479
726,25	44,706
726,43	40,740
726,61	42,527
726,80	41,619
726,98	39,873
727,16	40,958
727,34	43,313
727,52	42,279
727,70	40,970
727,88	42,596
728,06	41,217
728,25	40,894
728,43	41,596
728,61	42,663
728,79	41,568
728,97	41,798
729,15	43,867
729,33	43,285
729,51	41,906
729,69	42,822
729,87	41,268
730,06	43,149
730,24	41,640
730,42	46,594
730,60	40,111
730,78	42,487
730,96	42,256
731,14	44,269
731,32	42,304
731,50	40,922
731,68	40,740
731,86	43,960
732,04	43,481
732,22	43,170
732,41	45,110
732,59	42,993
732,77	43,365
732,95	42,867
733,13	43,411
733,31	43,155
733,49	41,407
733,67	43,721
733,85	43,166
734,03	44,143
734,21	41,345
734,39	41,057
734,57	44,822
734,75	42,730
734,93	41,617
735,11	41,186
735,29	41,726
735,47	44,740
735,65	41,685
735,84	40,122
736,02	42,026
736,20	45,061
736,38	42,453
736,56	41,095
736,74	42,656
736,92	43,843
737,10	43,485
737,28	41,185
737,46	44,031
737,64	42,158
737,82	41,945
738,00	44,578
738,18	44,149
738,36	44,094
738,54	39,684
738,72	41,519
738,90	44,248
739,08	43,291
739,26	38,325
739,44	43,011
739,62	45,970
739,80	43,640
739,98	41,286
740,16	40,856
740,34	40,899
740,52	46,054
740,70	42,096
740,88	40,145
741,06	41,982
741,24	43,435
741,42	43,736
741,60	40,415
741,78	43,854
741,96	41,129
742,14	42,646
742,32	40,803
742,50	40,032
742,68	43,826
742,86	40,985
743,04	38,972
743,21	43,870
743,39	42,648
743,57	43,330
743,75	39,967
743,93	38,272
744,11	39,246
744,29	41,371
744,47	42,960
744,65	42,056
744,83	40,700
745,01	42,288
745,19	42,393
745,37	44,554
745,55	43,395
745,73	42,626
745,91	40,181
746,09	41,141
746,27	40,351
746,45	40,203
746,62	39,713
746,80	42,493
746,98	41,840
747,16	39,902
747,34	40,694
747,52	41,410
747,70	42,117
747,88	40,961
748,06	41,956
748,24	43,113
748,42	42,693
748,60	42,137
748,78	40,997
748,95	43,921
749,13	43,787
749,31	42,468
749,49	42,660
749,67	41,596
749,85	44,507
750,03	42,914
750,21	41,822
750,39	43,944
750,57	44,397
750,74	43,337
750,92	40,947
751,10	44,222
751,28	41,316
751,46	40,169
751,64	44,303
751,82	44,223
752,00	43,165
752,17	42,298
752,35	40,909
752,53	41,807
752,71	42,873
752,89	41,493
753,07	40,804
753,25	44,960
753,43	40,732
753,60	44,478
753,78	39,594
753,96	45,014
754,14	42,727
754,32	42,974
754,50	44,337
754,68	42,969
754,85	41,891
755,03	41,194
755,21	43,547
755,39	46,005
755,57	43,800
755,75	42,390
755,92	41,432
756,10	42,571
756,28	43,347
756,46	41,931
756,64	43,731
756,82	41,984
756,99	44,066
757,17	40,557
757,35	40,949
757,53	46,587
757,71	44,151
757,89	41,372
758,06	40,414
758,24	43,706
758,42	43,226
758,60	41,623
758,78	40,524
758,95	44,579
759,13	44,060
759,31	41,852
759,49	40,017
759,67	41,534
759,84	41,453
760,02	43,693
760,20	41,423
760,38	43,436
760,56	39,298
760,73	42,332
760,91	42,695
761,09	45,632
761,27	41,464
761,45	42,125
761,62	41,288
761,80	41,807
761,98	41,185
762,16	41,699
762,33	42,714
762,51	43,900
762,69	40,870
762,87	39,806
763,05	41,908
763,22	41,030
763,40	40,637
763,58	41,970
763,76	42,468
763,93	43,971
764,11	45,163
764,29	40,879
764,47	42,845
764,64	44,071
764,82	45,190
765,00	41,541
765,18	41,307
765,35	39,584
765,53	42,192
765,71	42,269
765,89	39,828
766,06	41,420
766,24	41,969
766,42	41,891
766,60	41,246
766,77	41,864
766,95	41,161
767,13	40,818
767,30	42,988
767,48	41,719
767,66	40,711
767,84	41,143
768,01	40,811
768,19	44,612
768,37	41,996
768,54	42,047
768,72	43,024
768,90	41,162
769,08	43,519
769,25	41,489
769,43	40,079
769,61	41,173
769,78	44,307
769,96	40,671
770,14	40,968
770,31	45,472
770,49	42,756
770,67	41,422
770,85	40,616
771,02	42,965
771,20	41,545
771,38	43,025
771,55	42,045
771,73	41,294
771,91	42,221
772,08	44,596
772,26	41,817
772,44	40,116
772,61	39,958
772,79	40,273
772,97	40,528
773,14	41,254
773,32	42,700
773,50	39,217
773,67	41,511
773,85	44,999
774,03	44,880
774,20	40,230
774,38	41,109
774,56	40,875
774,73	41,357
774,91	39,716
775,09	42,118
775,26	42,661
775,44	41,328
775,61	41,577
775,79	42,135
775,97	43,984
776,14	42,590
776,32	41,850
776,50	43,559
776,67	40,054
776,85	42,450
777,03	38,216
777,20	42,159
777,38	42,880
777,55	45,068
777,73	38,614
777,91	41,005
778,08	42,265
778,26	42,010
778,43	42,496
778,61	38,225
778,79	39,474
778,96	40,550
779,14	41,523
779,32	41,720
779,49	41,512
779,67	46,849
779,84	40,998
780,02	42,081
780,20	38,567
780,37	44,483
780,55	35,910
780,72	42,288
780,90	43,575
781,07	42,196
781,25	44,320
781,43	43,279
781,60	43,998
781,78	43,863
781,95	42,273
782,13	42,578
782,30	44,001
782,48	42,693
782,66	40,470
782,83	39,046
783,01	46,238
783,18	43,227
783,36	44,634
783,53	44,913
783,71	43,114
783,89	41,049
784,06	43,078
784,24	42,110
784,41	43,933
784,59	42,055
784,76	45,908
784,94	42,129
785,11	42,697
785,29	45,896
785,46	42,122
785,64	41,977
785,82	44,159
785,99	43,182
786,17	41,303
786,34	41,705
786,52	45,013
786,69	45,430
786,87	40,865
787,04	43,873
787,22	41,160
787,39	43,481
787,57	43,343
787,74	42,772
787,92	46,818
788,09	44,610
788,27	40,701
788,44	42,676
788,62	44,181
788,79	42,059
788,97	44,655
789,14	43,935
789,32	44,289
789,49	43,760
789,67	42,432
789,84	42,801
790,02	44,135
790,19	43,638
790,37	43,485
790,54	47,448
790,72	49,204
790,89	48,661
791,07	44,643
791,24	41,694
791,42	42,740
791,59	44,587
791,77	41,816
791,94	40,416
792,12	43,377
792,29	44,722
792,47	44,084
792,64	46,786
792,81	44,682
792,99	42,140
793,16	45,505
793,34	43,144
793,51	43,096
793,69	45,027
793,86	41,826
794,04	41,587
794,21	46,094
794,39	41,386
794,56	43,602
794,73	43,928
794,91	49,335
795,08	44,318
795,26	44,529
795,43	42,125
795,61	47,553
795,78	44,797
795,95	43,901
796,13	45,446
796,30	48,158
796,48	43,939
796,65	43,083
796,83	46,102
797,00	48,888
797,17	40,636
797,35	44,092
797,52	43,713
797,70	49,225
797,87	43,071
798,04	41,644
798,22	42,792
798,39	41,775
798,57	44,059
798,74	43,200
798,91	43,320
799,09	44,419
799,26	47,417
799,44	41,130
799,61	39,528
799,78	45,493
799,96	46,557
800,13	43,567
800,31	42,936
800,48	47,300
800,65	45,936
800,83	43,728
801,00	46,895
801,17	43,887
801,35	48,749
801,52	44,298
801,70	42,913
801,87	44,587
802,04	49,337
802,22	42,926
802,39	45,691
802,56	51,546
802,74	44,162
802,91	45,497
803,08	40,058
803,26	47,570
803,43	47,016
803,61	44,606
803,78	45,659
803,95	42,848
804,13	48,465
804,30	43,102
804,47	46,878
804,65	42,490
804,82	45,934
804,99	44,149
805,17	44,458
805,34	50,609
805,51	47,036
805,69	40,662
805,86	38,862
806,03	49,759
806,21	45,548
806,38	45,548
806,55	45,708
806,72	47,976
806,90	51,752
807,07	43,001
807,24	44,385
807,42	43,934
807,59	45,565
807,76	45,131
807,94	43,103
808,11	46,039
808,28	47,841
808,45	44,641
808,63	45,360
808,80	47,403
808,97	45,611
809,15	44,503
809,32	46,342
809,49	41,032
809,67	43,456
809,84	48,928
810,01	48,890
810,18	55,174
810,36	49,517
810,53	46,020
810,70	43,076
810,87	46,424
811,05	43,071
811,22	46,918
811,39	47,164
811,57	49,634
811,74	45,697
811,91	44,137
812,08	45,215
812,26	45,499
812,43	46,595
812,60	44,069
812,77	43,747
812,95	48,993
813,12	44,482
813,29	41,980
813,46	48,001
813,64	45,193
813,81	46,580
813,98	44,892
814,15	49,205
814,32	51,198
814,50	47,017
814,67	49,914
814,84	46,738
815,01	50,170
815,19	40,179
815,36	41,160
815,53	47,623
815,70	45,647
815,87	49,754
816,05	43,703
816,22	47,727
816,39	50,697
816,56	54,415
816,74	46,953
816,91	46,641
817,08	52,997
817,25	46,207
817,42	47,831
817,60	48,317
817,77	44,945
817,94	47,482
818,11	45,797
818,28	45,689
818,45	50,607
818,63	43,483
818,80	44,745
818,97	47,303
819,14	50,211
819,31	58,975
819,49	47,255
819,66	43,690
819,83	48,941
820,00	47,048
820,17	46,920
820,34	46,627
820,52	51,989
820,69	49,485
820,86	44,854
821,03	45,974
821,20	49,350
821,37	47,571
821,55	38,571
821,72	43,174
821,89	48,263
822,06	52,554
822,23	44,862
822,40	45,897
822,57	51,801
822,75	53,965
822,92	44,203
823,09	48,550
823,26	48,970
823,43	50,873
823,60	45,031
823,77	54,245
823,94	58,630
824,12	53,737
824,29	45,012
824,46	44,197
824,63	55,592
824,80	50,067
824,97	47,035
825,14	43,607
825,31	52,589
825,49	53,767
825,66	49,352
825,83	43,813
826,00	47,675
826,17	62,184
826,34	48,213
826,51	45,188
826,68	44,763
826,85	53,429
827,02	49,025
827,20	41,078
827,37	50,634
827,54	51,295
827,71	50,966
827,88	47,579
828,05	49,860
828,22	48,639
828,39	53,386
828,56	48,045
828,73	51,939
828,90	50,951
829,07	48,930
829,25	45,501
829,42	49,826
829,59	50,077
829,76	47,327
829,93	47,110
830,10	46,098
830,27	46,427
830,44	52,164
830,61	49,286
830,78	64,652
830,95	52,899
831,12	47,207
831,29	48,284
831,46	49,437
831,63	45,944
831,80	49,021
831,97	49,673
832,14	52,273
832,31	60,188
832,48	46,281
832,65	47,271
832,83	47,287
833,00	51,590
833,17	48,135
833,34	53,259
833,51	56,715
833,68	59,518
833,85	53,820
834,02	46,795
834,19	51,345
834,36	58,171
834,53	49,614
834,70	48,441
834,87	60,527
835,04	51,366
835,21	55,649
835,38	43,047
835,55	52,195
835,72	67,467
835,89	50,758
836,06	50,814
836,23	59,400
836,40	47,685
836,57	50,871
836,74	56,680
836,91	51,031
837,08	59,180
837,25	50,714
837,42	42,504
837,59	49,857
837,76	56,544
837,93	44,520
838,09	34,776
838,26	51,017
838,43	61,525
838,60	47,190
838,77	43,254
838,94	59,282
839,11	50,654
839,28	55,251
839,45	53,448
839,62	46,729
839,79	53,101
839,96	48,742
840,13	59,172
840,30	51,103
840,47	47,791
840,64	45,784
840,81	55,724
840,98	47,378
841,15	60,917
841,32	42,479
841,48	59,579
841,65	50,242
841,82	46,653
841,99	55,411
842,16	43,944
842,33	57,557
842,50	57,914
842,67	56,770
842,84	45,742
843,01	59,679
843,18	48,924
843,35	43,198
843,52	48,336
843,68	60,622
843,85	50,183
844,02	49,950
844,19	50,952
844,36	64,138
844,53	61,170
844,70	61,000
844,87	52,178
845,04	61,150
845,21	45,430
845,37	64,288
845,54	51,528
845,71	44,872
845,88	64,282
846,05	47,783
846,22	41,720
846,39	52,600
846,56	62,380
846,72	38,273
846,89	50,264
847,06	65,271
847,23	65,067
847,40	43,123
847,57	46,524
847,74	51,469
847,90	63,565
848,07	50,927
848,24	53,156
848,41	55,117
848,58	70,847
848,75	51,728
848,92	45,292
849,08	57,821
849,25	62,352
849,42	48,682
849,59	51,662
849,76	53,627
849,93	50,428
850,09	64,619
850,26	39,528
850,43	64,872
850,60	52,515
850,77	50,601
850,94	54,660
851,10	53,347
851,27	55,427
851,44	39,938
851,61	54,158
851,78	73,820
851,95	64,176
852,11	51,442
852,28	56,375
852,45	63,058
852,62	56,720
852,79	47,544
852,95	41,395
853,12	67,997
853,29	49,622
853,46	55,462
853,63	54,270
853,79	56,782
853,96	46,623
854,13	61,317
854,30	55,501
854,46	80,802
854,63	63,084
854,80	56,512
854,97	51,713
855,14	75,945
855,30	54,701
855,47	50,388
855,64	60,334
855,81	58,410
855,97	53,121
856,14	57,923
856,31	37,073
856,48	79,400
856,65	69,467
856,81	56,908
856,98	45,186
857,15	64,298
857,32	65,034
857,48	51,419
857,65	57,300
857,82	71,763
857,99	66,531
858,15	49,419
858,32	50,421
858,49	54,519
858,65	72,949
858,82	69,806
858,99	51,568
859,16	59,877
859,32	72,894
859,49	54,608
859,66	55,309
859,83	60,843
859,99	67,522
860,16	60,981
860,33	52,428
860,49	68,501
860,66	61,896
860,83	60,953
861,00	53,560
861,16	71,045
861,33	70,714
861,50	48,954
861,66	53,647
861,83	72,300
862,00	65,902
862,16	64,187
862,33	50,601
862,50	105,591
862,67	64,450
862,83	60,013
863,00	67,235
863,17	80,294
863,33	67,156
863,50	40,590
863,67	60,231
863,83	59,203
864,00	90,207
864,17	58,738
864,33	56,957
864,50	63,259
864,67	54,694
864,83	44,939
865,00	57,244
865,17	70,382
865,33	71,613
865,50	53,288
865,67	46,063
865,83	63,587
866,00	101,199
866,17	81,424
866,33	69,126
866,50	85,559
866,66	60,894
866,83	85,764
867,00	62,127
867,16	83,001
867,33	79,544
867,50	26,219
867,66	51,653
867,83	85,845
868,00	69,980
868,16	52,923
868,33	54,456
868,49	75,368
868,66	85,068
868,83	52,838
868,99	56,808
869,16	93,613
869,32	93,168
869,49	40,295
869,66	47,825
869,82	95,320
869,99	91,329
870,15	47,563
870,32	65,316
870,49	85,498
870,65	101,404
870,82	60,280
870,98	60,839
871,15	99,466
871,32	78,333
871,48	33,483
871,65	52,494
871,81	82,529
871,98	39,553
872,15	49,969
872,31	53,526
872,48	152,593
872,64	75,826
872,81	43,557
872,97	60,621
873,14	104,056
873,31	53,528
873,47	74,829
873,64	67,992
873,80	112,250
873,97	107,741
874,13	52,455
874,30	71,160
874,46	98,963
874,63	59,789
874,80	57,700
874,96	10,751
875,13	111,223
875,29	72,573
875,46	114,796
875,62	40,891
875,79	100,534
875,95	108,469
876,12	61,076
876,28	20,599
876,45	127,069
876,61	81,816
876,78	51,574
876,94	64,787
877,11	132,326
877,27	74,200
877,44	85,003
877,60	48,425
877,77	99,972
877,94	120,095
878,10	92,687
878,27	80,964
878,43	126,418
878,60	61,595
878,76	70,291
878,93	73,011
879,09	106,665
879,26	108,493
879,42	68,209
879,58	68,976
879,75	117,849
879,91	125,850
880,08	-12,943
880,24	60,443
880,41	105,090
880,57	87,613
880,74	35,821
880,90	56,364
881,07	73,853
881,23	134,594
881,40	65,102
881,56	90,810
881,73	106,620
881,89	107,259
882,06	65,283
882,22	159,052
882,38	175,228
882,55	157,740
882,71	138,232
882,88	53,930
883,04	218,236
883,21	165,214
883,37	88,673
883,54	140,915
883,70	198,121
883,86	133,030
884,03	68,755
884,19	66,935
884,36	127,304
884,52	213,200
884,69	176,672
884,85	68,803
885,01	207,572
885,18	129,002
885,34	98,541
885,51	-6,665
885,67	94,897
>>>>> Data<<<<< Espectral Procesado Extremo
