Fichero De Datos De SpectraSuite
++++++++++++++++++++++++++++++++++++
Fecha: Wed Apr 22 10:45:21 CEST 2009
Usuario: evoflor
Presente Oscuro Del Espectro: Sí
La Referencia de Presente Del Espectro De: Sí
Muestreados de los componentes de Número de espectros: 1
Espectrómetros: USB4F02353
Tiempo de integración (usec): 500000 (USB4F02353)
Promedio de Espectros Hechos un: 5 (USB4F02353)
El Alisar Del Furgón: 0 (USB4F02353)
Párrafo de de Corregir del la del del de Eléctrica del obscuridad: Sí (USB4F02353)
Estrobo/Lámpara Permitido: No (USB4F02353)
Correct for Detector Non-linearity: No (USB4F02353)
Párrafo de de Corregir del la del del de Externa del luz: No (USB4F02353)
Procesado del espectro de Número de pixeles en: 3648
>>>>> Comienza Data<<<<< Espectral Procesado Del EL
177,79	222,030
178,00	222,030
178,22	222,030
178,44	814,066
178,66	-141,592
178,88	279,414
179,09	-21,787
179,31	127,861
179,53	645,573
179,75	61,506
179,96	439,828
180,18	-403,446
180,40	360,255
180,62	407,480
180,83	-294,959
181,05	650,976
181,27	-70820,000
181,49	37,783
181,70	-49,538
181,92	423,452
182,14	186,205
182,36	-68,298
182,58	254,800
182,79	609,464
183,01	54,458
183,23	117,092
183,45	-168,062
183,66	29,115
183,88	-213,412
184,10	-1320,364
184,32	43,861
184,53	205,087
184,75	5,331
184,97	60,995
185,18	-53,609
185,40	-517,885
185,62	50,224
185,84	129,083
186,05	93,990
186,27	11,443
186,49	2723,846
186,71	76,820
186,92	-39,516
187,14	-43,689
187,36	126,055
187,58	128,684
187,79	153,617
188,01	138,671
188,23	-157,727
188,45	143,698
188,66	440,714
188,88	-894,909
189,10	-1311,200
189,31	75,734
189,53	121,022
189,75	183,455
189,97	30,077
190,18	-186,609
190,40	649,529
190,62	-196,524
190,83	-176,304
191,05	201,304
191,27	48,057
191,49	195,347
191,70	-491,923
191,92	-12,881
192,14	-34,121
192,35	436,127
192,57	660,571
192,79	18,672
193,01	99,778
193,22	79,449
193,44	74,198
193,66	41,931
193,87	49,507
194,09	-29,075
194,31	146,651
194,53	10,629
194,74	137,452
194,96	46,829
195,18	151,856
195,39	-151,240
195,61	-96,349
195,83	-56,130
196,04	110,666
196,26	141,608
196,48	56,459
196,70	131,849
196,91	-41,283
197,13	-62,228
197,35	-68,769
197,56	745,882
197,78	783,731
198,00	690,350
198,21	107,864
198,43	-887,907
198,65	89,381
198,86	484,604
199,08	-116,000
199,30	181,619
199,51	-262,932
199,73	149,815
199,95	280,000
200,16	487,000
200,38	208,000
200,60	47,104
200,81	195,974
201,03	-8,098
201,25	-546,200
201,46	88,410
201,68	16,701
201,90	1732,273
202,11	-229,084
202,33	73,824
202,55	255,250
202,76	124,920
202,98	93,101
203,20	35,962
203,41	-173,789
203,63	61,901
203,85	-87920,000
204,06	-36,148
204,28	13,687
204,50	170,946
204,71	257,102
204,93	-218,240
205,15	237,711
205,36	-152,620
205,58	263,762
205,80	-160,501
206,01	-21,630
206,23	100,641
206,45	187,843
206,66	116,903
206,88	-25,244
207,10	152,773
207,31	272,609
207,53	12,057
207,75	97,632
207,96	1132,985
208,18	-30,239
208,39	39,931
208,61	2074,857
208,83	-200,685
209,04	194,047
209,26	-156,313
209,48	140,795
209,69	-94,806
209,91	628,446
210,13	27,146
210,34	-111,816
210,56	148,349
210,77	-713,543
210,99	91,778
211,21	9565,882
211,42	-111,270
211,64	12,082
211,86	98,232
212,07	-6,908
212,29	170,147
212,50	116,372
212,72	75,077
212,94	125,849
213,15	97,681
213,37	27,555
213,58	-151,042
213,80	-2111,429
214,02	5012,941
214,23	265,547
214,45	317,770
214,67	-786,829
214,88	-17,181
215,10	-77,148
215,31	44,585
215,53	-35,409
215,75	107,513
215,96	998,882
216,18	-726,479
216,39	153,574
216,61	172,314
216,83	-5,268
217,04	1837,303
217,26	-65,774
217,47	135,136
217,69	184,894
217,91	-175,567
218,12	-24920,000
218,34	41,995
218,55	135,332
218,77	-8,711
218,99	147,615
219,20	-87,460
219,42	232,805
219,63	75,437
219,85	-86,990
220,06	-80,692
220,28	148,181
220,50	66,776
220,71	55,000
220,93	928,679
221,14	-474,200
221,36	90,019
221,58	-43,673
221,79	149,685
222,01	478,621
222,22	513,289
222,44	-407,640
222,65	138,683
222,87	281,259
223,09	174,461
223,30	55,274
223,52	78,751
223,73	171,805
223,95	-20,676
224,16	257,361
224,38	323,507
224,60	27,076
224,81	-17,355
225,03	62,137
225,24	168,258
225,46	-4,950
225,67	8,180
225,89	12,592
226,10	297,349
226,32	156,160
226,54	45,397
226,75	49,220
226,97	70,552
227,18	78,614
227,40	66,733
227,61	29,681
227,83	-12,326
228,04	55,037
228,26	3,305
228,47	41,261
228,69	177,050
228,91	157,915
229,12	49,512
229,34	47,482
229,55	18,104
229,77	13,627
229,98	24,620
230,20	7,297
230,41	-26,989
230,63	24,587
230,84	-70,163
231,06	38,848
231,27	29,677
231,49	50,535
231,71	28,323
231,92	38,173
232,14	8,880
232,35	78,025
232,57	27,931
232,78	13,942
233,00	58,756
233,21	45,842
233,43	18,110
233,64	21,624
233,86	40,983
234,07	-1,169
234,29	18,733
234,50	1,096
234,72	37,245
234,93	0,347
235,15	18,426
235,36	19,654
235,58	13,641
235,79	42,756
236,01	26,793
236,22	8,418
236,44	37,073
236,65	12,738
236,87	30,762
237,08	2,813
237,30	5,610
237,51	17,760
237,73	-0,452
237,94	-0,309
238,16	30,363
238,37	7,141
238,59	6,411
238,80	12,207
239,02	11,899
239,23	21,620
239,45	1,672
239,66	20,937
239,88	24,722
240,09	18,481
240,31	-1,528
240,52	9,741
240,74	14,563
240,95	10,429
241,17	0,949
241,38	12,508
241,60	17,999
241,81	27,471
242,03	10,260
242,24	8,993
242,46	18,491
242,67	5,942
242,89	13,760
243,10	9,702
243,32	17,948
243,53	10,858
243,75	8,134
243,96	7,333
244,18	7,402
244,39	11,423
244,60	7,122
244,82	4,692
245,03	12,645
245,25	4,304
245,46	19,214
245,68	4,345
245,89	15,223
246,11	11,330
246,32	13,035
246,54	4,054
246,75	4,687
246,97	11,678
247,18	8,270
247,39	3,834
247,61	11,576
247,82	8,553
248,04	9,238
248,25	6,635
248,47	8,854
248,68	14,420
248,90	3,131
249,11	8,009
249,33	17,453
249,54	6,121
249,75	10,248
249,97	2,214
250,18	12,709
250,40	13,312
250,61	-3,844
250,83	5,080
251,04	6,150
251,25	9,526
251,47	1,846
251,68	16,177
251,90	6,912
252,11	7,750
252,33	3,935
252,54	10,562
252,76	11,184
252,97	8,367
253,18	2,026
253,40	4,717
253,61	4,308
253,83	10,659
254,04	5,045
254,25	12,153
254,47	5,043
254,68	9,166
254,90	5,002
255,11	11,398
255,33	9,530
255,54	4,678
255,75	4,550
255,97	7,648
256,18	5,799
256,40	4,404
256,61	10,245
256,82	1,727
257,04	10,907
257,25	2,663
257,47	5,173
257,68	6,421
257,89	11,320
258,11	7,993
258,32	2,370
258,54	9,413
258,75	10,223
258,96	10,893
259,18	9,090
259,39	7,161
259,61	10,969
259,82	8,661
260,03	8,549
260,25	8,527
260,46	5,777
260,68	9,829
260,89	7,548
261,10	7,923
261,32	7,568
261,53	6,702
261,75	6,460
261,96	1,526
262,17	14,086
262,39	12,385
262,60	6,822
262,81	1,482
263,03	12,613
263,24	7,831
263,46	5,113
263,67	10,777
263,88	4,565
264,10	10,417
264,31	5,047
264,52	10,132
264,74	10,183
264,95	8,866
265,17	9,866
265,38	8,815
265,59	9,766
265,81	8,462
266,02	4,687
266,23	6,970
266,45	8,196
266,66	13,168
266,87	9,338
267,09	4,880
267,30	12,666
267,52	8,833
267,73	6,756
267,94	6,085
268,16	9,914
268,37	4,787
268,58	7,967
268,80	3,799
269,01	3,010
269,22	12,681
269,44	8,244
269,65	7,421
269,86	5,388
270,08	9,842
270,29	4,606
270,50	8,440
270,72	8,480
270,93	3,807
271,14	1,815
271,36	6,482
271,57	7,417
271,78	6,250
272,00	9,954
272,21	12,276
272,42	12,625
272,64	8,416
272,85	3,178
273,06	6,302
273,28	6,406
273,49	10,789
273,70	7,902
273,92	9,726
274,13	11,201
274,34	8,545
274,56	13,223
274,77	7,928
274,98	6,592
275,20	11,219
275,41	7,039
275,62	7,289
275,84	5,603
276,05	13,995
276,26	8,734
276,47	5,647
276,69	8,704
276,90	5,905
277,11	7,155
277,33	3,215
277,54	10,049
277,75	5,280
277,97	7,159
278,18	7,186
278,39	11,690
278,61	5,820
278,82	8,820
279,03	8,889
279,24	9,247
279,46	5,508
279,67	10,456
279,88	7,157
280,10	10,562
280,31	3,261
280,52	8,998
280,73	3,187
280,95	7,463
281,16	7,487
281,37	9,697
281,59	11,917
281,80	8,337
282,01	6,621
282,22	8,028
282,44	4,041
282,65	12,210
282,86	9,143
283,08	6,805
283,29	7,215
283,50	7,881
283,71	8,365
283,93	8,499
284,14	10,751
284,35	4,466
284,56	8,575
284,78	5,832
284,99	6,810
285,20	10,152
285,42	6,311
285,63	5,801
285,84	2,821
286,05	7,718
286,27	4,941
286,48	5,285
286,69	7,591
286,90	5,133
287,12	8,879
287,33	5,198
287,54	7,452
287,75	5,983
287,97	10,353
288,18	9,123
288,39	5,114
288,60	8,952
288,82	8,957
289,03	6,569
289,24	6,756
289,45	9,547
289,67	6,487
289,88	4,621
290,09	8,920
290,30	7,413
290,52	6,926
290,73	4,514
290,94	5,653
291,15	6,994
291,37	7,338
291,58	7,595
291,79	5,623
292,00	9,504
292,21	7,666
292,43	6,612
292,64	5,682
292,85	3,527
293,06	8,931
293,28	5,118
293,49	5,957
293,70	8,678
293,91	7,513
294,12	7,224
294,34	6,575
294,55	5,539
294,76	5,888
294,97	8,426
295,19	5,386
295,40	7,544
295,61	8,362
295,82	4,451
296,03	6,599
296,25	6,118
296,46	4,900
296,67	3,898
296,88	4,118
297,09	8,912
297,31	6,444
297,52	7,516
297,73	3,527
297,94	7,377
298,15	8,864
298,37	7,595
298,58	8,781
298,79	6,283
299,00	3,773
299,21	5,390
299,43	5,025
299,64	9,786
299,85	9,128
300,06	7,045
300,27	6,146
300,49	9,458
300,70	6,283
300,91	6,855
301,12	7,325
301,33	7,587
301,54	7,314
301,76	7,950
301,97	7,244
302,18	5,963
302,39	8,629
302,60	6,288
302,82	4,266
303,03	9,749
303,24	8,005
303,45	6,171
303,66	7,550
303,87	5,337
304,09	7,838
304,30	8,304
304,51	4,771
304,72	5,077
304,93	6,388
305,14	5,903
305,36	5,750
305,57	6,617
305,78	7,367
305,99	5,868
306,20	6,993
306,41	6,461
306,62	5,863
306,84	5,895
307,05	2,269
307,26	4,846
307,47	7,677
307,68	4,414
307,89	5,487
308,11	7,496
308,32	4,035
308,53	5,439
308,74	6,172
308,95	7,447
309,16	6,651
309,37	7,638
309,59	5,697
309,80	7,687
310,01	3,321
310,22	8,606
310,43	4,658
310,64	7,918
310,85	8,314
311,06	4,542
311,28	7,406
311,49	4,955
311,70	8,407
311,91	4,200
312,12	5,584
312,33	5,753
312,54	6,411
312,75	5,520
312,97	4,544
313,18	6,746
313,39	6,030
313,60	8,196
313,81	8,063
314,02	7,339
314,23	7,377
314,44	6,860
314,65	8,187
314,87	8,368
315,08	6,711
315,29	9,656
315,50	9,782
315,71	9,060
315,92	9,971
316,13	7,265
316,34	6,028
316,55	8,619
316,77	4,609
316,98	5,161
317,19	6,421
317,40	8,044
317,61	8,522
317,82	8,236
318,03	7,181
318,24	6,430
318,45	9,530
318,66	7,526
318,87	6,369
319,09	7,213
319,30	8,477
319,51	8,570
319,72	7,744
319,93	7,224
320,14	7,726
320,35	7,144
320,56	6,373
320,77	4,588
320,98	11,491
321,19	10,697
321,40	6,616
321,62	9,946
321,83	7,054
322,04	5,580
322,25	7,186
322,46	8,577
322,67	8,803
322,88	8,119
323,09	7,439
323,30	9,648
323,51	5,814
323,72	7,933
323,93	6,853
324,14	5,474
324,35	5,075
324,56	4,846
324,77	5,008
324,99	7,046
325,20	5,837
325,41	5,403
325,62	5,025
325,83	6,005
326,04	7,484
326,25	10,306
326,46	4,199
326,67	9,112
326,88	7,152
327,09	6,627
327,30	5,712
327,51	6,876
327,72	7,923
327,93	9,121
328,14	3,491
328,35	5,913
328,56	6,396
328,77	6,563
328,98	8,254
329,19	7,837
329,40	6,045
329,61	7,933
329,82	4,355
330,04	8,136
330,25	5,143
330,46	8,505
330,67	6,486
330,88	6,045
331,09	6,532
331,30	5,191
331,51	7,350
331,72	5,043
331,93	9,253
332,14	5,855
332,35	9,250
332,56	8,270
332,77	9,642
332,98	6,585
333,19	7,246
333,40	9,035
333,61	6,148
333,82	8,289
334,03	8,212
334,24	8,081
334,45	5,381
334,66	8,093
334,87	8,820
335,08	5,318
335,29	5,531
335,50	5,159
335,71	5,079
335,92	9,489
336,13	9,995
336,34	4,502
336,55	8,263
336,76	7,156
336,97	6,529
337,18	5,608
337,39	6,027
337,60	4,771
337,81	6,249
338,02	6,865
338,23	7,409
338,44	7,555
338,65	8,472
338,86	8,488
339,07	5,981
339,28	5,859
339,49	8,295
339,70	4,048
339,91	6,982
340,11	10,897
340,32	7,102
340,53	7,200
340,74	5,794
340,95	6,085
341,16	11,717
341,37	6,294
341,58	4,946
341,79	7,297
342,00	8,135
342,21	8,463
342,42	7,067
342,63	8,112
342,84	3,558
343,05	6,743
343,26	7,863
343,47	7,417
343,68	5,462
343,89	8,599
344,10	7,608
344,31	9,212
344,52	6,705
344,73	5,978
344,94	7,759
345,14	7,105
345,35	10,855
345,56	5,351
345,77	9,335
345,98	6,960
346,19	9,903
346,40	5,778
346,61	6,316
346,82	6,328
347,03	7,368
347,24	7,591
347,45	5,676
347,66	10,812
347,87	6,673
348,08	6,983
348,28	4,440
348,49	6,381
348,70	10,135
348,91	8,976
349,12	6,837
349,33	20,684
349,54	5,668
349,75	7,836
349,96	6,545
350,17	9,883
350,38	7,124
350,59	8,653
350,80	7,814
351,00	8,401
351,21	11,081
351,42	8,003
351,63	5,991
351,84	4,411
352,05	10,960
352,26	6,884
352,47	6,268
352,68	9,390
352,89	5,956
353,09	8,929
353,30	5,979
353,51	7,151
353,72	10,421
353,93	11,213
354,14	4,952
354,35	9,847
354,56	9,708
354,77	4,974
354,98	2,353
355,18	9,277
355,39	12,913
355,60	7,786
355,81	8,117
356,02	9,498
356,23	10,594
356,44	5,238
356,65	8,514
356,85	12,828
357,06	13,571
357,27	8,753
357,48	4,728
357,69	8,509
357,90	9,032
358,11	7,391
358,32	7,151
358,52	8,268
358,73	9,149
358,94	7,112
359,15	7,392
359,36	7,136
359,57	6,089
359,78	7,873
359,98	6,686
360,19	6,135
360,40	8,422
360,61	6,344
360,82	7,396
361,03	11,904
361,24	6,380
361,44	8,521
361,65	9,437
361,86	4,657
362,07	9,828
362,28	4,278
362,49	7,475
362,70	6,893
362,90	11,374
363,11	6,784
363,32	6,894
363,53	8,320
363,74	9,933
363,95	10,564
364,15	6,974
364,36	8,320
364,57	8,524
364,78	6,172
364,99	7,140
365,20	10,895
365,40	7,729
365,61	7,944
365,82	8,211
366,03	7,986
366,24	9,158
366,45	7,302
366,65	9,550
366,86	6,113
367,07	9,323
367,28	7,777
367,49	6,493
367,69	12,322
367,90	7,018
368,11	9,416
368,32	7,102
368,53	7,506
368,73	9,695
368,94	7,492
369,15	9,777
369,36	8,763
369,57	7,873
369,78	5,267
369,98	9,454
370,19	12,854
370,40	7,101
370,61	8,319
370,82	4,550
371,02	9,127
371,23	10,707
371,44	10,028
371,65	8,483
371,85	11,948
372,06	10,428
372,27	5,563
372,48	7,449
372,69	5,715
372,89	6,377
373,10	7,117
373,31	7,628
373,52	7,449
373,73	9,653
373,93	6,588
374,14	8,760
374,35	10,247
374,56	10,821
374,76	7,946
374,97	5,092
375,18	7,564
375,39	8,623
375,60	8,470
375,80	9,443
376,01	6,553
376,22	7,326
376,43	8,034
376,63	7,929
376,84	8,806
377,05	9,396
377,26	4,819
377,46	7,707
377,67	9,869
377,88	8,484
378,09	5,758
378,29	3,665
378,50	8,769
378,71	11,577
378,92	8,259
379,12	7,964
379,33	8,113
379,54	7,276
379,75	7,519
379,95	6,639
380,16	7,615
380,37	10,876
380,58	4,674
380,78	9,583
380,99	6,338
381,20	8,367
381,41	7,081
381,61	9,009
381,82	9,779
382,03	6,692
382,24	6,975
382,44	7,973
382,65	6,790
382,86	8,939
383,06	4,365
383,27	8,622
383,48	7,050
383,69	8,983
383,89	10,585
384,10	9,923
384,31	6,503
384,51	11,453
384,72	9,171
384,93	9,165
385,14	5,869
385,34	7,658
385,55	5,162
385,76	7,002
385,96	8,821
386,17	9,990
386,38	10,366
386,59	11,159
386,79	6,812
387,00	10,895
387,21	10,404
387,41	9,836
387,62	11,234
387,83	10,628
388,03	8,095
388,24	5,653
388,45	8,371
388,66	6,378
388,86	10,191
389,07	9,601
389,28	13,677
389,48	8,903
389,69	8,160
389,90	7,430
390,10	11,512
390,31	7,538
390,52	7,690
390,72	7,494
390,93	10,762
391,14	9,432
391,34	10,817
391,55	9,008
391,76	11,222
391,96	8,792
392,17	9,421
392,38	11,831
392,58	11,782
392,79	11,098
393,00	9,336
393,20	8,068
393,41	9,398
393,62	6,574
393,82	11,772
394,03	6,766
394,24	12,641
394,44	11,950
394,65	9,786
394,86	6,822
395,06	12,561
395,27	7,094
395,48	6,600
395,68	12,683
395,89	12,108
396,10	10,813
396,30	8,002
396,51	8,497
396,72	12,705
396,92	10,887
397,13	11,484
397,34	7,152
397,54	11,662
397,75	10,257
397,95	9,019
398,16	13,044
398,37	10,646
398,57	12,236
398,78	13,514
398,99	15,886
399,19	12,478
399,40	14,703
399,60	12,027
399,81	13,197
400,02	13,602
400,22	15,695
400,43	13,403
400,64	14,371
400,84	10,084
401,05	13,128
401,25	14,461
401,46	14,436
401,67	12,781
401,87	15,689
402,08	11,053
402,29	12,320
402,49	16,027
402,70	15,537
402,90	12,486
403,11	14,665
403,32	18,093
403,52	15,355
403,73	15,679
403,93	16,845
404,14	19,952
404,35	17,257
404,55	13,697
404,76	13,595
404,96	19,444
405,17	16,701
405,38	17,519
405,58	16,575
405,79	18,960
405,99	15,004
406,20	17,301
406,40	16,484
406,61	19,112
406,82	16,075
407,02	21,537
407,23	19,042
407,43	17,354
407,64	17,283
407,85	17,523
408,05	14,426
408,26	23,197
408,46	23,538
408,67	16,381
408,87	16,775
409,08	19,715
409,29	20,049
409,49	19,927
409,70	20,295
409,90	24,685
410,11	19,080
410,31	20,336
410,52	21,267
410,72	21,252
410,93	21,162
411,14	21,600
411,34	18,527
411,55	22,685
411,75	22,918
411,96	22,367
412,16	23,858
412,37	18,363
412,57	19,672
412,78	24,488
412,99	21,761
413,19	26,651
413,40	25,565
413,60	19,484
413,81	24,310
414,01	22,525
414,22	20,602
414,42	23,979
414,63	22,299
414,83	24,253
415,04	28,344
415,24	24,648
415,45	24,114
415,65	26,585
415,86	28,198
416,07	23,452
416,27	23,775
416,48	27,124
416,68	29,446
416,89	19,967
417,09	26,649
417,30	29,330
417,50	25,292
417,71	25,318
417,91	26,400
418,12	24,748
418,32	25,814
418,53	26,988
418,73	24,962
418,94	27,358
419,14	27,469
419,35	21,056
419,55	23,828
419,76	26,364
419,96	25,135
420,17	25,870
420,37	28,278
420,58	27,660
420,78	25,454
420,99	29,133
421,19	27,958
421,40	27,173
421,60	29,271
421,81	27,248
422,01	29,863
422,22	25,330
422,42	32,051
422,63	24,881
422,83	25,618
423,04	29,611
423,24	28,263
423,45	27,888
423,65	26,103
423,86	31,725
424,06	30,738
424,27	31,757
424,47	22,659
424,67	29,707
424,88	27,246
425,08	30,029
425,29	33,936
425,49	28,209
425,70	26,658
425,90	29,725
426,11	30,409
426,31	28,458
426,52	30,759
426,72	26,597
426,93	27,953
427,13	33,405
427,33	31,694
427,54	34,233
427,74	32,479
427,95	30,970
428,15	27,795
428,36	33,772
428,56	29,013
428,77	32,662
428,97	29,460
429,18	32,016
429,38	26,423
429,58	31,496
429,79	31,072
429,99	32,068
430,20	26,337
430,40	35,781
430,61	28,914
430,81	29,710
431,01	31,548
431,22	31,548
431,42	30,545
431,63	29,146
431,83	29,983
432,04	32,181
432,24	33,172
432,44	30,743
432,65	28,502
432,85	32,416
433,06	29,631
433,26	27,379
433,47	27,665
433,67	27,196
433,87	29,710
434,08	27,258
434,28	27,598
434,49	26,905
434,69	32,652
434,89	28,512
435,10	27,414
435,30	31,983
435,51	23,602
435,71	28,103
435,91	27,016
436,12	28,640
436,32	27,485
436,53	29,375
436,73	25,398
436,93	30,200
437,14	31,754
437,34	33,850
437,55	30,086
437,75	33,527
437,95	30,924
438,16	31,507
438,36	31,771
438,57	28,743
438,77	28,237
438,97	35,212
439,18	32,967
439,38	25,530
439,58	29,820
439,79	30,644
439,99	30,331
440,20	32,396
440,40	31,929
440,60	33,371
440,81	35,859
441,01	31,373
441,21	33,062
441,42	31,626
441,62	34,816
441,83	29,215
442,03	33,004
442,23	35,426
442,44	31,708
442,64	30,643
442,84	28,492
443,05	30,975
443,25	32,284
443,45	29,790
443,66	34,185
443,86	31,754
444,06	30,849
444,27	31,941
444,47	29,502
444,67	31,256
444,88	31,776
445,08	29,759
445,28	33,160
445,49	30,457
445,69	28,332
445,90	33,208
446,10	33,190
446,30	32,788
446,51	34,284
446,71	38,784
446,91	36,466
447,12	34,773
447,32	31,605
447,52	33,795
447,72	33,719
447,93	30,676
448,13	29,903
448,33	37,410
448,54	34,084
448,74	30,472
448,94	35,078
449,15	38,335
449,35	31,942
449,55	35,875
449,76	38,636
449,96	33,299
450,16	30,903
450,37	32,781
450,57	32,213
450,77	28,356
450,98	36,116
451,18	33,862
451,38	34,390
451,58	32,670
451,79	32,600
451,99	33,121
452,19	33,094
452,40	31,703
452,60	28,025
452,80	32,647
453,00	35,427
453,21	33,949
453,41	35,028
453,61	32,970
453,82	33,644
454,02	30,009
454,22	32,337
454,42	31,556
454,63	31,668
454,83	32,951
455,03	34,094
455,24	31,945
455,44	34,898
455,64	31,687
455,84	35,879
456,05	31,111
456,25	33,581
456,45	37,342
456,65	29,557
456,86	34,702
457,06	33,976
457,26	36,878
457,47	39,384
457,67	34,552
457,87	34,280
458,07	34,877
458,28	34,491
458,48	35,887
458,68	26,964
458,88	36,726
459,09	33,878
459,29	32,139
459,49	34,092
459,69	34,974
459,90	34,672
460,10	30,867
460,30	31,794
460,50	32,175
460,71	30,971
460,91	30,529
461,11	34,587
461,31	29,135
461,52	35,920
461,72	31,276
461,92	31,387
462,12	36,883
462,32	27,691
462,53	32,322
462,73	31,649
462,93	32,010
463,13	31,320
463,34	30,465
463,54	32,759
463,74	35,053
463,94	33,559
464,14	34,531
464,35	32,915
464,55	34,818
464,75	35,753
464,95	36,081
465,16	31,949
465,36	35,502
465,56	31,039
465,76	32,243
465,96	32,718
466,17	31,575
466,37	29,622
466,57	31,673
466,77	32,705
466,97	33,824
467,18	32,018
467,38	32,775
467,58	30,923
467,78	33,335
467,98	30,717
468,19	32,790
468,39	34,749
468,59	32,817
468,79	34,795
468,99	27,372
469,19	31,677
469,40	34,118
469,60	31,788
469,80	32,668
470,00	34,333
470,20	32,680
470,41	31,567
470,61	37,401
470,81	31,864
471,01	31,661
471,21	33,173
471,41	29,748
471,62	31,825
471,82	30,502
472,02	34,263
472,22	31,606
472,42	34,353
472,62	35,401
472,83	33,761
473,03	35,722
473,23	29,652
473,43	35,329
473,63	32,733
473,83	34,615
474,03	31,715
474,24	36,483
474,44	32,821
474,64	34,187
474,84	30,845
475,04	32,944
475,24	31,948
475,45	29,442
475,65	28,829
475,85	32,816
476,05	28,518
476,25	32,055
476,45	30,102
476,65	37,351
476,85	31,826
477,06	32,290
477,26	30,614
477,46	31,455
477,66	34,938
477,86	35,370
478,06	29,352
478,26	37,061
478,46	27,542
478,67	33,706
478,87	34,098
479,07	32,000
479,27	33,840
479,47	31,295
479,67	27,010
479,87	30,455
480,07	29,745
480,28	32,008
480,48	30,633
480,68	30,585
480,88	32,705
481,08	31,651
481,28	34,146
481,48	27,126
481,68	29,964
481,88	29,907
482,08	30,514
482,29	32,248
482,49	27,705
482,69	30,210
482,89	30,147
483,09	31,761
483,29	28,568
483,49	28,835
483,69	33,441
483,89	27,683
484,09	29,003
484,29	27,557
484,50	28,981
484,70	29,631
484,90	28,734
485,10	29,129
485,30	31,091
485,50	30,417
485,70	30,297
485,90	28,514
486,10	26,312
486,30	29,546
486,50	28,919
486,70	27,333
486,90	30,003
487,10	29,922
487,30	27,277
487,51	27,929
487,71	28,515
487,91	27,997
488,11	29,827
488,31	27,130
488,51	30,734
488,71	25,965
488,91	28,850
489,11	27,128
489,31	27,964
489,51	28,519
489,71	30,785
489,91	30,111
490,11	28,565
490,31	27,622
490,51	28,792
490,71	28,434
490,91	26,852
491,11	29,155
491,31	29,631
491,51	28,157
491,72	28,403
491,92	28,154
492,12	30,200
492,32	29,549
492,52	29,684
492,72	29,436
492,92	29,357
493,12	28,250
493,32	27,825
493,52	25,166
493,72	25,703
493,92	28,762
494,12	29,670
494,32	28,432
494,52	31,390
494,72	26,952
494,92	26,163
495,12	30,433
495,32	30,494
495,52	28,958
495,72	29,573
495,92	30,034
496,12	28,761
496,32	27,114
496,52	27,816
496,72	27,959
496,92	27,891
497,12	30,028
497,32	30,283
497,52	30,142
497,72	33,005
497,92	29,401
498,12	25,862
498,32	28,565
498,52	28,905
498,72	26,024
498,92	27,515
499,12	30,261
499,32	26,531
499,52	27,342
499,72	29,097
499,92	26,177
500,12	28,392
500,32	31,286
500,52	28,535
500,72	31,135
500,91	31,441
501,11	30,226
501,31	26,231
501,51	28,235
501,71	30,379
501,91	31,894
502,11	28,455
502,31	26,711
502,51	30,657
502,71	28,677
502,91	30,152
503,11	29,440
503,31	28,916
503,51	26,705
503,71	25,757
503,91	31,680
504,11	28,816
504,31	30,742
504,51	29,934
504,71	31,252
504,91	28,625
505,10	27,803
505,30	30,114
505,50	27,051
505,70	27,316
505,90	27,979
506,10	27,312
506,30	29,107
506,50	28,668
506,70	29,920
506,90	26,885
507,10	29,585
507,30	26,496
507,50	30,496
507,70	28,021
507,89	28,558
508,09	26,077
508,29	26,334
508,49	27,812
508,69	25,256
508,89	24,982
509,09	26,213
509,29	27,467
509,49	31,308
509,69	30,154
509,89	27,077
510,09	25,440
510,28	27,123
510,48	28,371
510,68	26,479
510,88	25,504
511,08	23,631
511,28	26,613
511,48	25,814
511,68	26,662
511,88	23,581
512,07	24,812
512,27	27,675
512,47	26,355
512,67	26,145
512,87	26,762
513,07	27,240
513,27	25,066
513,47	25,097
513,67	25,220
513,86	24,409
514,06	27,309
514,26	26,359
514,46	26,264
514,66	26,022
514,86	24,576
515,06	28,548
515,26	28,840
515,45	24,236
515,65	24,892
515,85	24,125
516,05	26,076
516,25	25,907
516,45	26,888
516,65	24,310
516,84	25,234
517,04	26,889
517,24	24,409
517,44	25,743
517,64	27,124
517,84	27,551
518,04	25,873
518,23	27,645
518,43	29,092
518,63	25,539
518,83	24,895
519,03	24,620
519,23	27,589
519,42	25,005
519,62	25,055
519,82	23,157
520,02	25,358
520,22	21,799
520,42	22,918
520,61	23,950
520,81	26,465
521,01	25,120
521,21	22,139
521,41	25,562
521,61	24,951
521,80	23,815
522,00	22,179
522,20	23,144
522,40	27,007
522,60	21,792
522,79	24,763
522,99	26,213
523,19	20,702
523,39	22,502
523,59	24,048
523,78	25,171
523,98	23,490
524,18	23,787
524,38	22,834
524,58	25,602
524,77	23,358
524,97	24,733
525,17	25,787
525,37	23,341
525,57	24,802
525,76	22,202
525,96	24,397
526,16	21,623
526,36	21,869
526,56	22,965
526,75	22,446
526,95	23,522
527,15	23,723
527,35	25,260
527,55	20,730
527,74	26,013
527,94	21,970
528,14	23,070
528,34	20,607
528,53	22,035
528,73	22,821
528,93	20,066
529,13	21,857
529,32	22,337
529,52	24,466
529,72	20,929
529,92	23,224
530,12	23,895
530,31	19,308
530,51	21,779
530,71	24,232
530,91	24,737
531,10	18,220
531,30	20,399
531,50	21,378
531,70	24,795
531,89	19,953
532,09	22,637
532,29	19,289
532,49	22,546
532,68	21,793
532,88	21,392
533,08	19,285
533,28	22,021
533,47	20,529
533,67	22,486
533,87	18,581
534,06	24,471
534,26	23,368
534,46	19,346
534,66	21,991
534,85	21,845
535,05	19,447
535,25	20,604
535,45	17,894
535,64	20,441
535,84	19,411
536,04	20,302
536,23	20,783
536,43	20,483
536,63	19,694
536,83	19,899
537,02	20,100
537,22	20,450
537,42	19,357
537,61	19,348
537,81	20,847
538,01	20,383
538,20	21,581
538,40	16,239
538,60	17,694
538,80	17,553
538,99	18,700
539,19	15,731
539,39	17,682
539,58	20,526
539,78	15,297
539,98	18,843
540,17	14,675
540,37	17,853
540,57	15,042
540,76	16,011
540,96	14,595
541,16	17,639
541,36	16,308
541,55	13,113
541,75	12,755
541,95	12,962
542,14	14,153
542,34	13,679
542,54	13,838
542,73	13,937
542,93	14,677
543,13	15,101
543,32	13,187
543,52	13,272
543,72	12,893
543,91	14,443
544,11	12,689
544,31	14,299
544,50	15,169
544,70	14,246
544,89	15,031
545,09	14,687
545,29	14,355
545,48	13,904
545,68	14,239
545,88	14,430
546,07	14,688
546,27	13,264
546,47	15,548
546,66	16,419
546,86	16,203
547,06	15,175
547,25	15,599
547,45	16,324
547,64	15,976
547,84	19,958
548,04	15,430
548,23	17,842
548,43	17,256
548,63	18,955
548,82	18,280
549,02	15,947
549,21	14,384
549,41	16,493
549,61	17,670
549,80	17,418
550,00	17,717
550,20	13,231
550,39	18,194
550,59	16,556
550,78	18,516
550,98	15,814
551,18	18,693
551,37	15,457
551,57	17,552
551,76	16,196
551,96	17,656
552,16	17,596
552,35	18,863
552,55	18,968
552,74	17,605
552,94	18,478
553,14	16,826
553,33	18,178
553,53	18,075
553,72	18,041
553,92	18,234
554,12	19,219
554,31	17,438
554,51	19,040
554,70	15,292
554,90	20,810
555,09	19,727
555,29	20,040
555,49	16,001
555,68	19,691
555,88	16,435
556,07	16,883
556,27	19,092
556,46	16,618
556,66	14,663
556,86	21,231
557,05	18,214
557,25	16,314
557,44	16,974
557,64	18,324
557,83	19,146
558,03	18,138
558,22	16,751
558,42	18,244
558,62	18,394
558,81	18,708
559,01	16,782
559,20	17,387
559,40	14,848
559,59	16,888
559,79	16,250
559,98	18,584
560,18	19,412
560,37	17,604
560,57	18,605
560,76	17,133
560,96	18,383
561,16	19,465
561,35	18,109
561,55	20,908
561,74	18,885
561,94	19,795
562,13	18,785
562,33	20,451
562,52	18,259
562,72	17,629
562,91	15,552
563,11	18,209
563,30	20,263
563,50	16,587
563,69	17,858
563,89	16,548
564,08	19,434
564,28	18,011
564,47	17,709
564,67	16,277
564,86	18,631
565,06	16,309
565,25	15,994
565,45	19,332
565,64	19,247
565,84	18,425
566,03	17,468
566,23	18,849
566,42	19,163
566,62	19,074
566,81	17,912
567,01	20,297
567,20	18,181
567,40	15,217
567,59	18,090
567,79	19,632
567,98	20,839
568,18	17,918
568,37	18,816
568,57	19,159
568,76	19,852
568,96	17,090
569,15	18,129
569,35	19,059
569,54	20,078
569,73	20,227
569,93	18,486
570,12	18,665
570,32	18,826
570,51	19,292
570,71	18,325
570,90	20,379
571,10	17,282
571,29	18,196
571,49	18,529
571,68	18,758
571,87	19,354
572,07	18,365
572,26	16,814
572,46	19,053
572,65	19,974
572,85	17,231
573,04	20,033
573,24	18,691
573,43	21,722
573,62	20,450
573,82	20,234
574,01	18,603
574,21	20,326
574,40	18,363
574,60	17,605
574,79	19,927
574,98	18,546
575,18	19,637
575,37	18,066
575,57	18,019
575,76	18,881
575,96	19,956
576,15	20,578
576,34	19,519
576,54	19,379
576,73	20,273
576,93	20,335
577,12	18,489
577,31	20,336
577,51	18,868
577,70	17,618
577,90	19,946
578,09	18,360
578,28	19,549
578,48	19,653
578,67	21,409
578,87	21,143
579,06	18,734
579,25	21,012
579,45	19,302
579,64	19,261
579,84	18,943
580,03	18,567
580,22	19,871
580,42	18,333
580,61	19,421
580,81	19,866
581,00	20,291
581,19	21,548
581,39	19,294
581,58	20,798
581,77	20,802
581,97	21,858
582,16	19,782
582,35	19,371
582,55	19,936
582,74	22,519
582,94	20,523
583,13	19,863
583,32	20,261
583,52	21,592
583,71	20,482
583,90	20,945
584,10	20,370
584,29	21,163
584,48	21,123
584,68	21,510
584,87	20,904
585,06	20,781
585,26	19,826
585,45	19,986
585,65	22,484
585,84	19,792
586,03	21,452
586,23	20,700
586,42	20,967
586,61	22,757
586,81	21,175
587,00	22,146
587,19	20,952
587,39	23,316
587,58	22,869
587,77	21,009
587,97	20,150
588,16	21,665
588,35	22,661
588,54	22,488
588,74	21,157
588,93	23,210
589,12	21,974
589,32	23,410
589,51	22,306
589,70	21,462
589,90	20,372
590,09	22,329
590,28	25,280
590,48	22,186
590,67	23,567
590,86	22,215
591,06	23,387
591,25	25,431
591,44	23,690
591,63	22,653
591,83	23,939
592,02	23,343
592,21	23,243
592,41	22,514
592,60	24,899
592,79	23,748
592,98	22,773
593,18	25,683
593,37	24,308
593,56	24,685
593,76	24,267
593,95	23,055
594,14	23,235
594,33	26,141
594,53	24,239
594,72	26,131
594,91	25,768
595,10	26,141
595,30	24,159
595,49	25,241
595,68	26,341
595,88	26,513
596,07	25,600
596,26	25,429
596,45	25,366
596,65	23,200
596,84	23,845
597,03	24,983
597,22	25,878
597,42	28,664
597,61	25,648
597,80	25,246
597,99	25,279
598,19	26,711
598,38	27,126
598,57	27,509
598,76	27,058
598,95	27,483
599,15	28,108
599,34	26,160
599,53	27,797
599,72	27,580
599,92	27,215
600,11	27,499
600,30	27,382
600,49	28,283
600,69	28,447
600,88	28,031
601,07	27,347
601,26	27,389
601,45	27,094
601,65	29,035
601,84	27,636
602,03	27,908
602,22	28,356
602,42	28,685
602,61	28,323
602,80	29,056
602,99	28,486
603,18	27,415
603,38	29,113
603,57	28,641
603,76	28,119
603,95	28,283
604,14	27,483
604,34	29,095
604,53	28,919
604,72	29,760
604,91	30,179
605,10	29,023
605,29	28,838
605,49	27,855
605,68	27,169
605,87	29,410
606,06	27,741
606,25	28,005
606,45	29,687
606,64	28,715
606,83	29,286
607,02	28,846
607,21	28,148
607,40	29,923
607,60	27,911
607,79	28,889
607,98	26,751
608,17	27,228
608,36	26,840
608,55	27,534
608,75	27,002
608,94	29,281
609,13	25,285
609,32	24,954
609,51	24,836
609,70	26,656
609,89	26,710
610,09	25,628
610,28	26,871
610,47	25,067
610,66	24,828
610,85	24,706
611,04	26,454
611,23	24,875
611,43	25,181
611,62	24,224
611,81	26,011
612,00	26,148
612,19	24,816
612,38	26,697
612,57	27,023
612,77	27,877
612,96	26,278
613,15	26,709
613,34	28,732
613,53	28,930
613,72	30,673
613,91	29,738
614,10	29,838
614,29	30,568
614,49	28,025
614,68	28,231
614,87	30,686
615,06	30,169
615,25	28,140
615,44	30,047
615,63	30,788
615,82	30,067
616,01	31,033
616,21	30,917
616,40	32,586
616,59	31,188
616,78	32,179
616,97	30,440
617,16	32,185
617,35	31,973
617,54	31,309
617,73	31,776
617,92	31,900
618,11	31,751
618,31	30,838
618,50	34,110
618,69	31,592
618,88	32,433
619,07	30,872
619,26	30,016
619,45	30,107
619,64	30,384
619,83	31,092
620,02	31,608
620,21	31,838
620,40	32,614
620,59	32,179
620,78	30,101
620,97	32,353
621,17	32,552
621,36	32,022
621,55	31,340
621,74	32,835
621,93	32,940
622,12	33,183
622,31	33,077
622,50	32,879
622,69	35,653
622,88	33,945
623,07	34,979
623,26	33,995
623,45	35,370
623,64	32,506
623,83	33,149
624,02	34,708
624,21	34,789
624,40	34,641
624,59	33,688
624,78	35,226
624,97	34,301
625,16	32,611
625,35	33,399
625,54	32,613
625,73	33,708
625,92	34,675
626,12	36,016
626,31	35,754
626,50	34,429
626,69	35,028
626,88	33,224
627,07	36,245
627,26	35,209
627,45	30,889
627,64	33,778
627,83	34,670
628,02	34,077
628,21	34,066
628,40	33,104
628,59	34,825
628,78	34,884
628,97	32,824
629,16	33,460
629,35	34,088
629,54	36,399
629,73	34,419
629,92	33,883
630,10	35,070
630,29	35,045
630,48	35,800
630,67	33,832
630,86	35,006
631,05	36,250
631,24	36,245
631,43	33,104
631,62	35,370
631,81	35,540
632,00	35,144
632,19	33,596
632,38	34,442
632,57	34,875
632,76	36,052
632,95	35,831
633,14	37,017
633,33	35,815
633,52	35,515
633,71	36,105
633,90	34,866
634,09	34,522
634,28	37,658
634,47	34,776
634,66	35,902
634,85	36,432
635,04	36,455
635,22	36,644
635,41	35,842
635,60	37,554
635,79	36,877
635,98	34,849
636,17	37,923
636,36	36,834
636,55	36,105
636,74	35,519
636,93	36,786
637,12	37,018
637,31	36,707
637,50	34,667
637,69	36,730
637,87	37,397
638,06	36,328
638,25	38,216
638,44	37,029
638,63	34,779
638,82	37,055
639,01	36,977
639,20	37,004
639,39	38,392
639,58	37,099
639,77	38,552
639,95	36,200
640,14	37,812
640,33	35,163
640,52	38,731
640,71	37,043
640,90	38,167
641,09	38,987
641,28	35,213
641,47	38,802
641,66	38,157
641,84	37,500
642,03	35,876
642,22	36,774
642,41	37,648
642,60	38,092
642,79	36,977
642,98	36,947
643,17	35,867
643,35	36,330
643,54	36,867
643,73	38,113
643,92	38,790
644,11	36,802
644,30	35,994
644,49	38,874
644,67	37,251
644,86	37,078
645,05	39,847
645,24	37,156
645,43	37,877
645,62	37,585
645,81	39,489
645,99	40,106
646,18	37,308
646,37	36,604
646,56	37,112
646,75	40,336
646,94	38,696
647,13	37,205
647,31	36,992
647,50	37,994
647,69	38,989
647,88	36,615
648,07	36,989
648,26	39,818
648,44	37,684
648,63	37,098
648,82	37,946
649,01	40,732
649,20	37,106
649,38	37,130
649,57	38,291
649,76	38,605
649,95	38,315
650,14	36,884
650,33	36,123
650,51	37,921
650,70	39,684
650,89	37,491
651,08	37,751
651,27	37,591
651,45	38,016
651,64	36,947
651,83	37,809
652,02	37,839
652,21	38,941
652,39	38,677
652,58	39,097
652,77	36,954
652,96	38,358
653,15	38,636
653,33	39,337
653,52	39,933
653,71	39,031
653,90	39,571
654,09	39,798
654,27	39,342
654,46	39,101
654,65	40,229
654,84	40,443
655,02	40,882
655,21	40,186
655,40	42,000
655,59	38,730
655,77	40,684
655,96	38,924
656,15	41,163
656,34	41,873
656,53	39,816
656,71	39,642
656,90	39,654
657,09	41,238
657,28	40,731
657,46	39,777
657,65	38,423
657,84	39,183
658,03	39,828
658,21	39,200
658,40	36,670
658,59	38,920
658,78	40,078
658,96	37,529
659,15	37,920
659,34	36,957
659,52	38,273
659,71	38,751
659,90	36,431
660,09	38,577
660,27	37,195
660,46	38,745
660,65	36,502
660,84	35,718
661,02	37,569
661,21	38,541
661,40	36,303
661,58	36,768
661,77	36,685
661,96	36,775
662,15	36,952
662,33	36,209
662,52	35,924
662,71	36,423
662,89	36,042
663,08	35,067
663,27	34,691
663,45	36,520
663,64	36,917
663,83	36,016
664,02	34,807
664,20	34,877
664,39	35,154
664,58	35,213
664,76	37,261
664,95	36,346
665,14	37,011
665,32	34,831
665,51	36,003
665,70	37,604
665,88	36,743
666,07	36,604
666,26	36,715
666,44	36,849
666,63	34,863
666,82	36,201
667,00	36,388
667,19	34,882
667,38	34,562
667,56	38,221
667,75	36,282
667,94	35,918
668,12	35,531
668,31	36,327
668,50	35,952
668,68	36,668
668,87	35,926
669,06	35,425
669,24	35,937
669,43	36,385
669,62	33,791
669,80	35,337
669,99	36,329
670,18	36,260
670,36	34,742
670,55	35,596
670,74	36,663
670,92	33,719
671,11	36,293
671,29	36,161
671,48	36,066
671,67	35,841
671,85	35,772
672,04	34,391
672,23	32,082
672,41	35,653
672,60	34,630
672,78	34,271
672,97	36,306
673,16	35,244
673,34	35,388
673,53	33,289
673,71	34,843
673,90	36,814
674,09	35,276
674,27	34,345
674,46	35,553
674,64	34,966
674,83	35,216
675,02	33,606
675,20	34,045
675,39	35,164
675,57	35,877
675,76	33,806
675,95	33,949
676,13	35,742
676,32	35,386
676,50	34,551
676,69	32,841
676,88	34,807
677,06	34,904
677,25	34,905
677,43	37,350
677,62	35,776
677,80	35,105
677,99	35,674
678,18	36,549
678,36	35,827
678,55	33,653
678,73	34,681
678,92	36,217
679,10	35,794
679,29	35,862
679,48	35,239
679,66	34,855
679,85	33,518
680,03	34,203
680,22	36,603
680,40	36,044
680,59	33,596
680,77	35,155
680,96	35,890
681,15	34,238
681,33	37,135
681,52	34,620
681,70	33,904
681,89	39,045
682,07	36,807
682,26	34,902
682,44	35,952
682,63	36,473
682,81	35,310
683,00	36,149
683,18	33,330
683,37	37,488
683,55	35,083
683,74	34,908
683,92	39,737
684,11	36,608
684,29	37,066
684,48	35,405
684,67	36,383
684,85	38,986
685,04	36,001
685,22	37,727
685,41	37,396
685,59	38,968
685,78	35,723
685,96	36,757
686,15	35,523
686,33	37,730
686,52	37,307
686,70	36,236
686,89	38,649
687,07	38,797
687,26	38,683
687,44	37,427
687,62	37,453
687,81	39,690
687,99	36,809
688,18	38,494
688,36	37,834
688,55	38,826
688,73	38,385
688,92	37,488
689,10	39,952
689,29	40,186
689,47	39,115
689,66	38,639
689,84	39,531
690,03	41,042
690,21	39,549
690,40	39,230
690,58	39,151
690,76	38,879
690,95	41,540
691,13	39,211
691,32	39,368
691,50	39,198
691,69	39,843
691,87	38,777
692,06	39,075
692,24	39,825
692,43	40,395
692,61	38,260
692,79	39,909
692,98	39,078
693,16	43,249
693,35	38,361
693,53	41,995
693,72	41,308
693,90	41,040
694,08	40,331
694,27	40,034
694,45	40,941
694,64	40,747
694,82	41,203
695,01	39,978
695,19	40,618
695,37	41,156
695,56	40,511
695,74	40,211
695,93	41,603
696,11	38,465
696,29	42,458
696,48	40,154
696,66	42,743
696,85	41,594
697,03	40,603
697,21	41,882
697,40	40,975
697,58	40,754
697,77	40,373
697,95	41,796
698,13	42,946
698,32	40,099
698,50	41,851
698,69	40,034
698,87	40,868
699,05	40,672
699,24	41,054
699,42	42,043
699,60	39,363
699,79	40,174
699,97	41,427
700,16	39,945
700,34	42,912
700,52	41,039
700,71	40,116
700,89	39,778
701,07	41,889
701,26	40,731
701,44	41,931
701,63	40,605
701,81	40,444
701,99	41,260
702,18	40,901
702,36	37,972
702,54	40,671
702,73	42,261
702,91	41,806
703,09	40,855
703,28	41,872
703,46	40,529
703,64	40,722
703,83	42,274
704,01	41,447
704,19	42,415
704,38	39,558
704,56	40,102
704,74	43,429
704,93	41,888
705,11	42,865
705,29	41,484
705,48	42,753
705,66	41,007
705,84	40,292
706,03	40,283
706,21	41,940
706,39	42,179
706,58	41,287
706,76	40,569
706,94	42,326
707,12	41,829
707,31	40,615
707,49	41,626
707,67	41,195
707,86	43,173
708,04	39,733
708,22	39,715
708,41	40,893
708,59	41,139
708,77	39,804
708,95	42,726
709,14	43,138
709,32	42,504
709,50	39,758
709,69	40,929
709,87	41,720
710,05	41,435
710,23	42,017
710,42	40,891
710,60	41,406
710,78	41,977
710,97	40,979
711,15	40,491
711,33	44,232
711,51	41,698
711,70	40,534
711,88	41,731
712,06	42,402
712,24	41,831
712,43	42,183
712,61	40,520
712,79	42,147
712,97	40,387
713,16	41,325
713,34	42,156
713,52	42,915
713,70	41,843
713,89	41,354
714,07	41,523
714,25	42,329
714,43	41,626
714,62	41,760
714,80	43,154
714,98	40,780
715,16	42,440
715,35	40,382
715,53	41,135
715,71	41,681
715,89	43,472
716,07	42,417
716,26	45,070
716,44	42,790
716,62	42,775
716,80	40,979
716,99	41,280
717,17	43,051
717,35	40,988
717,53	40,486
717,71	40,372
717,90	43,436
718,08	40,820
718,26	40,809
718,44	41,411
718,62	44,284
718,81	42,275
718,99	41,387
719,17	40,585
719,35	41,032
719,53	41,325
719,72	42,297
719,90	41,517
720,08	40,402
720,26	42,354
720,44	41,920
720,62	42,122
720,81	41,788
720,99	44,485
721,17	40,738
721,35	42,063
721,53	42,489
721,72	44,759
721,90	42,539
722,08	42,637
722,26	42,609
722,44	42,133
722,62	42,232
722,81	41,575
722,99	42,463
723,17	40,177
723,35	41,674
723,53	40,863
723,71	43,286
723,89	43,874
724,08	42,054
724,26	42,316
724,44	42,542
724,62	41,432
724,80	41,537
724,98	41,623
725,16	43,541
725,35	42,634
725,53	41,151
725,71	41,550
725,89	42,506
726,07	41,564
726,25	41,726
726,43	43,149
726,61	42,162
726,80	43,499
726,98	41,153
727,16	42,758
727,34	42,448
727,52	41,930
727,70	41,442
727,88	40,581
728,06	41,702
728,25	40,665
728,43	42,642
728,61	42,581
728,79	41,088
728,97	40,912
729,15	42,387
729,33	45,291
729,51	42,431
729,69	43,586
729,87	41,217
730,06	41,728
730,24	43,096
730,42	45,312
730,60	42,421
730,78	43,566
730,96	40,892
731,14	42,710
731,32	42,032
731,50	40,293
731,68	42,081
731,86	42,862
732,04	42,383
732,22	41,768
732,41	44,024
732,59	42,991
732,77	42,955
732,95	44,140
733,13	42,074
733,31	41,019
733,49	40,820
733,67	43,670
733,85	44,477
734,03	41,124
734,21	40,816
734,39	42,094
734,57	42,836
734,75	44,479
734,93	40,611
735,11	40,644
735,29	41,371
735,47	45,281
735,65	41,001
735,84	41,359
736,02	42,058
736,20	45,576
736,38	40,619
736,56	40,737
736,74	41,443
736,92	41,992
737,10	43,850
737,28	43,985
737,46	42,976
737,64	41,363
737,82	42,497
738,00	44,576
738,18	42,657
738,36	42,542
738,54	43,167
738,72	42,171
738,90	41,447
739,08	43,650
739,26	39,675
739,44	42,360
739,62	41,255
739,80	41,174
739,98	42,673
740,16	41,918
740,34	42,900
740,52	43,406
740,70	41,922
740,88	42,554
741,06	40,861
741,24	41,597
741,42	43,373
741,60	41,587
741,78	44,455
741,96	40,647
742,14	42,421
742,32	40,255
742,50	43,178
742,68	42,171
742,86	40,832
743,04	41,669
743,21	43,555
743,39	44,283
743,57	40,631
743,75	42,137
743,93	40,398
744,11	40,175
744,29	42,316
744,47	39,537
744,65	42,776
744,83	41,675
745,01	41,314
745,19	43,367
745,37	42,491
745,55	41,306
745,73	41,384
745,91	42,648
746,09	41,322
746,27	41,149
746,45	39,471
746,62	41,813
746,80	41,968
746,98	44,044
747,16	41,803
747,34	40,742
747,52	41,213
747,70	41,012
747,88	42,261
748,06	41,987
748,24	41,710
748,42	42,966
748,60	42,628
748,78	40,451
748,95	43,756
749,13	43,220
749,31	41,023
749,49	41,634
749,67	42,377
749,85	44,553
750,03	42,161
750,21	41,687
750,39	40,073
750,57	42,814
750,74	44,010
750,92	41,677
751,10	43,118
751,28	41,808
751,46	42,241
751,64	43,759
751,82	44,237
752,00	42,182
752,17	40,918
752,35	39,596
752,53	42,093
752,71	42,774
752,89	42,425
753,07	41,657
753,25	43,549
753,43	40,763
753,60	43,382
753,78	40,882
753,96	43,682
754,14	43,399
754,32	41,804
754,50	44,225
754,68	43,255
754,85	43,248
755,03	42,403
755,21	43,945
755,39	45,309
755,57	44,103
755,75	43,737
755,92	42,219
756,10	44,082
756,28	43,472
756,46	40,915
756,64	41,685
756,82	43,936
756,99	40,872
757,17	42,337
757,35	40,088
757,53	44,162
757,71	45,122
757,89	41,715
758,06	40,991
758,24	43,451
758,42	43,429
758,60	41,046
758,78	42,693
758,95	42,853
759,13	44,407
759,31	42,416
759,49	42,097
759,67	41,074
759,84	43,577
760,02	43,691
760,20	40,987
760,38	40,728
760,56	41,094
760,73	42,762
760,91	43,435
761,09	41,410
761,27	41,413
761,45	42,944
761,62	42,867
761,80	42,161
761,98	43,570
762,16	42,978
762,33	42,307
762,51	43,243
762,69	40,358
762,87	40,134
763,05	42,109
763,22	39,516
763,40	41,032
763,58	40,860
763,76	42,954
763,93	42,338
764,11	43,734
764,29	41,230
764,47	43,825
764,64	45,257
764,82	44,163
765,00	42,406
765,18	39,194
765,35	42,743
765,53	42,902
765,71	42,613
765,89	41,504
766,06	40,504
766,24	42,276
766,42	43,545
766,60	41,104
766,77	41,349
766,95	42,138
767,13	44,637
767,30	40,971
767,48	41,770
767,66	42,475
767,84	39,412
768,01	43,473
768,19	42,107
768,37	42,800
768,54	40,817
768,72	42,753
768,90	42,708
769,08	43,193
769,25	42,406
769,43	40,729
769,61	39,199
769,78	43,036
769,96	42,138
770,14	44,669
770,31	42,165
770,49	43,683
770,67	43,317
770,85	40,050
771,02	43,256
771,20	42,974
771,38	41,902
771,55	42,858
771,73	39,511
771,91	40,652
772,08	43,870
772,26	43,075
772,44	39,854
772,61	43,732
772,79	39,931
772,97	43,688
773,14	39,705
773,32	43,084
773,50	41,671
773,67	42,766
773,85	43,757
774,03	44,428
774,20	40,387
774,38	43,688
774,56	41,444
774,73	39,915
774,91	39,714
775,09	42,838
775,26	41,641
775,44	42,198
775,61	42,379
775,79	40,645
775,97	44,041
776,14	41,011
776,32	39,908
776,50	39,909
776,67	43,399
776,85	42,946
777,03	40,979
777,20	43,663
777,38	44,834
777,55	44,004
777,73	43,428
777,91	40,214
778,08	42,344
778,26	40,924
778,43	42,349
778,61	40,667
778,79	39,828
778,96	41,006
779,14	41,184
779,32	42,969
779,49	45,035
779,67	44,327
779,84	39,409
780,02	42,971
780,20	39,580
780,37	45,170
780,55	36,841
780,72	44,015
780,90	44,307
781,07	42,214
781,25	43,748
781,43	44,417
781,60	41,291
781,78	43,882
781,95	42,818
782,13	42,554
782,30	43,306
782,48	42,605
782,66	42,766
782,83	42,185
783,01	47,407
783,18	43,289
783,36	42,409
783,53	43,612
783,71	41,139
783,89	42,055
784,06	43,274
784,24	43,005
784,41	43,864
784,59	42,966
784,76	44,689
784,94	43,132
785,11	41,686
785,29	45,181
785,46	44,418
785,64	42,180
785,82	44,269
785,99	44,576
786,17	41,793
786,34	42,669
786,52	44,221
786,69	44,256
786,87	43,001
787,04	41,393
787,22	39,836
787,39	40,746
787,57	41,834
787,74	42,721
787,92	42,871
788,09	44,797
788,27	44,431
788,44	43,825
788,62	43,414
788,79	43,441
788,97	44,604
789,14	40,995
789,32	40,168
789,49	45,007
789,67	41,322
789,84	45,621
790,02	43,299
790,19	41,419
790,37	43,229
790,54	44,377
790,72	45,148
790,89	46,793
791,07	45,029
791,24	42,934
791,42	44,471
791,59	43,468
791,77	43,653
791,94	41,794
792,12	43,549
792,29	45,457
792,47	43,345
792,64	45,568
792,81	45,475
792,99	44,001
793,16	43,268
793,34	48,395
793,51	46,081
793,69	46,847
793,86	43,313
794,04	44,412
794,21	44,997
794,39	41,911
794,56	43,495
794,73	45,987
794,91	46,226
795,08	46,754
795,26	40,669
795,43	44,509
795,61	46,519
795,78	48,657
795,95	46,595
796,13	44,675
796,30	45,802
796,48	41,393
796,65	44,452
796,83	44,206
797,00	48,515
797,17	43,275
797,35	43,249
797,52	42,225
797,70	50,065
797,87	44,102
798,04	40,145
798,22	44,015
798,39	44,133
798,57	43,832
798,74	44,998
798,91	42,934
799,09	41,172
799,26	44,520
799,44	42,044
799,61	44,863
799,78	44,443
799,96	43,896
800,13	44,193
800,31	41,773
800,48	46,806
800,65	44,627
800,83	43,238
801,00	44,303
801,17	44,781
801,35	45,613
801,52	43,459
801,70	41,977
801,87	43,175
802,04	48,525
802,22	42,742
802,39	42,243
802,56	46,551
802,74	46,144
802,91	41,039
803,08	42,339
803,26	42,903
803,43	43,833
803,61	46,599
803,78	43,970
803,95	46,717
804,13	48,429
804,30	43,534
804,47	47,427
804,65	41,508
804,82	43,978
804,99	44,049
805,17	47,663
805,34	50,927
805,51	49,799
805,69	45,300
805,86	43,579
806,03	44,724
806,21	46,525
806,38	43,320
806,55	44,841
806,72	46,260
806,90	44,142
807,07	45,471
807,24	44,645
807,42	44,056
807,59	44,944
807,76	43,555
807,94	42,783
808,11	47,501
808,28	47,022
808,45	45,082
808,63	44,021
808,80	48,033
808,97	47,916
809,15	44,768
809,32	46,198
809,49	42,369
809,67	42,986
809,84	46,468
810,01	45,714
810,18	52,660
810,36	44,451
810,53	47,592
810,70	47,590
810,87	49,072
811,05	43,615
811,22	48,818
811,39	43,020
811,57	49,402
811,74	44,423
811,91	46,740
812,08	44,883
812,26	41,255
812,43	44,299
812,60	45,272
812,77	43,742
812,95	46,985
813,12	44,439
813,29	43,984
813,46	47,498
813,64	47,078
813,81	42,455
813,98	47,210
814,15	48,214
814,32	45,695
814,50	45,968
814,67	44,006
814,84	44,422
815,01	45,731
815,19	44,300
815,36	37,142
815,53	45,541
815,70	44,575
815,87	51,793
816,05	39,590
816,22	45,494
816,39	51,094
816,56	48,822
816,74	42,687
816,91	45,482
817,08	52,072
817,25	46,643
817,42	47,826
817,60	46,035
817,77	46,173
817,94	46,789
818,11	48,384
818,28	46,755
818,45	46,162
818,63	44,853
818,80	50,563
818,97	46,509
819,14	56,532
819,31	54,585
819,49	47,511
819,66	47,597
819,83	42,752
820,00	47,043
820,17	44,101
820,34	47,808
820,52	49,067
820,69	46,933
820,86	44,848
821,03	44,865
821,20	45,986
821,37	49,319
821,55	39,979
821,72	44,408
821,89	47,135
822,06	47,745
822,23	46,355
822,40	47,522
822,57	47,932
822,75	56,236
822,92	45,089
823,09	46,186
823,26	49,756
823,43	54,382
823,60	44,042
823,77	42,081
823,94	58,068
824,12	53,779
824,29	45,278
824,46	42,696
824,63	49,940
824,80	50,061
824,97	44,865
825,14	45,835
825,31	50,183
825,49	48,603
825,66	45,783
825,83	45,664
826,00	48,538
826,17	51,696
826,34	45,041
826,51	45,232
826,68	46,046
826,85	54,807
827,02	49,565
827,20	41,853
827,37	45,747
827,54	46,490
827,71	50,743
827,88	49,685
828,05	48,150
828,22	47,917
828,39	49,987
828,56	50,532
828,73	47,937
828,90	52,965
829,07	50,831
829,25	47,767
829,42	50,152
829,59	45,558
829,76	46,449
829,93	48,489
830,10	47,045
830,27	51,157
830,44	47,090
830,61	51,019
830,78	37,988
830,95	49,545
831,12	44,608
831,29	44,299
831,46	49,923
831,63	48,209
831,80	44,627
831,97	47,460
832,14	55,447
832,31	60,181
832,48	43,901
832,65	49,622
832,83	43,084
833,00	53,210
833,17	45,987
833,34	53,075
833,51	50,953
833,68	52,389
833,85	50,515
834,02	48,385
834,19	44,867
834,36	52,153
834,53	44,757
834,70	42,700
834,87	56,355
835,04	47,510
835,21	48,464
835,38	49,353
835,55	41,813
835,72	57,589
835,89	39,653
836,06	56,271
836,23	52,604
836,40	37,993
836,57	52,013
836,74	53,984
836,91	44,047
837,08	58,011
837,25	51,669
837,42	42,429
837,59	51,865
837,76	53,674
837,93	48,720
838,09	40,854
838,26	48,204
838,43	59,278
838,60	43,512
838,77	46,482
838,94	55,585
839,11	46,667
839,28	50,613
839,45	48,107
839,62	46,587
839,79	48,270
839,96	58,058
840,13	46,239
840,30	47,638
840,47	49,316
840,64	43,499
840,81	51,868
840,98	42,146
841,15	60,058
841,32	40,702
841,48	57,156
841,65	55,258
841,82	52,571
841,99	55,099
842,16	43,858
842,33	62,871
842,50	50,217
842,67	45,589
842,84	52,945
843,01	52,468
843,18	59,038
843,35	50,843
843,52	45,920
843,68	50,495
843,85	53,195
844,02	44,049
844,19	48,171
844,36	61,074
844,53	46,152
844,70	47,164
844,87	60,224
845,04	57,478
845,21	43,965
845,37	49,592
845,54	52,519
845,71	43,570
845,88	65,748
846,05	51,123
846,22	45,070
846,39	53,554
846,56	66,129
846,72	46,923
846,89	55,118
847,06	55,420
847,23	53,139
847,40	42,846
847,57	38,520
847,74	51,921
847,90	58,833
848,07	53,562
848,24	47,359
848,41	55,393
848,58	59,215
848,75	53,323
848,92	50,701
849,08	48,064
849,25	58,128
849,42	44,577
849,59	53,182
849,76	51,604
849,93	45,910
850,09	61,060
850,26	37,576
850,43	60,728
850,60	53,724
850,77	39,918
850,94	53,261
851,10	53,928
851,27	48,735
851,44	59,677
851,61	42,486
851,78	54,104
851,95	54,589
852,11	55,275
852,28	43,786
852,45	51,633
852,62	58,490
852,79	61,790
852,95	50,555
853,12	56,424
853,29	47,216
853,46	51,442
853,63	56,151
853,79	51,597
853,96	44,983
854,13	60,965
854,30	39,170
854,46	72,997
854,63	60,950
854,80	50,482
854,97	45,567
855,14	64,127
855,30	54,468
855,47	49,913
855,64	55,954
855,81	60,989
855,97	48,597
856,14	62,429
856,31	41,907
856,48	75,427
856,65	63,903
856,81	42,927
856,98	45,288
857,15	38,220
857,32	53,610
857,48	55,450
857,65	52,932
857,82	71,882
857,99	62,136
858,15	52,460
858,32	49,655
858,49	59,159
858,65	58,249
858,82	56,620
858,99	44,102
859,16	54,779
859,32	62,119
859,49	63,845
859,66	46,480
859,83	56,155
859,99	48,520
860,16	51,132
860,33	55,401
860,49	45,948
860,66	66,599
860,83	42,776
861,00	50,999
861,16	68,445
861,33	68,578
861,50	42,511
861,66	59,935
861,83	65,126
862,00	67,849
862,16	66,093
862,33	63,317
862,50	83,494
862,67	54,985
862,83	49,387
863,00	57,859
863,17	76,990
863,33	74,129
863,50	27,768
863,67	28,438
863,83	56,594
864,00	82,457
864,17	49,004
864,33	56,057
864,50	63,075
864,67	65,651
864,83	48,695
865,00	56,951
865,17	49,501
865,33	66,420
865,50	47,864
865,67	44,824
865,83	61,600
866,00	91,861
866,17	64,822
866,33	59,088
866,50	93,037
866,66	60,873
866,83	72,550
867,00	69,501
867,16	67,125
867,33	74,161
867,50	39,665
867,66	42,592
867,83	67,883
868,00	75,317
868,16	57,353
868,33	29,931
868,49	68,851
868,66	71,084
868,83	51,478
868,99	64,802
869,16	76,404
869,32	69,399
869,49	52,341
869,66	43,780
869,82	63,201
869,99	62,069
870,15	41,523
870,32	78,317
870,49	85,128
870,65	89,997
870,82	48,628
870,98	72,064
871,15	79,120
871,32	47,130
871,48	50,655
871,65	61,924
871,81	54,083
871,98	39,736
872,15	45,353
872,31	42,752
872,48	93,821
872,64	54,265
872,81	43,528
872,97	56,329
873,14	81,462
873,31	81,208
873,47	57,557
873,64	45,873
873,80	84,596
873,97	112,482
874,13	42,969
874,30	62,896
874,46	76,692
874,63	51,312
874,80	42,745
874,96	47,886
875,13	81,888
875,29	62,674
875,46	75,856
875,62	32,458
875,79	68,824
875,95	68,165
876,12	65,720
876,28	44,970
876,45	102,322
876,61	68,956
876,78	83,220
876,94	79,233
877,11	77,240
877,27	66,320
877,44	92,409
877,60	40,409
877,77	85,066
877,94	86,993
878,10	72,325
878,27	63,295
878,43	83,370
878,60	42,216
878,76	72,131
878,93	30,043
879,09	160,241
879,26	109,559
879,42	76,895
879,58	79,128
879,75	96,500
879,91	123,099
880,08	32,473
880,24	33,151
880,41	111,344
880,57	78,397
880,74	59,448
880,90	85,757
881,07	73,000
881,23	81,747
881,40	52,216
881,56	62,182
881,73	104,761
881,89	73,996
882,06	82,209
882,22	166,358
882,38	118,388
882,55	109,770
882,71	78,019
882,88	33,674
883,04	199,910
883,21	139,742
883,37	50,300
883,54	78,035
883,70	195,510
883,86	89,179
884,03	90,316
884,19	59,926
884,36	125,056
884,52	229,776
884,69	92,528
884,85	64,908
885,01	226,818
885,18	114,045
885,34	42,887
885,51	29,916
885,67	81,442
>>>>> Data<<<<< Espectral Procesado Extremo
