Fichero De Datos De SpectraSuite
++++++++++++++++++++++++++++++++++++
Fecha: Wed Apr 22 10:44:51 CEST 2009
Usuario: evoflor
Presente Oscuro Del Espectro: Sí
La Referencia de Presente Del Espectro De: Sí
Muestreados de los componentes de Número de espectros: 1
Espectrómetros: USB4F02353
Tiempo de integración (usec): 500000 (USB4F02353)
Promedio de Espectros Hechos un: 5 (USB4F02353)
El Alisar Del Furgón: 0 (USB4F02353)
Párrafo de de Corregir del la del del de Eléctrica del obscuridad: Sí (USB4F02353)
Estrobo/Lámpara Permitido: No (USB4F02353)
Correct for Detector Non-linearity: No (USB4F02353)
Párrafo de de Corregir del la del del de Externa del luz: No (USB4F02353)
Procesado del espectro de Número de pixeles en: 3648
>>>>> Comienza Data<<<<< Espectral Procesado Del EL
177,79	257,544
178,00	257,544
178,22	257,544
178,44	914,560
178,66	-151,525
178,88	150,896
179,09	-93,936
179,31	224,652
179,53	411,068
179,75	126,130
179,96	322,198
180,18	-256,231
180,40	428,583
180,62	316,379
180,83	-16,632
181,05	-400,915
181,27	-8575,000
181,49	79,185
181,70	57,212
181,92	431,853
182,14	280,648
182,36	59,321
182,58	508,250
182,79	761,496
183,01	-21,321
183,23	188,984
183,45	-314,385
183,66	157,190
183,88	161,618
184,10	-2823,182
184,32	188,304
184,53	145,051
184,75	-118,381
184,97	72,313
185,18	-251,269
185,40	-218,630
185,62	127,219
185,84	65,884
186,05	119,515
186,27	-42,756
186,49	1887,500
186,71	-25,000
186,92	150,756
187,14	7,097
187,36	133,076
187,58	22,647
187,79	44,415
188,01	128,709
188,23	-280,043
188,45	132,355
188,66	251,228
188,88	-810,455
189,10	-1741,750
189,31	72,910
189,53	242,290
189,75	301,761
189,97	105,673
190,18	326,502
190,40	315,147
190,62	-146,285
190,83	-14,932
191,05	76,590
191,27	57,929
191,49	266,275
191,70	-287,861
191,92	-461,653
192,14	21,958
192,35	540,782
192,57	2816,429
192,79	-101,124
193,01	-29,450
193,22	104,995
193,44	-145,179
193,66	103,713
193,87	41,488
194,09	-27,938
194,31	113,462
194,53	638,986
194,74	63,185
194,96	19,022
195,18	177,094
195,39	34,367
195,61	-86,307
195,83	-257,337
196,04	111,168
196,26	-201,382
196,48	62,251
196,70	74,304
196,91	-38,160
197,13	99,177
197,35	-122,133
197,56	391,563
197,78	1454,291
198,00	-84,790
198,21	-37,015
198,43	-766,715
198,65	130,150
198,86	302,788
199,08	131,393
199,30	101,164
199,51	-206,759
199,73	141,904
199,95	301,918
200,16	607,596
200,38	222,669
200,60	96,969
200,81	151,338
201,03	6,182
201,25	-1264,750
201,46	142,707
201,68	75,943
201,90	-316,477
202,11	-156,393
202,33	120,422
202,55	433,437
202,76	-3,633
202,98	73,780
203,20	-166,707
203,41	-310,395
203,63	52,997
203,85	-79675,000
204,06	-174,304
204,28	-231,024
204,50	111,976
204,71	123,277
204,93	-939,400
205,15	-12,123
205,36	-42,208
205,58	234,117
205,80	-147,361
206,01	79,860
206,23	82,095
206,45	164,406
206,66	87,129
206,88	-21,975
207,10	215,852
207,31	245,000
207,53	219,929
207,75	-24,193
207,96	399,813
208,18	-88,353
208,39	28,412
208,61	2225,000
208,83	-166,680
209,04	133,994
209,26	-47,811
209,48	154,821
209,69	135,766
209,91	299,578
210,13	65,067
210,34	243,039
210,56	154,384
210,77	-528,150
210,99	19,240
211,21	1563,235
211,42	1,934
211,64	-15,780
211,86	74,427
212,07	238,692
212,29	220,473
212,50	70,825
212,72	122,981
212,94	106,020
213,15	141,774
213,37	117,189
213,58	-66,907
213,80	-2813,393
214,02	6063,235
214,23	204,516
214,45	329,098
214,67	-1048,476
214,88	43,708
215,10	-97,491
215,31	8,897
215,53	-64,375
215,75	271,609
215,96	1165,683
216,18	-196,127
216,39	143,359
216,61	164,138
216,83	-98,326
217,04	753,652
217,26	45,766
217,47	183,980
217,69	228,782
217,91	63,724
218,12	-12175,000
218,34	132,655
218,55	127,785
218,77	-32,251
218,99	138,452
219,20	-83,656
219,42	166,730
219,63	77,665
219,85	29,300
220,06	-112,404
220,28	92,059
220,50	100,727
220,71	110,794
220,93	2318,396
221,14	-1030,750
221,36	30,067
221,58	36,773
221,79	195,097
222,01	190,302
222,22	666,283
222,44	-1380,056
222,65	163,796
222,87	450,175
223,09	173,740
223,30	33,254
223,52	128,659
223,73	120,319
223,95	85,599
224,16	-0,876
224,38	33,116
224,60	60,556
224,81	-13,515
225,03	26,294
225,24	15,190
225,46	91,985
225,67	25,564
225,89	-8,802
226,10	378,238
226,32	1199,000
226,54	15,842
226,75	-30,419
226,97	94,671
227,18	121,002
227,40	68,692
227,61	69,948
227,83	-48,281
228,04	77,324
228,26	56,754
228,47	26,461
228,69	197,551
228,91	71,077
229,12	74,588
229,34	40,723
229,55	16,491
229,77	-39,510
229,98	-15,772
230,20	60,112
230,41	-15,172
230,63	70,319
230,84	-63,399
231,06	31,551
231,27	46,169
231,49	35,757
231,71	44,062
231,92	15,903
232,14	21,779
232,35	101,179
232,57	37,567
232,78	10,609
233,00	44,252
233,21	21,846
233,43	11,189
233,64	9,112
233,86	31,727
234,07	16,679
234,29	23,650
234,50	10,640
234,72	33,741
234,93	-13,036
235,15	26,913
235,36	27,741
235,58	18,698
235,79	25,564
236,01	13,429
236,22	13,026
236,44	15,855
236,65	26,157
236,87	11,985
237,08	4,505
237,30	-0,438
237,51	15,667
237,73	3,351
237,94	-1,131
238,16	17,370
238,37	14,431
238,59	3,701
238,80	25,836
239,02	-5,133
239,23	6,513
239,45	-11,292
239,66	17,734
239,88	21,638
240,09	22,715
240,31	-2,826
240,52	10,109
240,74	-1,024
240,95	6,855
241,17	4,753
241,38	-0,046
241,60	4,415
241,81	11,343
242,03	2,830
242,24	8,739
242,46	20,636
242,67	3,966
242,89	16,811
243,10	13,392
243,32	12,339
243,53	17,590
243,75	5,991
243,96	9,550
244,18	4,478
244,39	6,055
244,60	1,017
244,82	5,023
245,03	8,388
245,25	3,932
245,46	18,655
245,68	0,786
245,89	11,612
246,11	5,476
246,32	6,795
246,54	3,471
246,75	14,089
246,97	3,832
247,18	16,730
247,39	0,728
247,61	8,305
247,82	6,361
248,04	2,513
248,25	4,427
248,47	13,222
248,68	6,280
248,90	-4,722
249,11	8,740
249,33	10,829
249,54	9,014
249,75	8,434
249,97	5,339
250,18	10,852
250,40	12,807
250,61	-3,282
250,83	5,728
251,04	1,241
251,25	8,099
251,47	-0,627
251,68	6,568
251,90	6,026
252,11	8,672
252,33	5,662
252,54	2,365
252,76	6,200
252,97	1,216
253,18	-3,667
253,40	4,563
253,61	-3,206
253,83	7,867
254,04	9,645
254,25	2,783
254,47	5,947
254,68	4,172
254,90	3,352
255,11	4,766
255,33	4,271
255,54	2,512
255,75	4,185
255,97	3,877
256,18	1,961
256,40	3,752
256,61	7,105
256,82	-2,772
257,04	7,934
257,25	1,058
257,47	5,331
257,68	0,064
257,89	5,711
258,11	5,751
258,32	-1,692
258,54	7,061
258,75	7,352
258,96	6,894
259,18	2,944
259,39	3,287
259,61	6,118
259,82	1,899
260,03	6,244
260,25	5,121
260,46	2,757
260,68	0,689
260,89	1,501
261,10	3,422
261,32	3,610
261,53	5,017
261,75	9,011
261,96	0,188
262,17	9,691
262,39	6,735
262,60	0,306
262,81	-1,390
263,03	10,854
263,24	5,261
263,46	1,703
263,67	3,846
263,88	2,433
264,10	4,609
264,31	-2,342
264,52	5,925
264,74	7,122
264,95	3,662
265,17	3,024
265,38	5,270
265,59	9,530
265,81	3,274
266,02	2,729
266,23	1,133
266,45	9,770
266,66	8,698
266,87	2,791
267,09	1,095
267,30	3,786
267,52	5,599
267,73	4,255
267,94	5,931
268,16	7,184
268,37	5,368
268,58	5,437
268,80	3,554
269,01	2,430
269,22	2,287
269,44	4,710
269,65	5,614
269,86	3,518
270,08	6,887
270,29	0,739
270,50	2,957
270,72	4,713
270,93	0,890
271,14	-0,090
271,36	2,477
271,57	3,979
271,78	1,453
272,00	9,026
272,21	5,036
272,42	4,195
272,64	5,661
272,85	2,769
273,06	3,234
273,28	5,083
273,49	5,545
273,70	3,277
273,92	7,717
274,13	5,799
274,34	2,689
274,56	6,763
274,77	3,615
274,98	1,077
275,20	0,981
275,41	3,560
275,62	6,032
275,84	5,282
276,05	8,449
276,26	3,157
276,47	1,433
276,69	2,684
276,90	5,222
277,11	4,436
277,33	1,649
277,54	4,752
277,75	3,247
277,97	2,797
278,18	1,873
278,39	3,673
278,61	3,650
278,82	3,291
279,03	2,871
279,24	3,603
279,46	1,746
279,67	5,562
279,88	1,936
280,10	7,484
280,31	1,895
280,52	3,557
280,73	2,786
280,95	6,854
281,16	7,196
281,37	3,210
281,59	6,287
281,80	7,647
282,01	1,692
282,22	2,945
282,44	-0,173
282,65	8,247
282,86	4,824
283,08	5,584
283,29	6,497
283,50	4,182
283,71	5,518
283,93	5,127
284,14	6,744
284,35	3,011
284,56	3,718
284,78	2,891
284,99	7,469
285,20	5,111
285,42	5,091
285,63	3,939
285,84	1,739
286,05	2,298
286,27	3,821
286,48	1,414
286,69	3,611
286,90	3,821
287,12	3,742
287,33	2,760
287,54	2,097
287,75	3,292
287,97	5,881
288,18	4,024
288,39	1,115
288,60	2,706
288,82	4,836
289,03	2,513
289,24	4,218
289,45	5,424
289,67	2,947
289,88	0,782
290,09	5,316
290,30	4,321
290,52	2,913
290,73	1,925
290,94	0,894
291,15	3,300
291,37	5,558
291,58	5,738
291,79	4,578
292,00	3,904
292,21	6,562
292,43	4,013
292,64	2,846
292,85	0,844
293,06	4,669
293,28	1,959
293,49	1,070
293,70	4,962
293,91	4,589
294,12	2,880
294,34	3,227
294,55	4,552
294,76	3,568
294,97	7,049
295,19	0,309
295,40	4,098
295,61	5,330
295,82	1,844
296,03	4,172
296,25	1,979
296,46	0,499
296,67	3,591
296,88	-0,164
297,09	7,728
297,31	3,239
297,52	4,659
297,73	2,934
297,94	4,208
298,15	3,989
298,37	4,237
298,58	4,570
298,79	4,404
299,00	3,215
299,21	2,182
299,43	3,490
299,64	6,817
299,85	4,520
300,06	2,678
300,27	2,874
300,49	4,990
300,70	3,017
300,91	2,611
301,12	2,772
301,33	4,580
301,54	2,520
301,76	5,944
301,97	1,660
302,18	2,526
302,39	5,512
302,60	3,052
302,82	3,255
303,03	6,806
303,24	3,637
303,45	4,869
303,66	4,852
303,87	1,637
304,09	5,801
304,30	3,051
304,51	3,470
304,72	2,650
304,93	5,149
305,14	4,779
305,36	2,379
305,57	1,760
305,78	3,945
305,99	1,987
306,20	3,550
306,41	1,307
306,62	1,829
306,84	3,923
307,05	2,167
307,26	3,682
307,47	5,734
307,68	4,605
307,89	3,065
308,11	4,337
308,32	2,281
308,53	2,367
308,74	0,752
308,95	3,521
309,16	2,802
309,37	4,510
309,59	1,600
309,80	2,809
310,01	2,714
310,22	3,108
310,43	1,827
310,64	5,694
310,85	4,003
311,06	2,708
311,28	4,915
311,49	3,475
311,70	7,822
311,91	1,624
312,12	1,718
312,33	8,091
312,54	4,331
312,75	2,161
312,97	3,130
313,18	3,886
313,39	2,788
313,60	4,714
313,81	3,673
314,02	4,083
314,23	3,544
314,44	1,844
314,65	4,001
314,87	1,242
315,08	3,108
315,29	5,926
315,50	3,573
315,71	3,371
315,92	4,491
316,13	3,756
316,34	3,103
316,55	3,899
316,77	-1,399
316,98	4,014
317,19	1,825
317,40	3,782
317,61	7,640
317,82	1,906
318,03	-0,548
318,24	0,614
318,45	3,305
318,66	6,064
318,87	1,381
319,09	4,867
319,30	4,851
319,51	4,560
319,72	6,576
319,93	6,372
320,14	6,149
320,35	5,730
320,56	1,354
320,77	2,204
320,98	6,704
321,19	3,874
321,40	3,610
321,62	5,846
321,83	3,690
322,04	5,549
322,25	1,437
322,46	5,208
322,67	4,475
322,88	2,879
323,09	4,841
323,30	3,688
323,51	6,468
323,72	7,349
323,93	1,212
324,14	3,143
324,35	1,929
324,56	-0,290
324,77	2,680
324,99	2,928
325,20	2,923
325,41	4,569
325,62	2,190
325,83	2,305
326,04	4,246
326,25	4,176
326,46	3,936
326,67	6,389
326,88	5,651
327,09	1,929
327,30	3,889
327,51	5,285
327,72	2,648
327,93	4,054
328,14	0,605
328,35	3,364
328,56	3,565
328,77	4,600
328,98	5,209
329,19	3,324
329,40	5,143
329,61	4,576
329,82	1,227
330,04	2,413
330,25	2,642
330,46	3,903
330,67	1,670
330,88	2,310
331,09	3,112
331,30	2,216
331,51	3,164
331,72	4,115
331,93	3,972
332,14	4,231
332,35	5,405
332,56	3,501
332,77	3,511
332,98	2,693
333,19	5,139
333,40	2,605
333,61	1,803
333,82	5,064
334,03	2,203
334,24	3,626
334,45	4,545
334,66	4,646
334,87	4,282
335,08	1,312
335,29	2,611
335,50	1,540
335,71	2,164
335,92	2,898
336,13	2,554
336,34	-0,389
336,55	2,745
336,76	2,296
336,97	3,373
337,18	1,728
337,39	3,776
337,60	4,265
337,81	1,999
338,02	-0,068
338,23	2,857
338,44	5,450
338,65	2,990
338,86	4,195
339,07	2,277
339,28	5,279
339,49	3,901
339,70	4,464
339,91	3,127
340,11	6,112
340,32	3,189
340,53	2,560
340,74	-1,029
340,95	0,779
341,16	4,839
341,37	3,383
341,58	0,983
341,79	5,535
342,00	3,190
342,21	1,771
342,42	2,436
342,63	2,331
342,84	1,232
343,05	3,322
343,26	2,389
343,47	3,488
343,68	2,384
343,89	3,660
344,10	3,795
344,31	6,280
344,52	2,689
344,73	1,484
344,94	4,897
345,14	4,564
345,35	5,159
345,56	3,302
345,77	4,476
345,98	1,167
346,19	5,284
346,40	2,679
346,61	1,547
346,82	3,479
347,03	2,014
347,24	3,829
347,45	3,123
347,66	3,858
347,87	0,364
348,08	3,044
348,28	2,211
348,49	4,793
348,70	4,796
348,91	5,194
349,12	1,527
349,33	14,015
349,54	2,884
349,75	3,651
349,96	3,018
350,17	2,159
350,38	4,020
350,59	4,187
350,80	5,413
351,00	5,603
351,21	8,036
351,42	3,509
351,63	1,761
351,84	3,256
352,05	5,071
352,26	2,060
352,47	2,643
352,68	5,000
352,89	2,605
353,09	3,218
353,30	2,092
353,51	2,652
353,72	6,262
353,93	6,065
354,14	1,033
354,35	4,163
354,56	5,210
354,77	1,398
354,98	0,464
355,18	5,158
355,39	8,601
355,60	3,018
355,81	2,773
356,02	5,913
356,23	2,941
356,44	1,545
356,65	1,242
356,85	9,372
357,06	4,185
357,27	3,354
357,48	1,545
357,69	2,609
357,90	4,082
358,11	3,759
358,32	3,059
358,52	8,997
358,73	3,324
358,94	1,452
359,15	2,724
359,36	4,488
359,57	2,929
359,78	2,755
359,98	1,937
360,19	2,335
360,40	2,571
360,61	6,167
360,82	2,342
361,03	5,721
361,24	3,742
361,44	1,468
361,65	1,288
361,86	1,889
362,07	4,750
362,28	3,023
362,49	0,838
362,70	4,548
362,90	5,919
363,11	1,558
363,32	0,663
363,53	3,623
363,74	5,834
363,95	3,847
364,15	3,964
364,36	6,737
364,57	5,011
364,78	4,741
364,99	3,209
365,20	4,253
365,40	5,797
365,61	4,093
365,82	5,298
366,03	4,404
366,24	4,093
366,45	3,236
366,65	4,339
366,86	3,915
367,07	7,843
367,28	5,186
367,49	2,836
367,69	7,932
367,90	2,491
368,11	4,713
368,32	4,863
368,53	4,276
368,73	4,706
368,94	2,716
369,15	2,516
369,36	4,028
369,57	4,544
369,78	2,920
369,98	4,778
370,19	7,839
370,40	2,100
370,61	-0,263
370,82	2,843
371,02	5,113
371,23	7,690
371,44	1,153
371,65	4,825
371,85	6,669
372,06	6,079
372,27	4,881
372,48	3,730
372,69	2,800
372,89	0,962
373,10	3,500
373,31	1,603
373,52	2,673
373,73	4,321
373,93	3,987
374,14	2,867
374,35	10,151
374,56	6,253
374,76	5,030
374,97	2,301
375,18	4,479
375,39	3,544
375,60	5,492
375,80	6,298
376,01	1,464
376,22	6,145
376,43	6,391
376,63	4,517
376,84	1,454
377,05	3,649
377,26	0,752
377,46	4,458
377,67	3,802
377,88	5,746
378,09	5,937
378,29	-1,251
378,50	5,680
378,71	3,080
378,92	4,693
379,12	2,506
379,33	1,565
379,54	2,445
379,75	4,565
379,95	3,931
380,16	4,885
380,37	6,587
380,58	3,482
380,78	7,398
380,99	1,318
381,20	4,173
381,41	5,263
381,61	6,842
381,82	5,024
382,03	5,542
382,24	4,663
382,44	4,990
382,65	7,551
382,86	4,757
383,06	4,426
383,27	5,728
383,48	2,575
383,69	4,212
383,89	4,323
384,10	6,707
384,31	5,050
384,51	8,680
384,72	5,404
384,93	1,727
385,14	6,286
385,34	9,353
385,55	3,422
385,76	3,791
385,96	5,826
386,17	7,344
386,38	8,723
386,59	8,679
386,79	3,789
387,00	11,836
387,21	7,895
387,41	6,326
387,62	5,111
387,83	5,689
388,03	4,593
388,24	2,816
388,45	6,933
388,66	7,449
388,86	6,092
389,07	8,174
389,28	10,267
389,48	6,880
389,69	7,730
389,90	7,949
390,10	11,093
390,31	8,633
390,52	3,071
390,72	7,228
390,93	6,547
391,14	8,778
391,34	8,249
391,55	11,544
391,76	10,834
391,96	8,480
392,17	10,407
392,38	14,025
392,58	7,040
392,79	10,191
393,00	10,465
393,20	11,003
393,41	10,774
393,62	6,601
393,82	10,240
394,03	9,497
394,24	9,432
394,44	13,188
394,65	9,781
394,86	10,975
395,06	12,388
395,27	8,604
395,48	8,787
395,68	11,232
395,89	12,772
396,10	13,602
396,30	7,458
396,51	9,702
396,72	11,524
396,92	12,603
397,13	14,563
397,34	10,311
397,54	15,962
397,75	12,988
397,95	12,241
398,16	15,785
398,37	14,245
398,57	15,146
398,78	15,700
398,99	21,414
399,19	17,422
399,40	17,116
399,60	16,524
399,81	15,010
400,02	19,897
400,22	18,489
400,43	18,444
400,64	15,930
400,84	16,571
401,05	18,502
401,25	17,022
401,46	20,907
401,67	18,191
401,87	18,571
402,08	13,930
402,29	12,825
402,49	18,384
402,70	20,179
402,90	19,116
403,11	21,877
403,32	18,856
403,52	18,352
403,73	22,859
403,93	21,674
404,14	25,123
404,35	25,274
404,55	17,326
404,76	18,662
404,96	22,237
405,17	22,168
405,38	24,259
405,58	20,899
405,79	25,334
405,99	23,913
406,20	21,538
406,40	20,006
406,61	27,647
406,82	22,751
407,02	27,683
407,23	24,791
407,43	23,570
407,64	24,622
407,85	22,097
408,05	20,216
408,26	32,157
408,46	28,870
408,67	23,762
408,87	26,321
409,08	25,416
409,29	27,621
409,49	26,357
409,70	28,445
409,90	30,009
410,11	26,824
410,31	31,386
410,52	26,598
410,72	27,887
410,93	32,261
411,14	28,810
411,34	28,525
411,55	31,186
411,75	30,767
411,96	31,712
412,16	31,239
412,37	28,175
412,57	30,303
412,78	27,369
412,99	27,749
413,19	30,656
413,40	30,128
413,60	28,923
413,81	28,107
414,01	30,970
414,22	32,782
414,42	33,688
414,63	28,107
414,83	36,993
415,04	35,932
415,24	35,030
415,45	33,013
415,65	30,321
415,86	34,903
416,07	36,036
416,27	34,575
416,48	36,293
416,68	36,169
416,89	30,446
417,09	34,318
417,30	33,456
417,50	34,674
417,71	39,838
417,91	36,431
418,12	34,742
418,32	33,595
418,53	34,293
418,73	38,575
418,94	34,274
419,14	35,454
419,35	31,819
419,55	35,474
419,76	37,844
419,96	36,830
420,17	34,250
420,37	31,888
420,58	37,427
420,78	33,415
420,99	36,288
421,19	38,491
421,40	35,598
421,60	37,359
421,81	35,366
422,01	38,097
422,22	36,114
422,42	38,601
422,63	39,468
422,83	35,445
423,04	42,296
423,24	39,148
423,45	37,847
423,65	39,516
423,86	39,484
424,06	41,460
424,27	36,375
424,47	35,480
424,67	35,125
424,88	40,470
425,08	39,943
425,29	44,045
425,49	40,186
425,70	33,793
425,90	40,915
426,11	36,714
426,31	39,012
426,52	36,693
426,72	40,524
426,93	39,439
427,13	40,179
427,33	39,440
427,54	39,789
427,74	45,497
427,95	43,080
428,15	35,567
428,36	42,137
428,56	41,253
428,77	39,482
428,97	38,681
429,18	39,464
429,38	39,255
429,58	41,775
429,79	43,554
429,99	42,571
430,20	33,721
430,40	45,272
430,61	40,464
430,81	38,468
431,01	41,959
431,22	45,224
431,42	42,201
431,63	37,315
431,83	38,050
432,04	41,822
432,24	45,175
432,44	39,575
432,65	38,417
432,85	33,023
433,06	42,584
433,26	39,005
433,47	35,367
433,67	43,257
433,87	38,654
434,08	39,822
434,28	39,160
434,49	41,510
434,69	41,203
434,89	36,251
435,10	39,285
435,30	38,370
435,51	38,245
435,71	39,517
435,91	39,727
436,12	36,784
436,32	40,057
436,53	37,775
436,73	38,310
436,93	42,553
437,14	39,264
437,34	43,432
437,55	37,981
437,75	44,988
437,95	41,788
438,16	41,687
438,36	40,148
438,57	41,493
438,77	40,662
438,97	41,415
439,18	44,275
439,38	39,163
439,58	38,406
439,79	43,390
439,99	38,878
440,20	45,975
440,40	44,001
440,60	46,043
440,81	44,086
441,01	39,674
441,21	42,047
441,42	44,405
441,62	45,469
441,83	41,174
442,03	41,998
442,23	41,802
442,44	39,301
442,64	40,586
442,84	39,114
443,05	46,834
443,25	39,547
443,45	39,829
443,66	41,899
443,86	39,898
444,06	39,070
444,27	41,829
444,47	42,837
444,67	41,912
444,88	44,136
445,08	43,951
445,28	43,428
445,49	42,638
445,69	40,474
445,90	43,916
446,10	41,994
446,30	43,611
446,51	43,599
446,71	44,277
446,91	49,093
447,12	48,363
447,32	40,972
447,52	42,323
447,72	42,423
447,93	42,672
448,13	40,723
448,33	49,486
448,54	46,539
448,74	40,833
448,94	42,162
449,15	43,461
449,35	46,819
449,55	42,852
449,76	44,716
449,96	46,164
450,16	44,424
450,37	42,439
450,57	43,250
450,77	42,335
450,98	47,755
451,18	48,105
451,38	44,936
451,58	48,403
451,79	47,273
451,99	46,822
452,19	44,568
452,40	47,474
452,60	40,795
452,80	42,036
453,00	48,918
453,21	42,716
453,41	44,354
453,61	45,844
453,82	42,158
454,02	42,407
454,22	46,461
454,42	45,151
454,63	43,372
454,83	42,050
455,03	45,123
455,24	45,908
455,44	42,154
455,64	45,973
455,84	45,592
456,05	45,665
456,25	46,228
456,45	48,063
456,65	46,307
456,86	47,859
457,06	43,236
457,26	53,281
457,47	48,694
457,67	45,376
457,87	43,956
458,07	45,827
458,28	47,637
458,48	45,211
458,68	40,668
458,88	44,409
459,09	43,895
459,29	45,735
459,49	46,298
459,69	43,812
459,90	46,254
460,10	47,423
460,30	48,493
460,50	43,980
460,71	45,777
460,91	43,406
461,11	45,417
461,31	41,975
461,52	51,385
461,72	48,468
461,92	44,495
462,12	50,962
462,32	44,331
462,53	42,765
462,73	46,230
462,93	47,365
463,13	47,077
463,34	42,809
463,54	43,247
463,74	45,422
463,94	43,250
464,14	49,344
464,35	40,979
464,55	52,969
464,75	49,074
464,95	43,534
465,16	41,160
465,36	47,243
465,56	43,764
465,76	45,500
465,96	43,748
466,17	43,382
466,37	46,397
466,57	46,731
466,77	41,142
466,97	46,136
467,18	43,293
467,38	43,860
467,58	44,760
467,78	51,852
467,98	43,892
468,19	44,212
468,39	45,194
468,59	49,757
468,79	48,309
468,99	43,365
469,19	43,831
469,40	44,376
469,60	42,863
469,80	42,285
470,00	46,599
470,20	46,318
470,41	42,063
470,61	46,673
470,81	47,925
471,01	42,433
471,21	48,203
471,41	43,001
471,62	42,468
471,82	41,031
472,02	42,343
472,22	43,623
472,42	43,641
472,62	44,406
472,83	43,863
473,03	47,605
473,23	41,963
473,43	45,999
473,63	43,120
473,83	46,488
474,03	41,730
474,24	49,583
474,44	41,614
474,64	43,877
474,84	43,482
475,04	46,336
475,24	44,335
475,45	43,592
475,65	42,568
475,85	45,149
476,05	41,158
476,25	44,584
476,45	43,879
476,65	48,593
476,85	42,382
477,06	44,584
477,26	44,010
477,46	44,363
477,66	42,991
477,86	43,928
478,06	41,793
478,26	45,885
478,46	45,589
478,67	45,986
478,87	45,542
479,07	43,601
479,27	45,185
479,47	40,170
479,67	36,550
479,87	41,492
480,07	43,970
480,28	43,947
480,48	37,374
480,68	43,379
480,88	47,429
481,08	43,884
481,28	45,818
481,48	45,304
481,68	40,124
481,88	44,431
482,08	42,724
482,29	50,622
482,49	42,773
482,69	43,639
482,89	43,176
483,09	47,544
483,29	41,251
483,49	41,038
483,69	46,283
483,89	40,957
484,09	41,763
484,29	39,239
484,50	43,017
484,70	44,726
484,90	42,331
485,10	40,096
485,30	42,277
485,50	44,025
485,70	42,995
485,90	43,217
486,10	39,945
486,30	40,820
486,50	42,860
486,70	40,911
486,90	41,510
487,10	45,498
487,30	41,117
487,51	40,756
487,71	38,704
487,91	41,871
488,11	43,047
488,31	39,800
488,51	44,400
488,71	41,670
488,91	43,275
489,11	38,961
489,31	41,383
489,51	41,296
489,71	42,340
489,91	40,907
490,11	42,415
490,31	41,697
490,51	44,164
490,71	39,411
490,91	40,551
491,11	44,320
491,31	44,194
491,51	39,999
491,72	40,863
491,92	42,208
492,12	45,462
492,32	43,874
492,52	46,038
492,72	42,758
492,92	41,609
493,12	43,000
493,32	39,981
493,52	41,415
493,72	43,200
493,92	44,590
494,12	43,216
494,32	42,826
494,52	40,917
494,72	42,157
494,92	40,819
495,12	42,578
495,32	44,973
495,52	43,212
495,72	41,962
495,92	43,063
496,12	42,340
496,32	38,428
496,52	42,267
496,72	42,645
496,92	43,342
497,12	42,969
497,32	42,610
497,52	43,102
497,72	43,291
497,92	43,473
498,12	42,742
498,32	41,142
498,52	44,573
498,72	40,627
498,92	42,367
499,12	46,148
499,32	42,052
499,52	44,756
499,72	43,331
499,92	43,297
500,12	42,890
500,32	45,293
500,52	40,253
500,72	48,363
500,91	47,477
501,11	42,444
501,31	40,916
501,51	44,196
501,71	44,161
501,91	43,957
502,11	41,951
502,31	42,822
502,51	44,493
502,71	43,475
502,91	41,147
503,11	41,052
503,31	39,944
503,51	40,396
503,71	40,423
503,91	44,567
504,11	44,128
504,31	43,083
504,51	43,403
504,71	42,883
504,91	45,994
505,10	45,413
505,30	42,992
505,50	43,842
505,70	42,906
505,90	42,416
506,10	41,623
506,30	41,439
506,50	45,585
506,70	44,153
506,90	43,415
507,10	42,049
507,30	43,912
507,50	43,650
507,70	42,650
507,89	43,531
508,09	41,214
508,29	43,069
508,49	43,854
508,69	40,095
508,89	43,256
509,09	41,151
509,29	45,115
509,49	43,489
509,69	43,206
509,89	43,955
510,09	40,671
510,28	42,636
510,48	40,094
510,68	42,283
510,88	40,131
511,08	39,557
511,28	42,449
511,48	42,087
511,68	41,405
511,88	40,277
512,07	41,266
512,27	43,448
512,47	43,326
512,67	40,700
512,87	38,224
513,07	42,854
513,27	37,671
513,47	39,211
513,67	40,186
513,86	40,724
514,06	41,704
514,26	41,048
514,46	44,429
514,66	39,281
514,86	41,387
515,06	42,810
515,26	43,272
515,45	42,570
515,65	39,954
515,85	41,162
516,05	41,400
516,25	41,652
516,45	42,496
516,65	39,209
516,84	40,774
517,04	40,843
517,24	40,116
517,44	40,343
517,64	42,592
517,84	41,413
518,04	41,265
518,23	44,076
518,43	43,121
518,63	37,715
518,83	39,100
519,03	40,342
519,23	41,871
519,42	40,894
519,62	37,970
519,82	36,081
520,02	39,626
520,22	39,579
520,42	37,885
520,61	41,037
520,81	40,959
521,01	41,077
521,21	36,671
521,41	41,508
521,61	42,442
521,80	37,992
522,00	38,672
522,20	41,292
522,40	42,130
522,60	43,689
522,79	38,736
522,99	41,887
523,19	37,399
523,39	38,522
523,59	41,134
523,78	38,368
523,98	38,329
524,18	41,238
524,38	39,332
524,58	40,749
524,77	39,642
524,97	40,712
525,17	38,485
525,37	39,557
525,57	41,193
525,76	40,710
525,96	39,627
526,16	37,971
526,36	37,915
526,56	38,455
526,75	38,226
526,95	39,895
527,15	39,204
527,35	39,081
527,55	39,671
527,74	41,830
527,94	37,848
528,14	36,288
528,34	36,275
528,53	35,383
528,73	38,550
528,93	40,573
529,13	39,675
529,32	39,104
529,52	40,184
529,72	37,695
529,92	37,471
530,12	39,235
530,31	36,238
530,51	37,657
530,71	38,762
530,91	39,237
531,10	34,856
531,30	38,961
531,50	36,517
531,70	39,221
531,89	36,830
532,09	35,878
532,29	36,962
532,49	39,002
532,68	36,882
532,88	36,777
533,08	33,347
533,28	38,739
533,47	38,311
533,67	37,331
533,87	35,645
534,06	39,854
534,26	37,061
534,46	37,170
534,66	36,159
534,85	37,568
535,05	32,703
535,25	36,238
535,45	34,463
535,64	35,583
535,84	35,940
536,04	34,072
536,23	35,355
536,43	37,670
536,63	35,606
536,83	36,990
537,02	36,253
537,22	34,824
537,42	35,730
537,61	35,208
537,81	36,372
538,01	35,253
538,20	33,575
538,40	35,688
538,60	33,820
538,80	34,510
538,99	34,159
539,19	34,569
539,39	32,478
539,58	34,074
539,78	31,761
539,98	32,238
540,17	29,669
540,37	34,757
540,57	29,761
540,76	30,380
540,96	30,252
541,16	31,576
541,36	27,040
541,55	27,567
541,75	26,087
541,95	28,749
542,14	27,908
542,34	25,657
542,54	26,589
542,73	27,005
542,93	30,230
543,13	27,351
543,32	27,165
543,52	26,662
543,72	26,416
543,91	26,571
544,11	26,610
544,31	27,996
544,50	25,644
544,70	27,012
544,89	27,841
545,09	26,942
545,29	28,058
545,48	28,854
545,68	28,121
545,88	26,550
546,07	26,484
546,27	27,547
546,47	30,055
546,66	29,824
546,86	31,496
547,06	29,015
547,25	28,368
547,45	31,995
547,64	29,970
547,84	32,036
548,04	28,757
548,23	33,086
548,43	33,613
548,63	33,706
548,82	34,608
549,02	30,296
549,21	31,181
549,41	32,608
549,61	33,397
549,80	31,386
550,00	34,295
550,20	30,792
550,39	34,384
550,59	30,489
550,78	35,174
550,98	30,317
551,18	34,468
551,37	33,179
551,57	30,815
551,76	33,877
551,96	34,471
552,16	32,813
552,35	32,432
552,55	31,829
552,74	31,916
552,94	35,025
553,14	31,966
553,33	35,369
553,53	32,820
553,72	32,451
553,92	35,072
554,12	32,390
554,31	33,386
554,51	34,544
554,70	31,851
554,90	34,446
555,09	34,143
555,29	35,279
555,49	33,942
555,68	35,315
555,88	32,494
556,07	34,341
556,27	33,787
556,46	32,418
556,66	33,438
556,86	36,238
557,05	34,429
557,25	32,988
557,44	37,136
557,64	31,336
557,83	34,016
558,03	33,283
558,22	30,762
558,42	34,545
558,62	33,310
558,81	34,165
559,01	32,577
559,20	33,284
559,40	34,833
559,59	32,575
559,79	33,042
559,98	35,234
560,18	33,200
560,37	33,447
560,57	32,670
560,76	30,805
560,96	34,220
561,16	33,972
561,35	34,679
561,55	37,116
561,74	33,560
561,94	33,884
562,13	34,088
562,33	35,664
562,52	35,332
562,72	33,259
562,91	32,236
563,11	34,449
563,30	33,759
563,50	30,991
563,69	32,226
563,89	32,483
564,08	36,302
564,28	32,205
564,47	34,106
564,67	34,361
564,86	32,995
565,06	33,517
565,25	34,220
565,45	32,818
565,64	36,215
565,84	33,433
566,03	34,407
566,23	33,251
566,42	34,053
566,62	33,682
566,81	35,654
567,01	35,191
567,20	34,726
567,40	32,267
567,59	31,586
567,79	34,676
567,98	35,365
568,18	33,331
568,37	35,231
568,57	33,177
568,76	34,133
568,96	34,199
569,15	33,591
569,35	35,048
569,54	36,347
569,73	35,466
569,93	35,973
570,12	33,337
570,32	35,935
570,51	33,830
570,71	35,482
570,90	35,352
571,10	33,358
571,29	34,779
571,49	33,517
571,68	35,887
571,87	33,398
572,07	35,453
572,26	33,509
572,46	36,287
572,65	35,295
572,85	32,699
573,04	34,500
573,24	34,367
573,43	36,265
573,62	36,348
573,82	34,790
574,01	36,278
574,21	35,705
574,40	33,137
574,60	33,986
574,79	36,263
574,98	34,424
575,18	36,458
575,37	33,487
575,57	35,792
575,76	34,357
575,96	35,178
576,15	35,709
576,34	34,682
576,54	36,335
576,73	35,828
576,93	34,354
577,12	35,297
577,31	35,923
577,51	36,168
577,70	34,250
577,90	35,505
578,09	33,455
578,28	34,298
578,48	35,016
578,67	36,831
578,87	37,281
579,06	33,827
579,25	36,504
579,45	34,293
579,64	33,598
579,84	36,757
580,03	35,820
580,22	34,993
580,42	34,629
580,61	35,326
580,81	36,868
581,00	35,656
581,19	36,129
581,39	35,296
581,58	35,975
581,77	35,343
581,97	37,402
582,16	35,818
582,35	35,528
582,55	34,428
582,74	36,568
582,94	35,600
583,13	36,217
583,32	35,671
583,52	36,769
583,71	36,056
583,90	36,166
584,10	35,492
584,29	36,958
584,48	35,026
584,68	36,312
584,87	39,182
585,06	37,001
585,26	36,321
585,45	36,255
585,65	38,031
585,84	36,838
586,03	37,049
586,23	35,901
586,42	36,416
586,61	38,185
586,81	37,012
587,00	38,137
587,19	35,690
587,39	39,292
587,58	37,768
587,77	38,420
587,97	36,556
588,16	37,756
588,35	38,578
588,54	37,649
588,74	37,675
588,93	39,363
589,12	39,462
589,32	37,789
589,51	36,961
589,70	37,028
589,90	37,225
590,09	39,469
590,28	41,798
590,48	38,011
590,67	38,513
590,86	38,037
591,06	39,277
591,25	40,843
591,44	39,253
591,63	40,751
591,83	40,158
592,02	39,379
592,21	38,899
592,41	37,818
592,60	41,156
592,79	38,619
592,98	41,344
593,18	40,163
593,37	41,568
593,56	41,382
593,76	40,739
593,95	41,193
594,14	41,681
594,33	42,899
594,53	41,365
594,72	40,627
594,91	44,011
595,10	42,640
595,30	42,041
595,49	41,001
595,68	41,592
595,88	41,962
596,07	42,700
596,26	43,002
596,45	42,458
596,65	38,843
596,84	41,273
597,03	41,963
597,22	42,692
597,42	44,575
597,61	43,125
597,80	41,796
597,99	42,623
598,19	42,912
598,38	43,559
598,57	43,646
598,76	43,507
598,95	44,528
599,15	43,374
599,34	43,515
599,53	44,628
599,72	43,738
599,92	44,273
600,11	42,398
600,30	42,386
600,49	45,064
600,69	43,119
600,88	43,314
601,07	43,289
601,26	42,958
601,45	45,157
601,65	44,405
601,84	42,719
602,03	44,128
602,22	45,324
602,42	43,850
602,61	45,354
602,80	44,046
602,99	45,553
603,18	42,851
603,38	44,951
603,57	43,828
603,76	44,387
603,95	45,307
604,14	46,243
604,34	45,846
604,53	45,875
604,72	44,673
604,91	45,482
605,10	45,776
605,29	46,606
605,49	44,900
605,68	44,795
605,87	45,254
606,06	44,165
606,25	44,698
606,45	45,092
606,64	46,229
606,83	44,053
607,02	43,179
607,21	45,810
607,40	45,029
607,60	43,882
607,79	43,612
607,98	42,027
608,17	43,120
608,36	42,563
608,55	43,497
608,75	42,491
608,94	43,620
609,13	40,663
609,32	39,167
609,51	40,114
609,70	40,383
609,89	41,347
610,09	39,772
610,28	42,160
610,47	38,950
610,66	39,786
610,85	37,190
611,04	40,216
611,23	40,677
611,43	39,519
611,62	39,182
611,81	39,010
612,00	40,212
612,19	39,167
612,38	40,337
612,57	42,446
612,77	41,433
612,96	41,719
613,15	42,078
613,34	43,145
613,53	42,104
613,72	43,698
613,91	44,454
614,10	42,159
614,29	45,005
614,49	42,838
614,68	44,072
614,87	44,521
615,06	47,541
615,25	42,657
615,44	44,119
615,63	45,179
615,82	44,145
616,01	45,438
616,21	45,230
616,40	45,368
616,59	47,748
616,78	45,224
616,97	45,529
617,16	46,993
617,35	46,883
617,54	45,305
617,73	48,102
617,92	44,836
618,11	47,712
618,31	42,161
618,50	46,684
618,69	45,887
618,88	44,488
619,07	44,988
619,26	45,270
619,45	46,677
619,64	45,577
619,83	45,109
620,02	43,587
620,21	46,987
620,40	46,782
620,59	46,515
620,78	44,058
620,97	47,029
621,17	47,684
621,36	44,896
621,55	45,938
621,74	46,206
621,93	45,347
622,12	46,971
622,31	45,728
622,50	45,065
622,69	46,379
622,88	47,336
623,07	49,924
623,26	47,387
623,45	46,759
623,64	45,826
623,83	46,669
624,02	48,286
624,21	49,099
624,40	45,852
624,59	46,276
624,78	47,874
624,97	48,893
625,16	45,167
625,35	45,621
625,54	46,213
625,73	48,112
625,92	47,781
626,12	47,943
626,31	48,670
626,50	48,431
626,69	48,555
626,88	46,419
627,07	47,603
627,26	46,822
627,45	45,867
627,64	45,692
627,83	47,683
628,02	45,639
628,21	45,688
628,40	45,563
628,59	45,952
628,78	46,246
628,97	46,000
629,16	45,867
629,35	45,579
629,54	48,760
629,73	47,382
629,92	45,918
630,10	47,200
630,29	46,967
630,48	46,233
630,67	45,255
630,86	50,337
631,05	45,996
631,24	48,455
631,43	47,150
631,62	48,370
631,81	46,394
632,00	48,282
632,19	45,347
632,38	46,023
632,57	46,484
632,76	48,448
632,95	50,060
633,14	49,899
633,33	49,423
633,52	47,987
633,71	49,497
633,90	47,000
634,09	47,380
634,28	48,937
634,47	47,852
634,66	47,932
634,85	48,488
635,04	49,207
635,22	50,327
635,41	47,993
635,60	51,406
635,79	48,502
635,98	49,528
636,17	48,068
636,36	48,424
636,55	50,059
636,74	46,465
636,93	47,642
637,12	51,123
637,31	46,505
637,50	47,517
637,69	48,741
637,87	49,114
638,06	47,924
638,25	47,632
638,44	50,095
638,63	45,278
638,82	47,509
639,01	48,368
639,20	47,925
639,39	50,533
639,58	49,465
639,77	48,473
639,95	48,109
640,14	48,703
640,33	46,816
640,52	46,919
640,71	51,205
640,90	50,066
641,09	50,864
641,28	47,418
641,47	48,937
641,66	47,746
641,84	47,492
642,03	48,745
642,22	48,379
642,41	48,160
642,60	49,308
642,79	48,986
642,98	48,415
643,17	47,440
643,35	46,888
643,54	47,109
643,73	48,638
643,92	49,005
644,11	48,521
644,30	47,647
644,49	50,023
644,67	47,137
644,86	47,845
645,05	50,116
645,24	47,107
645,43	46,612
645,62	48,931
645,81	49,821
645,99	48,059
646,18	49,560
646,37	48,227
646,56	48,043
646,75	50,993
646,94	48,644
647,13	48,063
647,31	46,489
647,50	48,226
647,69	50,283
647,88	48,152
648,07	49,600
648,26	51,325
648,44	47,861
648,63	46,816
648,82	48,599
649,01	50,211
649,20	46,274
649,38	48,642
649,57	49,645
649,76	45,973
649,95	48,861
650,14	46,614
650,33	47,628
650,51	48,720
650,70	49,537
650,89	48,316
651,08	48,005
651,27	48,006
651,45	47,488
651,64	47,603
651,83	49,351
652,02	47,554
652,21	49,106
652,39	47,406
652,58	48,925
652,77	47,735
652,96	49,249
653,15	47,910
653,33	48,078
653,52	48,991
653,71	49,744
653,90	50,187
654,09	49,549
654,27	49,348
654,46	49,675
654,65	50,041
654,84	50,633
655,02	50,739
655,21	51,122
655,40	50,267
655,59	48,874
655,77	48,509
655,96	50,128
656,15	49,842
656,34	50,034
656,53	48,853
656,71	49,518
656,90	49,810
657,09	50,095
657,28	48,983
657,46	47,879
657,65	48,721
657,84	48,036
658,03	49,029
658,21	48,901
658,40	48,720
658,59	48,065
658,78	49,742
658,96	47,319
659,15	47,799
659,34	47,325
659,52	46,959
659,71	46,980
659,90	47,023
660,09	47,758
660,27	47,056
660,46	48,381
660,65	47,111
660,84	46,208
661,02	47,500
661,21	48,306
661,40	47,020
661,58	47,471
661,77	46,833
661,96	45,847
662,15	46,840
662,33	46,057
662,52	46,809
662,71	47,427
662,89	46,114
663,08	46,392
663,27	45,818
663,45	45,313
663,64	47,060
663,83	43,190
664,02	45,048
664,20	46,208
664,39	44,870
664,58	44,723
664,76	46,665
664,95	46,439
665,14	45,115
665,32	45,187
665,51	46,915
665,70	45,216
665,88	46,234
666,07	46,071
666,26	47,451
666,44	46,334
666,63	43,712
666,82	47,269
667,00	47,211
667,19	45,072
667,38	45,016
667,56	48,627
667,75	45,587
667,94	47,132
668,12	45,559
668,31	46,743
668,50	45,593
668,68	46,352
668,87	46,456
669,06	45,369
669,24	45,967
669,43	44,810
669,62	44,057
669,80	44,193
669,99	45,434
670,18	44,914
670,36	44,439
670,55	44,983
670,74	45,113
670,92	42,718
671,11	45,114
671,29	46,100
671,48	45,070
671,67	44,905
671,85	45,367
672,04	43,501
672,23	43,601
672,41	44,941
672,60	46,294
672,78	42,662
672,97	45,369
673,16	43,953
673,34	44,454
673,53	43,564
673,71	45,051
673,90	46,034
674,09	43,966
674,27	42,707
674,46	44,496
674,64	44,277
674,83	45,067
675,02	43,527
675,20	44,399
675,39	44,108
675,57	45,042
675,76	44,027
675,95	45,903
676,13	47,596
676,32	46,286
676,50	44,873
676,69	41,776
676,88	44,131
677,06	43,551
677,25	43,065
677,43	47,047
677,62	45,817
677,80	45,314
677,99	45,098
678,18	45,422
678,36	46,815
678,55	42,299
678,73	43,147
678,92	45,093
679,10	45,557
679,29	45,696
679,48	44,448
679,66	44,574
679,85	44,363
680,03	44,807
680,22	45,153
680,40	44,185
680,59	43,318
680,77	43,859
680,96	44,699
681,15	44,148
681,33	45,952
681,52	44,785
681,70	45,443
681,89	46,497
682,07	44,359
682,26	44,833
682,44	45,412
682,63	44,107
682,81	45,210
683,00	45,726
683,18	43,847
683,37	46,195
683,55	45,124
683,74	46,426
683,92	48,306
684,11	46,193
684,29	46,229
684,48	45,557
684,67	44,902
684,85	47,070
685,04	47,347
685,22	47,713
685,41	46,243
685,59	47,184
685,78	45,746
685,96	44,578
686,15	46,946
686,33	46,416
686,52	47,438
686,70	46,854
686,89	45,756
687,07	48,353
687,26	49,131
687,44	48,870
687,62	45,179
687,81	48,978
687,99	47,013
688,18	48,445
688,36	47,232
688,55	48,236
688,73	47,413
688,92	46,709
689,10	47,907
689,29	48,109
689,47	50,426
689,66	47,338
689,84	46,022
690,03	50,356
690,21	48,856
690,40	48,959
690,58	46,279
690,76	47,868
690,95	51,125
691,13	48,953
691,32	49,307
691,50	48,701
691,69	48,216
691,87	47,975
692,06	47,908
692,24	49,066
692,43	50,021
692,61	48,017
692,79	48,094
692,98	47,260
693,16	49,231
693,35	48,364
693,53	50,136
693,72	49,117
693,90	49,841
694,08	47,496
694,27	47,792
694,45	50,310
694,64	50,054
694,82	49,532
695,01	47,916
695,19	50,218
695,37	49,079
695,56	48,720
695,74	49,318
695,93	49,374
696,11	47,445
696,29	51,242
696,48	50,924
696,66	51,933
696,85	50,183
697,03	48,324
697,21	51,921
697,40	49,108
697,58	49,186
697,77	49,689
697,95	50,857
698,13	50,793
698,32	48,385
698,50	49,234
698,69	49,219
698,87	49,370
699,05	48,891
699,24	48,575
699,42	49,362
699,60	47,355
699,79	48,813
699,97	49,628
700,16	47,640
700,34	50,603
700,52	49,605
700,71	47,262
700,89	49,615
701,07	51,449
701,26	50,217
701,44	48,578
701,63	48,451
701,81	50,655
701,99	50,649
702,18	47,438
702,36	48,650
702,54	49,396
702,73	48,514
702,91	49,000
703,09	49,147
703,28	50,908
703,46	49,213
703,64	48,807
703,83	49,286
704,01	49,809
704,19	49,530
704,38	49,248
704,56	48,034
704,74	50,987
704,93	50,567
705,11	51,164
705,29	50,588
705,48	50,335
705,66	49,254
705,84	49,052
706,03	47,493
706,21	47,937
706,39	49,960
706,58	49,033
706,76	49,818
706,94	50,890
707,12	50,223
707,31	49,709
707,49	48,772
707,67	50,426
707,86	51,451
708,04	49,232
708,22	50,015
708,41	48,878
708,59	50,179
708,77	48,771
708,95	50,347
709,14	54,242
709,32	49,646
709,50	49,861
709,69	47,901
709,87	48,919
710,05	49,464
710,23	49,791
710,42	48,173
710,60	48,677
710,78	48,958
710,97	48,256
711,15	49,589
711,33	52,454
711,51	47,836
711,70	47,518
711,88	48,257
712,06	50,596
712,24	50,302
712,43	49,787
712,61	49,254
712,79	50,145
712,97	48,677
713,16	51,071
713,34	49,638
713,52	50,438
713,70	50,297
713,89	49,497
714,07	48,530
714,25	49,701
714,43	49,760
714,62	48,682
714,80	48,646
714,98	47,856
715,16	49,028
715,35	49,317
715,53	48,800
715,71	48,706
715,89	50,565
716,07	49,687
716,26	52,245
716,44	50,530
716,62	52,617
716,80	50,952
716,99	49,223
717,17	50,767
717,35	50,129
717,53	47,789
717,71	49,167
717,90	50,384
718,08	49,044
718,26	49,918
718,44	50,329
718,62	51,205
718,81	49,932
718,99	48,814
719,17	50,745
719,35	49,412
719,53	49,190
719,72	48,571
719,90	49,087
720,08	49,087
720,26	51,617
720,44	48,685
720,62	47,221
720,81	50,017
720,99	51,279
721,17	49,735
721,35	50,009
721,53	52,103
721,72	51,892
721,90	50,378
722,08	50,323
722,26	50,624
722,44	49,906
722,62	52,111
722,81	49,139
722,99	49,120
723,17	49,086
723,35	50,648
723,53	50,776
723,71	51,621
723,89	51,666
724,08	48,526
724,26	50,498
724,44	50,513
724,62	50,938
724,80	49,441
724,98	49,117
725,16	50,778
725,35	48,260
725,53	47,867
725,71	48,645
725,89	50,123
726,07	51,510
726,25	51,032
726,43	50,138
726,61	49,274
726,80	52,856
726,98	49,501
727,16	49,961
727,34	51,125
727,52	49,867
727,70	48,178
727,88	50,958
728,06	48,574
728,25	49,169
728,43	50,501
728,61	50,417
728,79	49,667
728,97	48,948
729,15	48,973
729,33	51,029
729,51	49,317
729,69	50,197
729,87	47,947
730,06	49,076
730,24	50,317
730,42	53,527
730,60	49,969
730,78	50,176
730,96	50,136
731,14	49,588
731,32	48,127
731,50	48,028
731,68	51,432
731,86	50,706
732,04	50,335
732,22	49,567
732,41	51,915
732,59	48,740
732,77	49,202
732,95	51,553
733,13	50,132
733,31	50,595
733,49	50,719
733,67	51,517
733,85	51,002
734,03	49,880
734,21	50,479
734,39	48,864
734,57	51,585
734,75	48,771
734,93	50,127
735,11	50,247
735,29	48,114
735,47	53,097
735,65	48,687
735,84	49,281
736,02	51,125
736,20	52,912
736,38	49,522
736,56	50,815
736,74	49,478
736,92	49,498
737,10	51,396
737,28	51,776
737,46	50,409
737,64	50,238
737,82	50,330
738,00	51,873
738,18	50,899
738,36	49,243
738,54	49,218
738,72	48,217
738,90	48,619
739,08	53,711
739,26	48,574
739,44	49,737
739,62	49,360
739,80	50,768
739,98	52,434
740,16	49,295
740,34	50,895
740,52	52,127
740,70	50,173
740,88	47,172
741,06	48,882
741,24	49,670
741,42	49,538
741,60	48,784
741,78	50,019
741,96	48,596
742,14	49,126
742,32	46,752
742,50	51,165
742,68	48,902
742,86	50,371
743,04	48,966
743,21	51,416
743,39	51,784
743,57	49,762
743,75	49,653
743,93	46,107
744,11	47,504
744,29	48,301
744,47	48,394
744,65	47,458
744,83	47,203
745,01	48,280
745,19	51,440
745,37	50,847
745,55	51,105
745,73	50,544
745,91	48,844
746,09	48,418
746,27	50,793
746,45	46,784
746,62	48,843
746,80	50,542
746,98	48,112
747,16	49,712
747,34	49,502
747,52	49,295
747,70	49,807
747,88	50,076
748,06	51,056
748,24	50,816
748,42	51,231
748,60	48,769
748,78	48,792
748,95	49,081
749,13	52,501
749,31	50,277
749,49	48,620
749,67	51,249
749,85	50,886
750,03	48,075
750,21	48,927
750,39	49,605
750,57	50,736
750,74	50,050
750,92	48,245
751,10	51,503
751,28	50,815
751,46	49,796
751,64	50,116
751,82	51,178
752,00	51,103
752,17	49,740
752,35	47,683
752,53	49,186
752,71	48,565
752,89	50,267
753,07	49,929
753,25	50,852
753,43	50,026
753,60	50,450
753,78	49,464
753,96	51,404
754,14	49,492
754,32	50,569
754,50	50,663
754,68	48,699
754,85	50,894
755,03	48,538
755,21	51,216
755,39	52,812
755,57	50,411
755,75	49,660
755,92	48,122
756,10	50,033
756,28	49,416
756,46	48,821
756,64	51,327
756,82	51,440
756,99	49,477
757,17	49,759
757,35	49,564
757,53	52,767
757,71	51,430
757,89	50,072
758,06	49,141
758,24	49,614
758,42	50,592
758,60	50,975
758,78	49,842
758,95	50,113
759,13	50,398
759,31	49,144
759,49	49,759
759,67	48,547
759,84	49,937
760,02	49,280
760,20	48,899
760,38	49,750
760,56	49,887
760,73	50,168
760,91	50,109
761,09	51,185
761,27	49,446
761,45	50,773
761,62	49,719
761,80	48,747
761,98	52,413
762,16	51,792
762,33	50,099
762,51	52,506
762,69	48,915
762,87	47,581
763,05	49,460
763,22	48,604
763,40	50,448
763,58	47,100
763,76	50,338
763,93	51,437
764,11	50,300
764,29	47,604
764,47	51,644
764,64	51,164
764,82	49,694
765,00	49,457
765,18	46,596
765,35	48,549
765,53	49,463
765,71	49,049
765,89	48,082
766,06	47,326
766,24	48,198
766,42	51,056
766,60	49,016
766,77	47,686
766,95	48,293
767,13	49,522
767,30	49,135
767,48	50,869
767,66	47,860
767,84	46,507
768,01	49,673
768,19	51,315
768,37	49,617
768,54	48,747
768,72	50,495
768,90	48,601
769,08	49,669
769,25	48,596
769,43	46,580
769,61	48,030
769,78	47,161
769,96	48,550
770,14	50,576
770,31	50,046
770,49	52,516
770,67	51,303
770,85	49,456
771,02	50,947
771,20	49,425
771,38	50,866
771,55	48,465
771,73	49,789
771,91	48,142
772,08	52,840
772,26	49,909
772,44	49,215
772,61	49,653
772,79	48,115
772,97	50,844
773,14	46,483
773,32	50,678
773,50	48,120
773,67	50,311
773,85	50,891
774,03	52,199
774,20	47,177
774,38	48,652
774,56	49,236
774,73	49,152
774,91	49,606
775,09	51,505
775,26	48,915
775,44	50,360
775,61	50,276
775,79	48,931
775,97	49,427
776,14	48,357
776,32	46,240
776,50	50,542
776,67	48,902
776,85	47,204
777,03	49,392
777,20	48,811
777,38	48,405
777,55	49,553
777,73	49,374
777,91	47,098
778,08	49,514
778,26	49,411
778,43	50,578
778,61	46,712
778,79	48,774
778,96	46,288
779,14	49,928
779,32	49,756
779,49	50,941
779,67	50,579
779,84	49,636
780,02	50,002
780,20	46,407
780,37	51,098
780,55	44,452
780,72	53,630
780,90	49,757
781,07	48,469
781,25	50,697
781,43	51,735
781,60	49,766
781,78	47,982
781,95	49,032
782,13	48,358
782,30	51,225
782,48	50,460
782,66	50,619
782,83	47,947
783,01	51,959
783,18	49,905
783,36	52,854
783,53	50,034
783,71	50,098
783,89	49,576
784,06	52,754
784,24	49,194
784,41	52,834
784,59	49,735
784,76	50,993
784,94	51,019
785,11	50,561
785,29	50,530
785,46	47,237
785,64	52,419
785,82	49,491
785,99	51,466
786,17	49,957
786,34	48,374
786,52	50,306
786,69	51,114
786,87	49,478
787,04	50,724
787,22	49,029
787,39	50,364
787,57	51,554
787,74	50,995
787,92	52,311
788,09	49,492
788,27	49,179
788,44	46,900
788,62	50,685
788,79	51,721
788,97	50,123
789,14	49,379
789,32	48,400
789,49	49,561
789,67	49,921
789,84	51,711
790,02	53,046
790,19	49,508
790,37	52,034
790,54	54,097
790,72	54,583
790,89	52,913
791,07	51,216
791,24	49,270
791,42	50,262
791,59	51,640
791,77	48,597
791,94	48,794
792,12	49,852
792,29	53,715
792,47	51,953
792,64	52,606
792,81	53,836
792,99	50,562
793,16	49,646
793,34	50,547
793,51	50,509
793,69	53,112
793,86	48,756
794,04	50,295
794,21	53,486
794,39	47,612
794,56	47,927
794,73	50,672
794,91	55,361
795,08	50,343
795,26	53,053
795,43	51,504
795,61	52,724
795,78	54,845
795,95	51,310
796,13	52,291
796,30	51,314
796,48	50,194
796,65	51,176
796,83	52,183
797,00	51,608
797,17	47,248
797,35	52,870
797,52	51,570
797,70	55,094
797,87	48,896
798,04	46,828
798,22	48,462
798,39	54,581
798,57	50,896
798,74	53,318
798,91	50,680
799,09	49,108
799,26	52,023
799,44	48,237
799,61	49,598
799,78	52,864
799,96	49,597
800,13	48,302
800,31	51,039
800,48	54,399
800,65	49,292
800,83	50,389
801,00	51,131
801,17	49,785
801,35	49,896
801,52	50,196
801,70	51,687
801,87	49,044
802,04	51,694
802,22	49,369
802,39	50,077
802,56	54,234
802,74	50,934
802,91	48,317
803,08	48,688
803,26	48,979
803,43	51,701
803,61	51,636
803,78	48,777
803,95	53,482
804,13	52,602
804,30	49,847
804,47	52,675
804,65	50,003
804,82	50,585
804,99	52,798
805,17	51,025
805,34	51,341
805,51	54,491
805,69	50,232
805,86	51,093
806,03	54,084
806,21	54,892
806,38	51,523
806,55	54,491
806,72	53,266
806,90	51,034
807,07	55,581
807,24	50,514
807,42	47,882
807,59	51,301
807,76	46,465
807,94	51,779
808,11	50,100
808,28	56,925
808,45	49,661
808,63	52,261
808,80	55,753
808,97	50,823
809,15	49,029
809,32	53,291
809,49	44,798
809,67	49,107
809,84	52,334
810,01	53,335
810,18	54,174
810,36	55,702
810,53	54,235
810,70	51,711
810,87	49,915
811,05	52,086
811,22	54,857
811,39	50,516
811,57	56,346
811,74	50,112
811,91	53,088
812,08	52,402
812,26	55,394
812,43	52,461
812,60	51,558
812,77	48,742
812,95	54,722
813,12	51,720
813,29	49,347
813,46	53,320
813,64	53,590
813,81	51,692
813,98	49,565
814,15	53,812
814,32	55,540
814,50	50,796
814,67	51,831
814,84	53,433
815,01	53,971
815,19	49,663
815,36	50,331
815,53	54,943
815,70	50,142
815,87	54,350
816,05	46,691
816,22	55,222
816,39	55,343
816,56	55,154
816,74	52,031
816,91	51,798
817,08	56,389
817,25	56,136
817,42	53,167
817,60	49,921
817,77	50,177
817,94	54,886
818,11	53,646
818,28	53,547
818,45	52,371
818,63	53,356
818,80	53,786
818,97	52,586
819,14	57,998
819,31	55,000
819,49	54,069
819,66	48,243
819,83	54,543
820,00	57,045
820,17	56,000
820,34	54,790
820,52	54,036
820,69	50,619
820,86	52,318
821,03	48,568
821,20	57,939
821,37	51,804
821,55	46,247
821,72	50,469
821,89	58,634
822,06	53,991
822,23	48,982
822,40	48,416
822,57	54,611
822,75	58,132
822,92	49,863
823,09	56,188
823,26	54,074
823,43	54,838
823,60	49,185
823,77	53,272
823,94	51,090
824,12	63,704
824,29	51,068
824,46	48,486
824,63	58,976
824,80	54,899
824,97	58,903
825,14	53,647
825,31	57,571
825,49	55,616
825,66	53,140
825,83	52,984
826,00	53,990
826,17	61,469
826,34	54,777
826,51	51,581
826,68	52,979
826,85	53,909
827,02	54,575
827,20	50,639
827,37	52,840
827,54	55,262
827,71	58,519
827,88	52,042
828,05	56,391
828,22	54,041
828,39	56,607
828,56	56,083
828,73	55,557
828,90	51,454
829,07	47,879
829,25	56,580
829,42	57,350
829,59	65,234
829,76	53,024
829,93	51,695
830,10	54,244
830,27	52,890
830,44	52,817
830,61	53,293
830,78	37,979
830,95	51,767
831,12	50,777
831,29	48,660
831,46	57,928
831,63	50,471
831,80	54,558
831,97	54,474
832,14	60,780
832,31	62,692
832,48	53,199
832,65	55,417
832,83	52,984
833,00	56,629
833,17	49,691
833,34	51,653
833,51	51,506
833,68	61,205
833,85	60,754
834,02	52,769
834,19	52,799
834,36	56,728
834,53	42,857
834,70	49,010
834,87	60,323
835,04	51,471
835,21	55,571
835,38	44,355
835,55	52,989
835,72	68,380
835,89	55,524
836,06	55,865
836,23	62,876
836,40	53,464
836,57	48,416
836,74	57,724
836,91	58,725
837,08	57,614
837,25	58,403
837,42	44,892
837,59	53,669
837,76	52,136
837,93	53,267
838,09	44,303
838,26	59,343
838,43	61,845
838,60	52,903
838,77	53,804
838,94	61,319
839,11	52,309
839,28	55,020
839,45	52,705
839,62	56,764
839,79	57,833
839,96	57,973
840,13	54,491
840,30	45,591
840,47	54,373
840,64	54,868
840,81	59,767
840,98	53,040
841,15	67,846
841,32	54,314
841,48	60,554
841,65	61,206
841,82	49,086
841,99	58,422
842,16	57,383
842,33	63,087
842,50	51,235
842,67	51,047
842,84	54,374
843,01	52,828
843,18	52,784
843,35	58,485
843,52	53,804
843,68	63,387
843,85	49,697
844,02	53,777
844,19	61,247
844,36	59,051
844,53	67,198
844,70	63,874
844,87	63,538
845,04	59,696
845,21	48,857
845,37	61,382
845,54	53,199
845,71	50,100
845,88	72,251
846,05	52,090
846,22	49,477
846,39	58,522
846,56	65,535
846,72	38,794
846,89	57,301
847,06	72,129
847,23	62,658
847,40	49,742
847,57	46,144
847,74	58,573
847,90	65,734
848,07	54,743
848,24	54,048
848,41	52,597
848,58	63,581
848,75	65,709
848,92	53,784
849,08	55,883
849,25	49,870
849,42	53,710
849,59	57,760
849,76	60,881
849,93	59,020
850,09	65,773
850,26	48,065
850,43	57,239
850,60	53,100
850,77	53,030
850,94	62,312
851,10	59,644
851,27	48,815
851,44	61,816
851,61	44,983
851,78	66,627
851,95	54,120
852,11	54,739
852,28	52,753
852,45	55,663
852,62	61,247
852,79	63,469
852,95	48,801
853,12	67,658
853,29	48,968
853,46	63,204
853,63	58,525
853,79	64,665
853,96	46,158
854,13	66,922
854,30	57,699
854,46	75,304
854,63	63,584
854,80	59,999
854,97	55,138
855,14	59,956
855,30	58,508
855,47	53,932
855,64	62,044
855,81	61,403
855,97	70,474
856,14	68,088
856,31	56,799
856,48	57,759
856,65	78,915
856,81	60,662
856,98	44,922
857,15	53,606
857,32	64,150
857,48	59,216
857,65	61,257
857,82	45,397
857,99	58,953
858,15	65,792
858,32	62,152
858,49	51,860
858,65	65,640
858,82	60,443
858,99	52,219
859,16	66,524
859,32	58,113
859,49	57,850
859,66	48,786
859,83	55,504
859,99	73,674
860,16	59,624
860,33	54,564
860,49	47,003
860,66	66,345
860,83	50,541
861,00	61,042
861,16	71,396
861,33	66,172
861,50	52,775
861,66	66,217
861,83	74,745
862,00	65,161
862,16	58,362
862,33	63,292
862,50	76,675
862,67	58,410
862,83	46,587
863,00	68,071
863,17	82,490
863,33	61,641
863,50	32,007
863,67	52,204
863,83	66,440
864,00	72,493
864,17	50,252
864,33	45,606
864,50	67,640
864,67	57,588
864,83	46,147
865,00	49,320
865,17	46,561
865,33	73,450
865,50	59,337
865,67	62,017
865,83	74,690
866,00	91,220
866,17	74,705
866,33	62,294
866,50	80,888
866,66	70,881
866,83	51,831
867,00	72,290
867,16	77,286
867,33	67,977
867,50	32,092
867,66	54,115
867,83	88,740
868,00	66,715
868,16	58,478
868,33	50,015
868,49	63,445
868,66	70,670
868,83	59,655
868,99	63,497
869,16	72,125
869,32	73,980
869,49	56,919
869,66	51,761
869,82	73,621
869,99	84,927
870,15	50,381
870,32	87,334
870,49	85,274
870,65	87,826
870,82	67,676
870,98	67,162
871,15	88,079
871,32	63,333
871,48	24,943
871,65	61,260
871,81	82,241
871,98	29,492
872,15	50,363
872,31	45,792
872,48	108,761
872,64	72,076
872,81	42,791
872,97	59,547
873,14	68,099
873,31	70,081
873,47	65,424
873,64	86,453
873,80	98,048
873,97	112,434
874,13	46,910
874,30	64,794
874,46	118,067
874,63	34,604
874,80	68,675
874,96	26,540
875,13	74,441
875,29	37,690
875,46	97,419
875,62	35,761
875,79	86,006
875,95	57,733
876,12	72,693
876,28	48,145
876,45	80,839
876,61	63,202
876,78	60,292
876,94	70,899
877,11	82,386
877,27	65,154
877,44	131,997
877,60	61,226
877,77	77,759
877,94	96,318
878,10	37,000
878,27	88,602
878,43	77,903
878,60	63,927
878,76	48,551
878,93	49,852
879,09	150,358
879,26	83,193
879,42	91,520
879,58	17,469
879,75	120,023
879,91	117,629
880,08	17,405
880,24	40,890
880,41	64,803
880,57	51,229
880,74	55,187
880,90	106,531
881,07	41,596
881,23	73,962
881,40	56,450
881,56	107,563
881,73	126,927
881,89	52,869
882,06	57,903
882,22	136,026
882,38	150,313
882,55	104,997
882,71	74,104
882,88	32,659
883,04	150,197
883,21	191,116
883,37	63,144
883,54	72,841
883,70	168,174
883,86	93,833
884,03	58,637
884,19	59,271
884,36	73,100
884,52	148,854
884,69	85,749
884,85	58,690
885,01	103,917
885,18	84,950
885,34	84,624
885,51	16,219
885,67	39,700
>>>>> Data<<<<< Espectral Procesado Extremo
