Fichero De Datos De SpectraSuite
++++++++++++++++++++++++++++++++++++
Fecha: Wed Apr 22 10:43:28 CEST 2009
Usuario: evoflor
Presente Oscuro Del Espectro: Sí
La Referencia de Presente Del Espectro De: Sí
Muestreados de los componentes de Número de espectros: 1
Espectrómetros: USB4F02353
Tiempo de integración (usec): 500000 (USB4F02353)
Promedio de Espectros Hechos un: 5 (USB4F02353)
El Alisar Del Furgón: 0 (USB4F02353)
Párrafo de de Corregir del la del del de Eléctrica del obscuridad: Sí (USB4F02353)
Estrobo/Lámpara Permitido: No (USB4F02353)
Correct for Detector Non-linearity: No (USB4F02353)
Párrafo de de Corregir del la del del de Externa del luz: No (USB4F02353)
Procesado del espectro de Número de pixeles en: 3648
>>>>> Comienza Data<<<<< Espectral Procesado Del EL
177,79	261,204
178,00	261,204
178,22	261,204
178,44	568,462
178,66	101,512
178,88	212,476
179,09	70,766
179,31	277,861
179,53	419,412
179,75	364,669
179,96	360,948
180,18	34,554
180,40	503,089
180,62	354,562
180,83	-198,884
181,05	-1630,122
181,27	-27470,000
181,49	-40,152
181,70	-74,346
181,92	651,117
182,14	245,392
182,36	100,631
182,58	31,300
182,79	869,955
183,01	-54,621
183,23	132,893
183,45	-184,215
183,66	77,566
183,88	-145,471
184,10	-1792,182
184,32	7,847
184,53	121,633
184,75	-221,413
184,97	12,371
185,18	-83,778
185,40	-534,471
185,62	112,520
185,84	134,651
186,05	125,231
186,27	-48,298
186,49	1506,538
186,71	39,380
186,92	115,925
187,14	3,213
187,36	81,439
187,58	90,984
187,79	-63,632
188,01	137,048
188,23	-32,017
188,45	87,508
188,66	464,152
188,88	-286,727
189,10	-1444,700
189,31	108,242
189,53	82,974
189,75	234,250
189,97	417,192
190,18	48,369
190,40	500,412
190,62	-164,408
190,83	-74,455
191,05	192,480
191,27	-26,943
191,49	232,847
191,70	-292,163
191,92	-19,237
192,14	23,561
192,35	545,544
192,57	1350,571
192,79	-79,936
193,01	17,268
193,22	131,565
193,44	43,737
193,66	85,933
193,87	-12,484
194,09	12,220
194,31	112,391
194,53	437,552
194,74	23,984
194,96	2,903
195,18	132,903
195,39	-167,467
195,61	-110,248
195,83	-208,413
196,04	109,967
196,26	20,251
196,48	48,791
196,70	111,869
196,91	60,321
197,13	292,835
197,35	-18,938
197,56	388,762
197,78	661,716
198,00	-91,119
198,21	-233,641
198,43	-269,593
198,65	166,702
198,86	192,698
199,08	275,967
199,30	70,182
199,51	-180,358
199,73	180,414
199,95	391,015
200,16	361,808
200,38	261,910
200,60	145,749
200,81	97,366
201,03	177,364
201,25	-1246,700
201,46	211,190
201,68	47,945
201,90	706,136
202,11	-46,450
202,33	243,214
202,55	39,625
202,76	-61,293
202,98	23,589
203,20	10,721
203,41	-125,632
203,63	24,806
203,85	-156170,000
204,06	86,705
204,28	-94,386
204,50	82,995
204,71	287,049
204,93	190,960
205,15	69,187
205,36	-16,386
205,58	265,202
205,80	-169,893
206,01	82,912
206,23	66,877
206,45	126,433
206,66	58,213
206,88	-26,504
207,10	95,159
207,31	258,106
207,53	78,486
207,75	69,462
207,96	567,687
208,18	-163,601
208,39	114,071
208,61	2070,571
208,83	21,256
209,04	-24,047
209,26	-101,705
209,48	199,543
209,69	86,403
209,91	533,682
210,13	47,050
210,34	92,663
210,56	65,073
210,77	-499,764
210,99	75,541
211,21	3310,000
211,42	-176,745
211,64	9,802
211,86	224,664
212,07	85,217
212,29	161,737
212,50	72,122
212,72	-230,115
212,94	201,375
213,15	101,721
213,37	66,346
213,58	-82,860
213,80	-1366,786
214,02	3257,059
214,23	209,434
214,45	352,689
214,67	-1114,268
214,88	76,946
215,10	-105,405
215,31	-124,738
215,53	62,432
215,75	-52,400
215,96	589,876
216,18	-855,352
216,39	46,968
216,61	221,114
216,83	299,420
217,04	1178,315
217,26	44,306
217,47	55,096
217,69	209,755
217,91	107,809
218,12	-58070,000
218,34	69,690
218,55	25,119
218,77	38,846
218,99	158,287
219,20	-53,570
219,42	324,497
219,63	-24,030
219,85	-5,645
220,06	46,808
220,28	153,129
220,50	188,331
220,71	56,265
220,93	2640,943
221,14	-1309,700
221,36	-69,732
221,58	69,509
221,79	-66,416
222,01	-275,259
222,22	334,671
222,44	-753,146
222,65	76,317
222,87	695,594
223,09	140,173
223,30	23,866
223,52	135,678
223,73	149,620
223,95	-61,451
224,16	45,505
224,38	18,175
224,60	68,250
224,81	211,995
225,03	73,866
225,24	63,939
225,46	38,156
225,67	-72,418
225,89	80,720
226,10	445,994
226,32	82,960
226,54	-35,675
226,75	51,112
226,97	16,905
227,18	129,909
227,40	47,983
227,61	12,451
227,83	-41,343
228,04	106,448
228,26	29,969
228,47	53,712
228,69	157,279
228,91	128,272
229,12	61,671
229,34	12,359
229,55	37,428
229,77	3,636
229,98	-12,375
230,20	69,310
230,41	0,311
230,63	13,441
230,84	-11,630
231,06	13,067
231,27	14,168
231,49	13,048
231,71	22,297
231,92	14,092
232,14	12,820
232,35	40,432
232,57	20,258
232,78	36,586
233,00	3,439
233,21	49,740
233,43	8,239
233,64	3,872
233,86	42,782
234,07	7,461
234,29	29,086
234,50	-9,694
234,72	30,815
234,93	8,939
235,15	34,522
235,36	11,016
235,58	15,761
235,79	40,880
236,01	10,269
236,22	9,830
236,44	41,452
236,65	8,612
236,87	3,501
237,08	17,792
237,30	-8,582
237,51	2,786
237,73	-0,885
237,94	-0,999
238,16	13,766
238,37	11,166
238,59	4,775
238,80	7,466
239,02	5,345
239,23	1,524
239,45	-3,355
239,66	17,013
239,88	21,637
240,09	20,826
240,31	8,915
240,52	5,127
240,74	6,219
240,95	7,796
241,17	8,464
241,38	8,441
241,60	-1,184
241,81	10,029
242,03	8,298
242,24	4,229
242,46	12,754
242,67	3,024
242,89	10,914
243,10	15,061
243,32	13,513
243,53	10,309
243,75	8,930
243,96	13,264
244,18	10,592
244,39	15,520
244,60	9,841
244,82	4,544
245,03	12,633
245,25	4,941
245,46	18,997
245,68	5,152
245,89	10,129
246,11	10,714
246,32	14,549
246,54	-0,667
246,75	5,482
246,97	6,405
247,18	14,673
247,39	-3,315
247,61	6,735
247,82	11,656
248,04	6,915
248,25	3,468
248,47	10,342
248,68	7,828
248,90	5,320
249,11	11,063
249,33	13,878
249,54	1,201
249,75	12,508
249,97	1,993
250,18	10,377
250,40	12,359
250,61	-4,825
250,83	5,223
251,04	3,777
251,25	8,099
251,47	1,133
251,68	6,779
251,90	7,197
252,11	9,137
252,33	3,012
252,54	1,428
252,76	1,268
252,97	0,977
253,18	0,317
253,40	3,684
253,61	3,968
253,83	6,150
254,04	5,625
254,25	6,446
254,47	2,165
254,68	3,730
254,90	2,775
255,11	9,852
255,33	7,924
255,54	2,089
255,75	3,513
255,97	0,687
256,18	1,564
256,40	8,124
256,61	3,542
256,82	-2,222
257,04	5,569
257,25	-2,888
257,47	6,688
257,68	3,765
257,89	3,627
258,11	7,661
258,32	2,656
258,54	5,720
258,75	9,374
258,96	9,363
259,18	4,849
259,39	1,612
259,61	5,450
259,82	1,273
260,03	9,534
260,25	1,842
260,46	2,717
260,68	0,105
260,89	4,141
261,10	6,013
261,32	6,755
261,53	3,651
261,75	9,490
261,96	-0,186
262,17	11,361
262,39	8,383
262,60	4,090
262,81	-1,556
263,03	5,198
263,24	0,058
263,46	1,990
263,67	2,966
263,88	1,738
264,10	5,595
264,31	2,386
264,52	2,632
264,74	8,268
264,95	3,434
265,17	4,248
265,38	1,651
265,59	6,615
265,81	6,407
266,02	-0,935
266,23	1,209
266,45	7,766
266,66	6,483
266,87	5,378
267,09	5,033
267,30	10,572
267,52	5,400
267,73	3,460
267,94	5,150
268,16	5,691
268,37	4,708
268,58	2,468
268,80	3,991
269,01	1,971
269,22	10,078
269,44	5,183
269,65	5,308
269,86	-0,779
270,08	6,923
270,29	0,436
270,50	4,734
270,72	6,724
270,93	5,540
271,14	4,110
271,36	3,137
271,57	7,260
271,78	2,396
272,00	6,579
272,21	5,290
272,42	5,466
272,64	4,034
272,85	0,019
273,06	1,116
273,28	6,366
273,49	7,375
273,70	5,748
273,92	4,061
274,13	6,982
274,34	4,151
274,56	3,427
274,77	4,504
274,98	4,473
275,20	4,261
275,41	6,965
275,62	3,181
275,84	3,106
276,05	8,415
276,26	1,499
276,47	1,645
276,69	6,933
276,90	5,258
277,11	1,827
277,33	4,493
277,54	5,866
277,75	5,068
277,97	0,430
278,18	5,195
278,39	4,867
278,61	6,268
278,82	3,257
279,03	6,811
279,24	3,668
279,46	4,140
279,67	5,759
279,88	4,190
280,10	6,823
280,31	1,086
280,52	3,683
280,73	2,753
280,95	8,094
281,16	5,099
281,37	4,072
281,59	5,899
281,80	7,647
282,01	4,673
282,22	3,755
282,44	1,093
282,65	9,609
282,86	5,009
283,08	4,184
283,29	5,505
283,50	3,975
283,71	4,081
283,93	4,801
284,14	5,642
284,35	1,372
284,56	3,127
284,78	1,881
284,99	4,059
285,20	4,515
285,42	6,154
285,63	3,909
285,84	0,816
286,05	2,754
286,27	4,049
286,48	3,258
286,69	3,523
286,90	2,427
287,12	2,567
287,33	3,609
287,54	3,514
287,75	3,380
287,97	4,912
288,18	5,805
288,39	2,562
288,60	4,739
288,82	2,411
289,03	2,013
289,24	5,168
289,45	4,380
289,67	3,851
289,88	0,838
290,09	3,161
290,30	4,592
290,52	2,642
290,73	0,849
290,94	3,065
291,15	2,411
291,37	5,396
291,58	1,231
291,79	4,044
292,00	5,130
292,21	6,405
292,43	3,905
292,64	2,351
292,85	1,541
293,06	5,515
293,28	3,747
293,49	1,149
293,70	8,029
293,91	2,702
294,12	4,869
294,34	1,503
294,55	2,402
294,76	2,567
294,97	6,013
295,19	0,739
295,40	5,287
295,61	3,219
295,82	4,730
296,03	4,605
296,25	4,225
296,46	0,831
296,67	1,852
296,88	1,102
297,09	4,681
297,31	3,849
297,52	6,375
297,73	3,867
297,94	4,061
298,15	4,834
298,37	3,864
298,58	6,899
298,79	4,798
299,00	1,148
299,21	2,031
299,43	2,055
299,64	5,505
299,85	5,622
300,06	1,239
300,27	4,125
300,49	5,697
300,70	4,000
300,91	4,523
301,12	4,040
301,33	5,727
301,54	2,818
301,76	5,309
301,97	4,585
302,18	3,595
302,39	5,559
302,60	4,010
302,82	2,616
303,03	7,505
303,24	2,232
303,45	4,532
303,66	1,684
303,87	2,249
304,09	5,107
304,30	3,682
304,51	1,501
304,72	3,267
304,93	6,359
305,14	4,183
305,36	4,111
305,57	2,172
305,78	5,263
305,99	3,867
306,20	2,647
306,41	1,062
306,62	1,307
306,84	3,033
307,05	1,555
307,26	1,149
307,47	7,133
307,68	4,313
307,89	3,578
308,11	3,963
308,32	1,689
308,53	3,699
308,74	3,361
308,95	2,814
309,16	6,295
309,37	5,598
309,59	4,477
309,80	4,763
310,01	3,293
310,22	4,924
310,43	4,961
310,64	4,763
310,85	4,782
311,06	1,299
311,28	5,572
311,49	4,540
311,70	7,508
311,91	1,527
312,12	2,855
312,33	4,769
312,54	5,668
312,75	3,826
312,97	3,377
313,18	5,217
313,39	5,879
313,60	3,922
313,81	4,036
314,02	3,312
314,23	4,140
314,44	2,495
314,65	4,509
314,87	0,916
315,08	4,065
315,29	4,340
315,50	3,697
315,71	6,945
315,92	7,509
316,13	4,710
316,34	5,614
316,55	5,145
316,77	-0,769
316,98	2,548
317,19	4,121
317,40	3,537
317,61	6,912
317,82	3,895
318,03	1,597
318,24	2,819
318,45	6,355
318,66	2,929
318,87	0,477
319,09	5,688
319,30	2,891
319,51	4,019
319,72	6,601
319,93	3,604
320,14	6,639
320,35	3,654
320,56	2,471
320,77	3,339
320,98	7,493
321,19	4,980
321,40	3,895
321,62	5,379
321,83	4,695
322,04	5,043
322,25	0,605
322,46	6,055
322,67	3,822
322,88	4,312
323,09	4,394
323,30	2,716
323,51	5,441
323,72	4,349
323,93	2,793
324,14	2,056
324,35	0,626
324,56	3,830
324,77	3,928
324,99	3,687
325,20	4,113
325,41	3,003
325,62	4,223
325,83	1,275
326,04	3,746
326,25	5,445
326,46	0,882
326,67	5,826
326,88	4,060
327,09	4,037
327,30	4,416
327,51	3,772
327,72	6,266
327,93	7,072
328,14	0,271
328,35	1,575
328,56	3,390
328,77	2,229
328,98	5,209
329,19	4,705
329,40	4,425
329,61	3,467
329,82	-0,270
330,04	1,411
330,25	0,750
330,46	5,141
330,67	4,283
330,88	2,388
331,09	4,621
331,30	4,470
331,51	2,793
331,72	3,952
331,93	6,241
332,14	1,248
332,35	7,898
332,56	4,725
332,77	4,011
332,98	0,119
333,19	3,509
333,40	7,127
333,61	4,118
333,82	4,548
334,03	5,912
334,24	3,522
334,45	3,044
334,66	4,983
334,87	3,672
335,08	2,160
335,29	-0,145
335,50	2,638
335,71	1,403
335,92	5,358
336,13	4,727
336,34	2,591
336,55	4,441
336,76	6,249
336,97	3,894
337,18	3,362
337,39	3,958
337,60	0,648
337,81	5,031
338,02	3,410
338,23	7,161
338,44	3,506
338,65	3,675
338,86	4,705
339,07	3,448
339,28	5,147
339,49	4,264
339,70	4,883
339,91	3,628
340,11	5,762
340,32	1,588
340,53	2,158
340,74	1,057
340,95	0,725
341,16	6,133
341,37	1,943
341,58	5,523
341,79	4,354
342,00	4,167
342,21	1,168
342,42	2,926
342,63	1,240
342,84	-0,919
343,05	3,810
343,26	5,457
343,47	1,483
343,68	3,737
343,89	3,057
344,10	6,236
344,31	8,359
344,52	3,942
344,73	4,394
344,94	6,339
345,14	3,930
345,35	6,199
345,56	3,329
345,77	2,849
345,98	5,447
346,19	2,237
346,40	4,341
346,61	3,470
346,82	3,253
347,03	3,224
347,24	5,119
347,45	0,855
347,66	3,885
347,87	0,538
348,08	4,204
348,28	3,465
348,49	5,019
348,70	4,603
348,91	4,622
349,12	1,498
349,33	15,557
349,54	3,392
349,75	6,485
349,96	4,848
350,17	3,360
350,38	1,974
350,59	7,142
350,80	2,866
351,00	5,776
351,21	5,447
351,42	6,918
351,63	1,085
351,84	6,919
352,05	6,556
352,26	2,817
352,47	5,212
352,68	7,563
352,89	6,300
353,09	6,740
353,30	4,229
353,51	3,701
353,72	3,034
353,93	7,000
354,14	-0,446
354,35	4,313
354,56	6,202
354,77	5,747
354,98	1,840
355,18	4,453
355,39	6,759
355,60	2,815
355,81	5,325
356,02	3,716
356,23	5,896
356,44	3,194
356,65	4,472
356,85	7,969
357,06	5,585
357,27	4,296
357,48	5,473
357,69	4,761
357,90	6,387
358,11	1,611
358,32	3,924
358,52	4,947
358,73	4,476
358,94	1,542
359,15	2,934
359,36	4,065
359,57	4,415
359,78	2,298
359,98	2,477
360,19	2,938
360,40	2,659
360,61	3,982
360,82	3,321
361,03	7,642
361,24	2,825
361,44	3,706
361,65	2,498
361,86	3,547
362,07	6,041
362,28	2,665
362,49	4,367
362,70	6,828
362,90	5,692
363,11	5,177
363,32	2,235
363,53	5,030
363,74	3,641
363,95	4,382
364,15	4,140
364,36	6,211
364,57	4,758
364,78	1,947
364,99	2,066
365,20	3,838
365,40	6,835
365,61	3,832
365,82	3,695
366,03	1,338
366,24	5,770
366,45	3,555
366,65	6,074
366,86	1,052
367,07	5,133
367,28	3,809
367,49	3,757
367,69	6,431
367,90	3,377
368,11	5,601
368,32	3,069
368,53	2,974
368,73	4,266
368,94	2,956
369,15	2,668
369,36	5,974
369,57	3,277
369,78	3,201
369,98	5,200
370,19	5,993
370,40	3,571
370,61	5,361
370,82	2,569
371,02	6,045
371,23	7,053
371,44	2,952
371,65	5,293
371,85	8,796
372,06	3,923
372,27	4,573
372,48	3,486
372,69	2,832
372,89	1,940
373,10	0,049
373,31	5,810
373,52	4,968
373,73	7,139
373,93	3,345
374,14	1,989
374,35	5,907
374,56	4,245
374,76	4,939
374,97	3,209
375,18	2,122
375,39	6,297
375,60	3,145
375,80	4,681
376,01	3,682
376,22	5,804
376,43	1,386
376,63	3,088
376,84	3,017
377,05	3,033
377,26	0,944
377,46	1,906
377,67	5,020
377,88	2,396
378,09	2,102
378,29	0,440
378,50	5,235
378,71	3,201
378,92	3,033
379,12	3,609
379,33	2,703
379,54	4,344
379,75	6,416
379,95	0,513
380,16	4,823
380,37	4,816
380,58	5,948
380,78	3,940
380,99	3,127
381,20	3,013
381,41	4,468
381,61	3,753
381,82	3,740
382,03	3,548
382,24	3,061
382,44	4,261
382,65	3,661
382,86	1,111
383,06	4,161
383,27	2,905
383,48	0,146
383,69	5,521
383,89	4,357
384,10	5,737
384,31	2,024
384,51	5,222
384,72	6,424
384,93	3,832
385,14	6,026
385,34	3,738
385,55	2,079
385,76	0,552
385,96	6,651
386,17	4,869
386,38	5,157
386,59	5,130
386,79	5,167
387,00	3,641
387,21	5,091
387,41	5,425
387,62	4,156
387,83	6,863
388,03	4,788
388,24	-1,382
388,45	4,471
388,66	1,194
388,86	2,635
389,07	5,974
389,28	6,862
389,48	3,684
389,69	5,050
389,90	4,245
390,10	6,064
390,31	6,998
390,52	-4,563
390,72	-5,628
390,93	9,298
391,14	1,315
391,34	1,298
391,55	5,935
391,76	7,101
391,96	5,413
392,17	6,571
392,38	5,638
392,58	2,659
392,79	4,718
393,00	2,521
393,20	2,828
393,41	2,682
393,62	0,902
393,82	5,162
394,03	3,556
394,24	4,463
394,44	8,141
394,65	5,770
394,86	4,464
395,06	5,549
395,27	2,846
395,48	1,266
395,68	4,034
395,89	5,725
396,10	4,567
396,30	5,115
396,51	-0,050
396,72	2,337
396,92	2,379
397,13	6,316
397,34	2,116
397,54	4,727
397,75	2,399
397,95	1,582
398,16	3,636
398,37	3,276
398,57	2,277
398,78	7,001
398,99	3,103
399,19	5,720
399,40	7,341
399,60	1,851
399,81	2,385
400,02	5,476
400,22	5,959
400,43	4,998
400,64	2,148
400,84	3,522
401,05	5,363
401,25	4,773
401,46	5,952
401,67	5,333
401,87	4,166
402,08	1,905
402,29	3,083
402,49	3,259
402,70	8,075
402,90	1,047
403,11	2,815
403,32	6,230
403,52	4,665
403,73	5,456
403,93	5,206
404,14	7,685
404,35	5,201
404,55	2,718
404,76	1,183
404,96	6,491
405,17	4,703
405,38	6,562
405,58	1,869
405,79	5,466
405,99	3,469
406,20	6,758
406,40	-0,201
406,61	6,035
406,82	1,726
407,02	4,557
407,23	3,387
407,43	1,987
407,64	0,164
407,85	3,607
408,05	0,721
408,26	10,432
408,46	3,301
408,67	0,658
408,87	4,794
409,08	0,969
409,29	1,914
409,49	4,845
409,70	6,042
409,90	5,348
410,11	2,116
410,31	6,325
410,52	5,250
410,72	2,740
410,93	5,639
411,14	3,408
411,34	-0,519
411,55	3,931
411,75	3,475
411,96	2,767
412,16	5,489
412,37	2,823
412,57	5,672
412,78	1,532
412,99	1,706
413,19	2,359
413,40	6,854
413,60	5,751
413,81	6,020
414,01	5,512
414,22	1,515
414,42	0,056
414,63	-0,547
414,83	7,884
415,04	5,874
415,24	4,567
415,45	7,319
415,65	2,624
415,86	0,879
416,07	5,241
416,27	4,225
416,48	5,780
416,68	5,459
416,89	-1,484
417,09	3,505
417,30	4,721
417,50	2,770
417,71	5,238
417,91	1,668
418,12	4,109
418,32	3,206
418,53	6,206
418,73	2,283
418,94	2,325
419,14	6,997
419,35	0,091
419,55	5,094
419,76	4,131
419,96	3,435
420,17	3,331
420,37	2,535
420,58	8,446
420,78	2,238
420,99	7,312
421,19	3,736
421,40	3,702
421,60	6,170
421,81	3,643
422,01	5,682
422,22	-0,626
422,42	1,892
422,63	6,206
422,83	2,389
423,04	4,191
423,24	7,517
423,45	0,309
423,65	10,988
423,86	5,887
424,06	6,238
424,27	5,613
424,47	2,741
424,67	1,112
424,88	3,136
425,08	3,548
425,29	7,890
425,49	2,931
425,70	-2,489
425,90	8,344
426,11	0,464
426,31	1,568
426,52	1,450
426,72	1,904
426,93	1,183
427,13	3,961
427,33	2,672
427,54	6,244
427,74	6,460
427,95	4,449
428,15	-1,806
428,36	5,261
428,56	3,464
428,77	5,021
428,97	2,857
429,18	2,765
429,38	2,223
429,58	4,543
429,79	6,603
429,99	7,346
430,20	1,883
430,40	8,109
430,61	-0,853
430,81	2,893
431,01	4,281
431,22	3,524
431,42	7,965
431,63	4,889
431,83	4,124
432,04	6,238
432,24	8,937
432,44	2,458
432,65	5,776
432,85	6,047
433,06	6,678
433,26	5,768
433,47	2,055
433,67	5,909
433,87	2,336
434,08	1,425
434,28	5,445
434,49	4,397
434,69	7,011
434,89	4,064
435,10	2,465
435,30	4,397
435,51	2,008
435,71	5,421
435,91	4,267
436,12	5,278
436,32	6,626
436,53	6,139
436,73	2,432
436,93	8,909
437,14	6,464
437,34	2,999
437,55	3,404
437,75	7,604
437,95	4,418
438,16	2,369
438,36	1,622
438,57	2,133
438,77	2,323
438,97	4,086
439,18	7,728
439,38	3,171
439,58	1,052
439,79	0,750
439,99	1,757
440,20	4,487
440,40	5,294
440,60	6,269
440,81	4,760
441,01	2,836
441,21	7,118
441,42	3,992
441,62	5,645
441,83	7,803
442,03	0,403
442,23	4,309
442,44	0,827
442,64	5,746
442,84	0,576
443,05	5,578
443,25	1,149
443,45	2,937
443,66	5,502
443,86	0,490
444,06	7,442
444,27	4,558
444,47	4,583
444,67	-1,152
444,88	2,730
445,08	4,427
445,28	6,961
445,49	0,842
445,69	4,207
445,90	5,966
446,10	9,084
446,30	8,436
446,51	4,466
446,71	10,487
446,91	9,484
447,12	4,883
447,32	0,956
447,52	4,558
447,72	3,689
447,93	4,403
448,13	1,076
448,33	7,325
448,54	1,800
448,74	0,309
448,94	4,494
449,15	8,693
449,35	6,043
449,55	1,364
449,76	8,350
449,96	3,712
450,16	7,013
450,37	5,090
450,57	2,843
450,77	1,570
450,98	4,632
451,18	8,742
451,38	0,515
451,58	4,914
451,79	6,101
451,99	9,411
452,19	4,101
452,40	2,269
452,60	3,649
452,80	4,492
453,00	6,848
453,21	10,737
453,41	5,916
453,61	4,921
453,82	7,229
454,02	0,142
454,22	12,613
454,42	7,425
454,63	3,239
454,83	2,863
455,03	6,155
455,24	6,105
455,44	2,910
455,64	5,589
455,84	1,429
456,05	-1,814
456,25	3,532
456,45	7,323
456,65	3,718
456,86	6,263
457,06	3,288
457,26	9,834
457,47	9,635
457,67	6,280
457,87	3,924
458,07	2,041
458,28	7,173
458,48	9,312
458,68	-0,100
458,88	1,282
459,09	3,575
459,29	6,842
459,49	4,859
459,69	5,720
459,90	4,993
460,10	-1,144
460,30	2,314
460,50	4,127
460,71	4,540
460,91	3,979
461,11	6,096
461,31	1,891
461,52	7,967
461,72	4,547
461,92	6,764
462,12	10,584
462,32	-0,965
462,53	2,490
462,73	3,774
462,93	6,705
463,13	-1,228
463,34	1,606
463,54	2,155
463,74	3,662
463,94	4,391
464,14	4,813
464,35	1,208
464,55	3,238
464,75	8,665
464,95	2,599
465,16	2,043
465,36	0,725
465,56	3,986
465,76	4,579
465,96	3,232
466,17	4,159
466,37	6,124
466,57	8,571
466,77	6,024
466,97	2,072
467,18	6,113
467,38	2,185
467,58	4,908
467,78	11,473
467,98	4,426
468,19	5,925
468,39	5,738
468,59	6,275
468,79	4,742
468,99	0,625
469,19	4,551
469,40	5,738
469,60	3,571
469,80	4,695
470,00	8,849
470,20	8,675
470,41	6,093
470,61	4,210
470,81	5,697
471,01	2,842
471,21	2,419
471,41	0,876
471,62	4,662
471,82	-0,817
472,02	2,616
472,22	1,981
472,42	4,716
472,62	4,700
472,83	6,814
473,03	6,390
473,23	2,550
473,43	6,200
473,63	3,630
473,83	7,144
474,03	7,275
474,24	8,922
474,44	3,596
474,64	5,258
474,84	5,421
475,04	3,636
475,24	7,094
475,45	1,730
475,65	4,169
475,85	10,732
476,05	4,781
476,25	7,042
476,45	3,699
476,65	9,629
476,85	6,728
477,06	5,465
477,26	4,355
477,46	3,807
477,66	5,045
477,86	7,218
478,06	5,231
478,26	6,972
478,46	5,422
478,67	6,201
478,87	5,755
479,07	4,137
479,27	3,503
479,47	6,532
479,67	2,783
479,87	5,250
480,07	7,608
480,28	4,936
480,48	2,068
480,68	7,999
480,88	6,612
481,08	7,961
481,28	6,523
481,48	6,611
481,68	6,330
481,88	7,043
482,08	6,233
482,29	7,991
482,49	3,494
482,69	5,180
482,89	8,289
483,09	10,086
483,29	5,917
483,49	5,494
483,69	8,750
483,89	6,003
484,09	5,002
484,29	5,129
484,50	7,114
484,70	7,472
484,90	6,041
485,10	8,766
485,30	9,899
485,50	9,225
485,70	10,137
485,90	6,305
486,10	6,603
486,30	8,729
486,50	9,316
486,70	7,033
486,90	9,985
487,10	10,785
487,30	8,403
487,51	8,875
487,71	9,364
487,91	8,961
488,11	9,163
488,31	6,927
488,51	12,370
488,71	8,646
488,91	11,541
489,11	8,958
489,31	12,354
489,51	9,620
489,71	10,308
489,91	10,074
490,11	8,800
490,31	12,734
490,51	10,148
490,71	12,509
490,91	11,184
491,11	11,071
491,31	13,428
491,51	10,550
491,72	11,298
491,92	13,693
492,12	14,838
492,32	14,249
492,52	14,370
492,72	13,717
492,92	14,820
493,12	14,516
493,32	12,307
493,52	12,288
493,72	12,509
493,92	15,798
494,12	15,191
494,32	14,985
494,52	14,797
494,72	13,526
494,92	13,746
495,12	17,051
495,32	16,054
495,52	14,878
495,72	16,769
495,92	18,795
496,12	18,794
496,32	14,886
496,52	16,637
496,72	16,207
496,92	17,106
497,12	17,286
497,32	17,458
497,52	19,609
497,72	20,961
497,92	17,051
498,12	17,937
498,32	19,736
498,52	17,803
498,72	16,359
498,92	19,819
499,12	19,616
499,32	18,086
499,52	20,740
499,72	21,079
499,92	20,850
500,12	20,580
500,32	21,330
500,52	19,279
500,72	24,783
500,91	24,586
501,11	20,167
501,31	18,550
501,51	21,749
501,71	23,777
501,91	24,212
502,11	22,666
502,31	22,484
502,51	25,007
502,71	20,376
502,91	25,432
503,11	23,878
503,31	22,631
503,51	21,611
503,71	22,700
503,91	26,466
504,11	25,958
504,31	25,900
504,51	24,532
504,71	28,487
504,91	24,555
505,10	27,915
505,30	26,067
505,50	26,866
505,70	24,561
505,90	28,399
506,10	26,901
506,30	27,391
506,50	29,880
506,70	32,316
506,90	26,716
507,10	30,274
507,30	28,262
507,50	28,482
507,70	30,135
507,89	30,750
508,09	26,305
508,29	28,619
508,49	29,423
508,69	30,367
508,89	28,310
509,09	28,802
509,29	30,502
509,49	29,363
509,69	33,199
509,89	30,249
510,09	29,411
510,28	32,165
510,48	31,364
510,68	29,903
510,88	31,757
511,08	29,513
511,28	32,235
511,48	32,588
511,68	31,193
511,88	30,737
512,07	32,710
512,27	34,020
512,47	33,282
512,67	31,656
512,87	30,956
513,07	30,864
513,27	32,129
513,47	31,846
513,67	31,621
513,86	36,055
514,06	36,451
514,26	32,662
514,46	35,991
514,66	34,221
514,86	36,117
515,06	37,572
515,26	38,882
515,45	37,036
515,65	35,176
515,85	37,357
516,05	33,471
516,25	36,894
516,45	37,742
516,65	33,550
516,84	35,721
517,04	37,904
517,24	36,103
517,44	37,707
517,64	39,182
517,84	39,609
518,04	39,090
518,23	38,980
518,43	40,314
518,63	34,486
518,83	38,288
519,03	41,515
519,23	39,994
519,42	37,584
519,62	36,871
519,82	37,489
520,02	38,390
520,22	40,768
520,42	38,873
520,61	40,073
520,81	42,171
521,01	43,886
521,21	37,762
521,41	38,441
521,61	40,818
521,80	37,129
522,00	39,196
522,20	39,827
522,40	42,525
522,60	41,370
522,79	40,079
522,99	38,741
523,19	40,405
523,39	42,403
523,59	40,785
523,78	42,213
523,98	38,505
524,18	41,042
524,38	40,807
524,58	39,309
524,77	42,997
524,97	40,266
525,17	41,221
525,37	40,203
525,57	43,972
525,76	42,329
525,96	43,304
526,16	39,911
526,36	41,298
526,56	43,554
526,75	41,915
526,95	43,484
527,15	39,731
527,35	41,191
527,55	43,384
527,74	46,681
527,94	42,874
528,14	42,432
528,34	41,818
528,53	42,680
528,73	42,185
528,93	42,517
529,13	39,118
529,32	44,652
529,52	42,745
529,72	40,661
529,92	42,791
530,12	43,477
530,31	40,879
530,51	42,545
530,71	45,124
530,91	44,453
531,10	41,113
531,30	41,627
531,50	41,930
531,70	41,262
531,89	43,361
532,09	41,364
532,29	42,267
532,49	42,280
532,68	43,707
532,88	42,927
533,08	43,895
533,28	43,097
533,47	44,453
533,67	45,554
533,87	43,441
534,06	48,005
534,26	44,907
534,46	42,706
534,66	44,690
534,85	46,594
535,05	43,513
535,25	44,542
535,45	41,894
535,64	45,158
535,84	43,098
536,04	42,377
536,23	45,704
536,43	43,370
536,63	42,362
536,83	44,682
537,02	42,645
537,22	42,067
537,42	42,969
537,61	42,910
537,81	43,754
538,01	45,030
538,20	43,616
538,40	43,461
538,60	46,074
538,80	43,080
538,99	41,176
539,19	42,015
539,39	41,574
539,58	40,144
539,78	39,153
539,98	40,094
540,17	39,388
540,37	38,548
540,57	38,741
540,76	37,574
540,96	37,117
541,16	40,431
541,36	35,569
541,55	34,272
541,75	35,525
541,95	36,803
542,14	35,311
542,34	34,354
542,54	34,355
542,73	35,472
542,93	35,831
543,13	36,160
543,32	34,550
543,52	34,359
543,72	32,383
543,91	34,186
544,11	33,959
544,31	35,841
544,50	35,083
544,70	35,720
544,89	36,387
545,09	37,318
545,29	35,489
545,48	36,392
545,68	35,445
545,88	37,103
546,07	34,882
546,27	37,023
546,47	39,060
546,66	38,657
546,86	43,231
547,06	38,535
547,25	39,158
547,45	43,951
547,64	40,236
547,84	44,813
548,04	42,707
548,23	43,094
548,43	46,029
548,63	44,544
548,82	44,303
549,02	40,887
549,21	41,787
549,41	44,654
549,61	44,014
549,80	43,314
550,00	42,340
550,20	42,228
550,39	43,561
550,59	44,070
550,78	43,684
550,98	42,374
551,18	46,268
551,37	44,593
551,57	43,339
551,76	43,632
551,96	43,194
552,16	45,328
552,35	44,674
552,55	46,976
552,74	43,940
552,94	45,567
553,14	44,022
553,33	43,244
553,53	45,911
553,72	45,515
553,92	47,123
554,12	43,828
554,31	44,674
554,51	46,918
554,70	43,849
554,90	45,781
555,09	46,254
555,29	48,340
555,49	44,183
555,68	48,140
555,88	45,369
556,07	47,734
556,27	48,036
556,46	45,419
556,66	44,636
556,86	49,927
557,05	44,873
557,25	48,048
557,44	48,637
557,64	44,666
557,83	46,510
558,03	48,930
558,22	44,503
558,42	48,450
558,62	48,590
558,81	43,706
559,01	45,102
559,20	47,530
559,40	47,571
559,59	45,773
559,79	44,128
559,98	47,851
560,18	48,361
560,37	47,798
560,57	47,690
560,76	44,737
560,96	45,538
561,16	46,992
561,35	47,910
561,55	48,546
561,74	45,298
561,94	46,638
562,13	47,672
562,33	50,514
562,52	46,664
562,72	47,167
562,91	45,215
563,11	44,635
563,30	50,364
563,50	45,014
563,69	45,925
563,89	46,653
564,08	48,542
564,28	46,724
564,47	48,101
564,67	45,231
564,86	44,596
565,06	45,813
565,25	47,116
565,45	47,536
565,64	50,805
565,84	46,650
566,03	47,316
566,23	45,602
566,42	47,414
566,62	48,369
566,81	45,512
567,01	46,388
567,20	47,919
567,40	45,995
567,59	45,541
567,79	48,206
567,98	49,839
568,18	48,189
568,37	49,458
568,57	46,991
568,76	49,827
568,96	47,560
569,15	47,415
569,35	47,203
569,54	49,405
569,73	49,732
569,93	45,801
570,12	47,416
570,32	48,757
570,51	46,493
570,71	48,173
570,90	48,770
571,10	48,196
571,29	46,490
571,49	46,689
571,68	47,974
571,87	45,419
572,07	48,572
572,26	46,973
572,46	47,688
572,65	49,415
572,85	44,995
573,04	46,806
573,24	47,134
573,43	49,358
573,62	48,208
573,82	49,013
574,01	49,686
574,21	47,628
574,40	47,429
574,60	46,461
574,79	50,289
574,98	45,614
575,18	47,218
575,37	45,688
575,57	47,426
575,76	47,570
575,96	47,626
576,15	47,216
576,34	47,608
576,54	48,541
576,73	49,119
576,93	47,895
577,12	47,471
577,31	48,746
577,51	46,166
577,70	46,600
577,90	46,545
578,09	45,166
578,28	47,721
578,48	46,808
578,67	48,311
578,87	45,916
579,06	45,204
579,25	46,513
579,45	46,516
579,64	46,840
579,84	46,688
580,03	46,079
580,22	47,824
580,42	45,930
580,61	46,558
580,81	45,858
581,00	46,255
581,19	48,094
581,39	46,333
581,58	45,928
581,77	46,787
581,97	45,878
582,16	45,779
582,35	45,448
582,55	45,672
582,74	45,911
582,94	47,090
583,13	45,475
583,32	45,568
583,52	47,646
583,71	44,713
583,90	45,239
584,10	44,590
584,29	44,883
584,48	43,388
584,68	45,642
584,87	43,873
585,06	44,702
585,26	45,505
585,45	44,594
585,65	46,705
585,84	43,892
586,03	45,175
586,23	43,922
586,42	44,309
586,61	46,388
586,81	43,834
587,00	45,163
587,19	44,765
587,39	46,845
587,58	45,741
587,77	45,621
587,97	44,801
588,16	47,034
588,35	46,802
588,54	45,358
588,74	44,139
588,93	46,088
589,12	46,399
589,32	45,286
589,51	47,166
589,70	44,197
589,90	44,281
590,09	43,804
590,28	48,517
590,48	43,450
590,67	45,392
590,86	45,547
591,06	45,687
591,25	45,265
591,44	47,091
591,63	44,523
591,83	46,938
592,02	46,415
592,21	44,457
592,41	44,867
592,60	45,598
592,79	45,589
592,98	45,535
593,18	46,024
593,37	46,285
593,56	46,497
593,76	46,763
593,95	47,216
594,14	45,463
594,33	46,875
594,53	45,181
594,72	46,236
594,91	48,812
595,10	47,076
595,30	45,866
595,49	45,750
595,68	46,536
595,88	46,889
596,07	46,901
596,26	45,438
596,45	47,676
596,65	42,338
596,84	45,753
597,03	46,398
597,22	46,954
597,42	49,232
597,61	45,315
597,80	45,172
597,99	46,893
598,19	47,314
598,38	49,221
598,57	46,290
598,76	45,611
598,95	47,559
599,15	46,909
599,34	47,214
599,53	46,463
599,72	47,891
599,92	45,385
600,11	46,399
600,30	46,036
600,49	46,492
600,69	47,353
600,88	47,257
601,07	46,356
601,26	46,026
601,45	46,797
601,65	45,358
601,84	46,669
602,03	46,365
602,22	48,136
602,42	47,256
602,61	45,104
602,80	49,412
602,99	48,481
603,18	45,980
603,38	46,355
603,57	46,616
603,76	46,657
603,95	44,506
604,14	46,681
604,34	47,359
604,53	46,527
604,72	45,955
604,91	46,490
605,10	45,511
605,29	46,472
605,49	44,303
605,68	46,504
605,87	47,009
606,06	46,423
606,25	45,431
606,45	45,993
606,64	46,176
606,83	44,831
607,02	44,470
607,21	46,875
607,40	45,159
607,60	44,462
607,79	43,781
607,98	43,122
608,17	42,460
608,36	44,397
608,55	44,393
608,75	41,985
608,94	41,077
609,13	38,992
609,32	39,420
609,51	38,074
609,70	39,128
609,89	39,227
610,09	39,499
610,28	40,127
610,47	39,765
610,66	38,540
610,85	38,070
611,04	40,050
611,23	39,063
611,43	37,941
611,62	39,103
611,81	38,554
612,00	37,932
612,19	38,638
612,38	38,936
612,57	40,928
612,77	39,295
612,96	40,505
613,15	39,291
613,34	41,729
613,53	42,010
613,72	42,833
613,91	41,940
614,10	41,535
614,29	43,735
614,49	43,275
614,68	42,701
614,87	43,114
615,06	46,075
615,25	42,748
615,44	42,574
615,63	43,741
615,82	42,687
616,01	43,868
616,21	42,181
616,40	44,137
616,59	46,323
616,78	43,120
616,97	43,889
617,16	43,433
617,35	46,032
617,54	44,708
617,73	45,392
617,92	42,901
618,11	44,630
618,31	42,319
618,50	45,103
618,69	42,573
618,88	43,472
619,07	42,635
619,26	43,414
619,45	42,932
619,64	44,837
619,83	42,942
620,02	41,188
620,21	45,188
620,40	43,797
620,59	43,527
620,78	42,604
620,97	43,405
621,17	43,942
621,36	44,497
621,55	43,626
621,74	43,307
621,93	43,734
622,12	43,205
622,31	43,486
622,50	42,833
622,69	45,149
622,88	42,825
623,07	45,129
623,26	45,585
623,45	45,100
623,64	42,601
623,83	44,031
624,02	45,152
624,21	43,377
624,40	44,108
624,59	42,056
624,78	43,916
624,97	45,624
625,16	42,009
625,35	42,492
625,54	44,135
625,73	43,352
625,92	43,815
626,12	44,130
626,31	43,444
626,50	43,948
626,69	43,647
626,88	43,911
627,07	43,610
627,26	44,454
627,45	42,857
627,64	42,125
627,83	43,298
628,02	43,478
628,21	42,958
628,40	42,867
628,59	43,668
628,78	42,351
628,97	40,670
629,16	42,453
629,35	43,330
629,54	44,601
629,73	42,464
629,92	42,596
630,10	42,795
630,29	43,054
630,48	42,633
630,67	42,506
630,86	43,421
631,05	43,939
631,24	44,168
631,43	42,008
631,62	43,021
631,81	43,177
632,00	44,255
632,19	41,826
632,38	42,742
632,57	44,203
632,76	42,130
632,95	45,360
633,14	43,872
633,33	43,398
633,52	46,024
633,71	43,786
633,90	43,844
634,09	42,774
634,28	44,739
634,47	41,994
634,66	43,327
634,85	43,668
635,04	44,669
635,22	43,369
635,41	44,048
635,60	45,338
635,79	45,475
635,98	42,478
636,17	42,936
636,36	44,059
636,55	45,224
636,74	42,157
636,93	43,826
637,12	44,025
637,31	44,913
637,50	42,547
637,69	44,306
637,87	43,746
638,06	44,068
638,25	44,104
638,44	43,322
638,63	39,904
638,82	43,200
639,01	44,695
639,20	42,311
639,39	44,354
639,58	43,736
639,77	44,264
639,95	43,517
640,14	44,018
640,33	43,414
640,52	43,385
640,71	45,877
640,90	43,978
641,09	45,861
641,28	41,709
641,47	44,696
641,66	42,286
641,84	43,520
642,03	42,658
642,22	44,476
642,41	46,051
642,60	42,546
642,79	44,178
642,98	44,022
643,17	42,990
643,35	42,702
643,54	43,032
643,73	44,139
643,92	43,261
644,11	42,602
644,30	43,025
644,49	44,704
644,67	42,815
644,86	42,880
645,05	45,281
645,24	43,803
645,43	44,524
645,62	42,368
645,81	45,108
645,99	44,306
646,18	45,031
646,37	41,967
646,56	43,069
646,75	44,516
646,94	44,961
647,13	42,527
647,31	44,027
647,50	43,751
647,69	44,995
647,88	43,244
648,07	42,525
648,26	45,068
648,44	42,060
648,63	41,149
648,82	43,969
649,01	45,051
649,20	41,571
649,38	41,928
649,57	42,572
649,76	40,469
649,95	41,774
650,14	41,407
650,33	42,183
650,51	42,524
650,70	43,773
650,89	41,421
651,08	42,517
651,27	43,007
651,45	42,188
651,64	39,060
651,83	42,513
652,02	42,674
652,21	43,361
652,39	43,033
652,58	44,792
652,77	42,724
652,96	44,040
653,15	42,878
653,33	43,169
653,52	43,727
653,71	43,495
653,90	44,419
654,09	44,475
654,27	43,130
654,46	44,939
654,65	44,069
654,84	44,278
655,02	44,614
655,21	45,846
655,40	45,850
655,59	44,507
655,77	45,097
655,96	43,866
656,15	43,719
656,34	44,466
656,53	43,059
656,71	44,698
656,90	44,697
657,09	44,721
657,28	44,206
657,46	44,068
657,65	43,377
657,84	41,851
658,03	43,779
658,21	43,476
658,40	42,189
658,59	42,529
658,78	43,402
658,96	42,230
659,15	41,976
659,34	41,558
659,52	43,086
659,71	41,572
659,90	43,420
660,09	41,001
660,27	40,371
660,46	42,178
660,65	42,167
660,84	40,746
661,02	41,945
661,21	41,153
661,40	41,377
661,58	42,925
661,77	41,092
661,96	40,261
662,15	41,468
662,33	38,781
662,52	39,492
662,71	42,501
662,89	39,913
663,08	41,279
663,27	39,682
663,45	40,520
663,64	40,681
663,83	37,974
664,02	38,860
664,20	40,141
664,39	39,235
664,58	39,623
664,76	38,687
664,95	39,592
665,14	38,166
665,32	38,341
665,51	38,601
665,70	40,627
665,88	41,283
666,07	38,873
666,26	41,605
666,44	40,943
666,63	38,602
666,82	38,932
667,00	40,064
667,19	37,222
667,38	39,107
667,56	39,792
667,75	40,399
667,94	38,929
668,12	37,399
668,31	39,412
668,50	40,203
668,68	40,957
668,87	38,900
669,06	38,961
669,24	39,920
669,43	37,906
669,62	37,044
669,80	37,596
669,99	39,870
670,18	39,875
670,36	36,710
670,55	38,967
670,74	39,605
670,92	39,049
671,11	38,804
671,29	37,434
671,48	39,523
671,67	40,222
671,85	38,819
672,04	38,855
672,23	37,100
672,41	38,567
672,60	37,913
672,78	38,406
672,97	39,571
673,16	38,222
673,34	38,062
673,53	38,507
673,71	38,159
673,90	40,062
674,09	37,238
674,27	37,627
674,46	36,967
674,64	39,461
674,83	37,919
675,02	36,778
675,20	36,307
675,39	37,158
675,57	38,426
675,76	36,918
675,95	39,511
676,13	39,419
676,32	38,814
676,50	37,144
676,69	36,441
676,88	36,529
677,06	38,423
677,25	35,792
677,43	39,816
677,62	37,818
677,80	38,754
677,99	38,326
678,18	37,801
678,36	38,944
678,55	37,168
678,73	37,119
678,92	38,481
679,10	38,876
679,29	37,493
679,48	37,337
679,66	38,744
679,85	37,315
680,03	37,695
680,22	36,805
680,40	36,533
680,59	36,716
680,77	38,170
680,96	37,518
681,15	37,405
681,33	38,844
681,52	37,493
681,70	38,656
681,89	39,842
682,07	38,843
682,26	37,521
682,44	38,396
682,63	39,967
682,81	38,051
683,00	40,137
683,18	39,258
683,37	39,891
683,55	38,929
683,74	38,393
683,92	42,192
684,11	40,532
684,29	38,658
684,48	37,638
684,67	37,739
684,85	41,261
685,04	40,326
685,22	39,798
685,41	39,609
685,59	40,111
685,78	39,417
685,96	39,018
686,15	40,159
686,33	40,204
686,52	40,834
686,70	39,892
686,89	40,627
687,07	40,403
687,26	41,984
687,44	41,818
687,62	39,539
687,81	41,654
687,99	41,349
688,18	39,793
688,36	41,573
688,55	41,010
688,73	41,864
688,92	41,066
689,10	41,657
689,29	43,111
689,47	42,870
689,66	43,193
689,84	42,057
690,03	43,707
690,21	41,487
690,40	43,247
690,58	41,400
690,76	41,795
690,95	45,356
691,13	41,002
691,32	42,792
691,50	43,174
691,69	42,754
691,87	42,075
692,06	41,986
692,24	41,772
692,43	43,463
692,61	40,748
692,79	41,711
692,98	39,924
693,16	44,947
693,35	42,798
693,53	44,729
693,72	43,248
693,90	43,532
694,08	42,880
694,27	43,106
694,45	45,572
694,64	45,630
694,82	44,218
695,01	42,034
695,19	43,523
695,37	43,388
695,56	42,208
695,74	44,916
695,93	44,684
696,11	42,211
696,29	44,978
696,48	44,706
696,66	43,934
696,85	43,786
697,03	43,140
697,21	45,414
697,40	43,407
697,58	45,152
697,77	42,880
697,95	44,534
698,13	46,607
698,32	44,708
698,50	43,709
698,69	43,924
698,87	43,868
699,05	43,307
699,24	42,774
699,42	43,923
699,60	42,444
699,79	45,560
699,97	44,260
700,16	40,629
700,34	43,964
700,52	45,446
700,71	43,062
700,89	44,523
701,07	45,116
701,26	44,457
701,44	44,104
701,63	44,834
701,81	44,630
701,99	44,733
702,18	43,377
702,36	43,107
702,54	43,510
702,73	43,711
702,91	43,765
703,09	43,395
703,28	44,274
703,46	43,816
703,64	45,329
703,83	44,966
704,01	44,768
704,19	43,876
704,38	45,045
704,56	44,033
704,74	43,345
704,93	45,102
705,11	44,966
705,29	44,390
705,48	45,368
705,66	45,422
705,84	44,725
706,03	42,039
706,21	45,669
706,39	45,089
706,58	44,397
706,76	44,677
706,94	45,583
707,12	46,448
707,31	44,170
707,49	43,909
707,67	45,323
707,86	45,248
708,04	44,399
708,22	43,461
708,41	44,640
708,59	43,918
708,77	42,986
708,95	43,698
709,14	46,974
709,32	46,635
709,50	44,724
709,69	43,153
709,87	42,841
710,05	43,915
710,23	45,313
710,42	42,927
710,60	44,907
710,78	44,715
710,97	43,000
711,15	43,159
711,33	48,053
711,51	43,603
711,70	42,766
711,88	44,250
712,06	44,120
712,24	44,387
712,43	45,255
712,61	44,359
712,79	43,779
712,97	42,729
713,16	45,460
713,34	45,611
713,52	44,858
713,70	42,360
713,89	44,249
714,07	44,549
714,25	44,058
714,43	45,845
714,62	43,040
714,80	43,949
714,98	42,050
715,16	44,812
715,35	43,265
715,53	44,240
715,71	45,475
715,89	44,895
716,07	45,759
716,26	48,619
716,44	44,977
716,62	43,244
716,80	46,114
716,99	45,722
717,17	45,391
717,35	44,836
717,53	44,374
717,71	44,159
717,90	45,941
718,08	45,704
718,26	41,925
718,44	45,770
718,62	45,516
718,81	44,938
718,99	42,977
719,17	43,092
719,35	45,002
719,53	44,843
719,72	44,833
719,90	44,110
720,08	44,900
720,26	45,322
720,44	44,567
720,62	43,998
720,81	45,808
720,99	46,748
721,17	44,257
721,35	45,616
721,53	46,307
721,72	45,990
721,90	44,359
722,08	45,240
722,26	45,401
722,44	44,118
722,62	44,906
722,81	43,662
722,99	44,448
723,17	44,535
723,35	45,174
723,53	47,319
723,71	46,281
723,89	45,091
724,08	44,133
724,26	45,275
724,44	44,504
724,62	45,126
724,80	43,824
724,98	43,879
725,16	46,786
725,35	42,099
725,53	45,076
725,71	45,096
725,89	45,787
726,07	47,415
726,25	48,496
726,43	46,136
726,61	44,815
726,80	46,471
726,98	45,216
727,16	45,141
727,34	47,721
727,52	44,858
727,70	43,254
727,88	43,489
728,06	43,304
728,25	43,978
728,43	46,718
728,61	44,594
728,79	45,814
728,97	44,655
729,15	44,441
729,33	45,884
729,51	45,955
729,69	46,124
729,87	44,844
730,06	44,723
730,24	45,345
730,42	47,060
730,60	43,728
730,78	45,773
730,96	43,818
731,14	46,569
731,32	44,030
731,50	43,314
731,68	45,468
731,86	45,694
732,04	45,127
732,22	44,548
732,41	46,605
732,59	43,316
732,77	46,510
732,95	46,671
733,13	44,986
733,31	45,718
733,49	44,742
733,67	46,076
733,85	45,474
734,03	44,787
734,21	44,139
734,39	45,454
734,57	45,017
734,75	46,144
734,93	43,720
735,11	45,387
735,29	44,422
735,47	46,228
735,65	43,877
735,84	43,367
736,02	44,687
736,20	48,342
736,38	45,463
736,56	44,597
736,74	43,781
736,92	44,184
737,10	44,098
737,28	45,674
737,46	46,114
737,64	44,533
737,82	44,673
738,00	46,581
738,18	47,648
738,36	44,055
738,54	43,798
738,72	43,726
738,90	43,921
739,08	46,103
739,26	43,625
739,44	45,073
739,62	45,424
739,80	45,065
739,98	44,400
740,16	45,666
740,34	43,265
740,52	47,398
740,70	43,896
740,88	43,154
741,06	45,455
741,24	46,661
741,42	44,315
741,60	44,347
741,78	47,520
741,96	44,363
742,14	44,374
742,32	42,094
742,50	46,186
742,68	45,731
742,86	44,878
743,04	45,095
743,21	44,918
743,39	45,457
743,57	45,323
743,75	43,900
743,93	43,527
744,11	42,678
744,29	46,339
744,47	44,203
744,65	43,310
744,83	42,566
745,01	42,913
745,19	45,080
745,37	44,951
745,55	46,657
745,73	44,429
745,91	42,765
746,09	45,202
746,27	43,078
746,45	42,305
746,62	44,772
746,80	43,940
746,98	44,349
747,16	43,919
747,34	45,770
747,52	44,051
747,70	44,531
747,88	44,716
748,06	44,795
748,24	44,542
748,42	45,649
748,60	45,352
748,78	43,363
748,95	44,747
749,13	47,784
749,31	46,500
749,49	43,874
749,67	47,040
749,85	45,370
750,03	44,125
750,21	44,698
750,39	45,801
750,57	45,603
750,74	45,132
750,92	43,398
751,10	46,295
751,28	43,860
751,46	44,494
751,64	45,778
751,82	45,116
752,00	45,025
752,17	44,797
752,35	42,535
752,53	44,487
752,71	44,865
752,89	45,886
753,07	45,122
753,25	44,357
753,43	41,928
753,60	45,013
753,78	45,345
753,96	47,060
754,14	43,788
754,32	44,569
754,50	44,679
754,68	44,961
754,85	44,984
755,03	45,406
755,21	44,054
755,39	47,588
755,57	44,405
755,75	45,720
755,92	42,959
756,10	45,607
756,28	46,379
756,46	43,876
756,64	44,572
756,82	44,622
756,99	44,745
757,17	43,819
757,35	43,187
757,53	46,582
757,71	45,653
757,89	43,356
758,06	44,399
758,24	44,555
758,42	44,214
758,60	45,259
758,78	45,324
758,95	44,718
759,13	44,261
759,31	43,044
759,49	44,773
759,67	41,482
759,84	45,237
760,02	45,820
760,20	43,944
760,38	43,804
760,56	43,691
760,73	45,107
760,91	44,305
761,09	45,290
761,27	42,309
761,45	44,830
761,62	46,025
761,80	44,813
761,98	44,025
762,16	43,753
762,33	45,205
762,51	46,204
762,69	42,939
762,87	41,321
763,05	43,763
763,22	43,623
763,40	44,174
763,58	42,340
763,76	44,482
763,93	45,744
764,11	44,710
764,29	40,790
764,47	45,346
764,64	46,736
764,82	46,175
765,00	44,222
765,18	41,467
765,35	44,107
765,53	45,626
765,71	44,877
765,89	43,745
766,06	44,955
766,24	44,781
766,42	45,285
766,60	43,985
766,77	43,192
766,95	44,057
767,13	44,919
767,30	46,042
767,48	43,591
767,66	43,222
767,84	44,201
768,01	42,941
768,19	45,795
768,37	45,125
768,54	42,059
768,72	45,277
768,90	45,616
769,08	44,949
769,25	44,957
769,43	44,217
769,61	42,226
769,78	45,356
769,96	44,411
770,14	46,253
770,31	44,227
770,49	43,880
770,67	45,103
770,85	41,412
771,02	45,347
771,20	45,296
771,38	44,787
771,55	44,817
771,73	43,961
771,91	43,348
772,08	45,601
772,26	45,036
772,44	43,441
772,61	44,968
772,79	46,511
772,97	45,901
773,14	43,171
773,32	45,459
773,50	45,372
773,67	42,294
773,85	46,753
774,03	39,034
774,20	44,892
774,38	45,951
774,56	43,399
774,73	44,331
774,91	44,995
775,09	43,323
775,26	43,393
775,44	43,553
775,61	47,218
775,79	43,378
775,97	45,167
776,14	42,939
776,32	44,696
776,50	44,327
776,67	44,425
776,85	43,181
777,03	43,862
777,20	45,370
777,38	45,949
777,55	46,062
777,73	40,852
777,91	43,094
778,08	44,616
778,26	44,920
778,43	44,589
778,61	43,107
778,79	43,706
778,96	41,273
779,14	44,903
779,32	44,237
779,49	45,474
779,67	47,934
779,84	42,212
780,02	44,062
780,20	41,205
780,37	46,085
780,55	39,389
780,72	45,446
780,90	44,243
781,07	44,198
781,25	46,294
781,43	44,263
781,60	42,790
781,78	42,525
781,95	45,492
782,13	43,342
782,30	45,662
782,48	44,987
782,66	45,169
782,83	42,288
783,01	47,204
783,18	45,985
783,36	46,273
783,53	46,183
783,71	43,923
783,89	44,626
784,06	43,293
784,24	43,585
784,41	47,703
784,59	44,566
784,76	42,815
784,94	46,705
785,11	42,801
785,29	45,844
785,46	44,096
785,64	42,909
785,82	44,220
785,99	44,122
786,17	43,697
786,34	43,231
786,52	43,788
786,69	48,749
786,87	44,378
787,04	42,559
787,22	42,404
787,39	45,600
787,57	45,140
787,74	46,975
787,92	45,164
788,09	46,122
788,27	44,566
788,44	43,092
788,62	44,638
788,79	46,636
788,97	46,288
789,14	44,445
789,32	44,030
789,49	45,199
789,67	42,541
789,84	46,534
790,02	47,386
790,19	44,571
790,37	44,335
790,54	46,105
790,72	48,894
790,89	47,015
791,07	44,855
791,24	43,320
791,42	44,492
791,59	45,768
791,77	45,962
791,94	45,020
792,12	45,489
792,29	47,150
792,47	46,677
792,64	46,853
792,81	46,193
792,99	46,061
793,16	46,185
793,34	46,458
793,51	45,368
793,69	49,615
793,86	48,627
794,04	44,918
794,21	47,714
794,39	44,204
794,56	44,892
794,73	46,961
794,91	48,207
795,08	44,914
795,26	44,521
795,43	43,324
795,61	45,748
795,78	45,636
795,95	47,804
796,13	47,741
796,30	47,933
796,48	43,111
796,65	46,374
796,83	47,630
797,00	50,016
797,17	41,824
797,35	47,358
797,52	43,843
797,70	51,632
797,87	44,039
798,04	40,902
798,22	46,892
798,39	46,374
798,57	47,907
798,74	46,822
798,91	45,581
799,09	48,325
799,26	43,025
799,44	46,236
799,61	43,298
799,78	47,170
799,96	44,227
800,13	45,102
800,31	45,458
800,48	51,059
800,65	43,723
800,83	45,323
801,00	44,960
801,17	45,645
801,35	46,094
801,52	46,676
801,70	47,717
801,87	44,668
802,04	47,143
802,22	44,817
802,39	45,296
802,56	52,250
802,74	47,910
802,91	44,676
803,08	42,835
803,26	47,057
803,43	47,008
803,61	46,309
803,78	46,938
803,95	44,413
804,13	48,265
804,30	45,676
804,47	50,433
804,65	45,080
804,82	45,075
804,99	46,887
805,17	44,480
805,34	49,470
805,51	50,115
805,69	46,178
805,86	45,429
806,03	47,440
806,21	46,291
806,38	44,263
806,55	47,674
806,72	49,518
806,90	47,295
807,07	48,227
807,24	48,732
807,42	42,658
807,59	47,081
807,76	41,421
807,94	44,078
808,11	42,741
808,28	48,917
808,45	49,729
808,63	49,592
808,80	47,604
808,97	46,773
809,15	45,972
809,32	47,689
809,49	44,022
809,67	43,231
809,84	45,714
810,01	43,926
810,18	51,346
810,36	48,658
810,53	48,889
810,70	47,228
810,87	46,307
811,05	43,718
811,22	48,226
811,39	47,579
811,57	45,863
811,74	50,765
811,91	41,923
812,08	48,149
812,26	48,376
812,43	47,250
812,60	44,096
812,77	47,137
812,95	48,905
813,12	48,744
813,29	39,999
813,46	48,757
813,64	45,992
813,81	46,792
813,98	45,681
814,15	47,418
814,32	49,850
814,50	49,868
814,67	44,601
814,84	42,373
815,01	45,647
815,19	43,532
815,36	42,460
815,53	45,965
815,70	43,778
815,87	48,501
816,05	42,249
816,22	48,029
816,39	51,810
816,56	47,522
816,74	49,134
816,91	47,013
817,08	52,185
817,25	47,718
817,42	47,697
817,60	52,488
817,77	43,661
817,94	46,579
818,11	45,826
818,28	46,418
818,45	46,832
818,63	47,597
818,80	43,246
818,97	49,084
819,14	49,852
819,31	52,554
819,49	49,895
819,66	43,199
819,83	44,060
820,00	51,022
820,17	47,081
820,34	49,495
820,52	50,947
820,69	47,053
820,86	48,891
821,03	49,407
821,20	49,015
821,37	44,973
821,55	42,358
821,72	50,158
821,89	48,203
822,06	48,055
822,23	44,122
822,40	48,159
822,57	44,753
822,75	52,930
822,92	43,346
823,09	47,477
823,26	55,423
823,43	53,265
823,60	44,175
823,77	47,558
823,94	52,252
824,12	54,107
824,29	44,682
824,46	47,399
824,63	51,272
824,80	48,731
824,97	52,361
825,14	48,692
825,31	50,959
825,49	47,210
825,66	50,194
825,83	46,779
826,00	50,318
826,17	54,917
826,34	47,951
826,51	44,823
826,68	46,186
826,85	46,148
827,02	46,477
827,20	42,871
827,37	45,640
827,54	50,055
827,71	50,680
827,88	53,047
828,05	49,578
828,22	49,493
828,39	50,552
828,56	51,095
828,73	48,966
828,90	50,418
829,07	47,116
829,25	47,434
829,42	48,147
829,59	48,425
829,76	44,754
829,93	44,932
830,10	49,792
830,27	46,520
830,44	50,700
830,61	50,140
830,78	51,334
830,95	46,364
831,12	45,647
831,29	46,979
831,46	48,741
831,63	45,578
831,80	49,893
831,97	51,339
832,14	47,093
832,31	55,875
832,48	44,560
832,65	52,635
832,83	47,269
833,00	48,552
833,17	42,767
833,34	45,531
833,51	49,129
833,68	50,370
833,85	57,219
834,02	41,582
834,19	47,563
834,36	55,117
834,53	45,754
834,70	45,557
834,87	53,796
835,04	50,371
835,21	54,233
835,38	47,764
835,55	45,530
835,72	57,765
835,89	50,618
836,06	49,149
836,23	60,927
836,40	45,756
836,57	53,490
836,74	55,286
836,91	53,158
837,08	49,231
837,25	48,216
837,42	43,420
837,59	46,208
837,76	49,719
837,93	47,165
838,09	46,802
838,26	51,408
838,43	52,957
838,60	46,528
838,77	45,018
838,94	58,269
839,11	52,308
839,28	48,287
839,45	46,055
839,62	47,442
839,79	49,027
839,96	51,144
840,13	52,160
840,30	52,320
840,47	49,105
840,64	46,867
840,81	49,606
840,98	34,759
841,15	55,335
841,32	39,438
841,48	55,936
841,65	44,908
841,82	54,467
841,99	49,854
842,16	48,105
842,33	53,504
842,50	46,955
842,67	47,964
842,84	39,468
843,01	48,150
843,18	52,251
843,35	46,385
843,52	49,893
843,68	57,594
843,85	51,091
844,02	50,477
844,19	42,846
844,36	53,503
844,53	60,841
844,70	55,015
844,87	62,574
845,04	52,105
845,21	46,864
845,37	53,703
845,54	50,198
845,71	47,611
845,88	62,519
846,05	43,919
846,22	48,062
846,39	53,219
846,56	50,683
846,72	38,976
846,89	49,849
847,06	52,766
847,23	55,691
847,40	51,867
847,57	43,479
847,74	65,333
847,90	61,854
848,07	59,948
848,24	47,895
848,41	54,418
848,58	58,437
848,75	52,327
848,92	45,554
849,08	46,045
849,25	46,664
849,42	45,956
849,59	56,994
849,76	53,983
849,93	54,905
850,09	51,683
850,26	44,005
850,43	62,591
850,60	56,758
850,77	50,102
850,94	53,893
851,10	59,544
851,27	49,769
851,44	42,289
851,61	39,454
851,78	51,003
851,95	55,696
852,11	52,347
852,28	58,542
852,45	47,466
852,62	47,087
852,79	52,501
852,95	53,531
853,12	61,877
853,29	41,370
853,46	42,234
853,63	58,923
853,79	56,449
853,96	45,941
854,13	57,789
854,30	35,981
854,46	69,139
854,63	61,462
854,80	55,458
854,97	54,023
855,14	63,453
855,30	55,985
855,47	65,120
855,64	50,446
855,81	42,502
855,97	58,480
856,14	63,800
856,31	51,949
856,48	58,098
856,65	65,271
856,81	43,736
856,98	51,512
857,15	51,679
857,32	73,617
857,48	44,592
857,65	48,437
857,82	67,517
857,99	62,481
858,15	55,043
858,32	43,751
858,49	50,666
858,65	69,855
858,82	52,897
858,99	49,597
859,16	61,844
859,32	62,496
859,49	56,655
859,66	44,134
859,83	58,029
859,99	43,407
860,16	63,712
860,33	38,392
860,49	70,154
860,66	61,155
860,83	56,673
861,00	58,980
861,16	59,378
861,33	72,265
861,50	32,077
861,66	49,645
861,83	59,656
862,00	60,672
862,16	68,154
862,33	47,139
862,50	66,994
862,67	43,414
862,83	45,118
863,00	46,721
863,17	78,862
863,33	60,424
863,50	47,026
863,67	39,682
863,83	45,238
864,00	58,452
864,17	51,207
864,33	52,068
864,50	69,606
864,67	53,413
864,83	67,194
865,00	46,276
865,17	41,805
865,33	58,870
865,50	48,184
865,67	50,535
865,83	50,259
866,00	87,575
866,17	55,240
866,33	50,497
866,50	72,616
866,66	72,113
866,83	59,067
867,00	56,969
867,16	46,146
867,33	68,770
867,50	31,862
867,66	57,896
867,83	83,463
868,00	57,069
868,16	49,868
868,33	34,106
868,49	78,660
868,66	71,052
868,83	61,372
868,99	81,532
869,16	79,848
869,32	66,724
869,49	54,696
869,66	43,736
869,82	65,596
869,99	79,541
870,15	45,330
870,32	70,552
870,49	70,087
870,65	98,254
870,82	68,114
870,98	48,741
871,15	93,734
871,32	64,631
871,48	37,191
871,65	66,932
871,81	57,849
871,98	36,992
872,15	51,280
872,31	52,703
872,48	89,793
872,64	57,897
872,81	32,298
872,97	73,585
873,14	83,319
873,31	65,328
873,47	61,466
873,64	48,877
873,80	65,520
873,97	84,960
874,13	39,942
874,30	58,738
874,46	72,594
874,63	33,233
874,80	58,449
874,96	24,848
875,13	85,982
875,29	56,051
875,46	90,316
875,62	52,544
875,79	63,220
875,95	58,046
876,12	53,386
876,28	47,875
876,45	107,631
876,61	57,148
876,78	60,290
876,94	41,920
877,11	93,169
877,27	65,993
877,44	143,495
877,60	52,939
877,77	66,520
877,94	89,703
878,10	70,345
878,27	67,658
878,43	92,556
878,60	50,628
878,76	54,701
878,93	65,459
879,09	110,126
879,26	88,378
879,42	53,405
879,58	42,576
879,75	80,461
879,91	128,828
880,08	7,235
880,24	30,406
880,41	72,678
880,57	81,918
880,74	39,911
880,90	113,895
881,07	22,308
881,23	56,365
881,40	63,790
881,56	94,002
881,73	95,338
881,89	66,638
882,06	12,115
882,22	103,784
882,38	137,241
882,55	158,544
882,71	70,820
882,88	42,991
883,04	120,865
883,21	162,103
883,37	80,085
883,54	32,818
883,70	149,170
883,86	108,430
884,03	77,443
884,19	47,144
884,36	75,256
884,52	129,532
884,69	-2,987
884,85	37,140
885,01	66,232
885,18	66,901
885,34	180,707
885,51	-7,740
885,67	69,420
>>>>> Data<<<<< Espectral Procesado Extremo
