Fichero De Datos De SpectraSuite
++++++++++++++++++++++++++++++++++++
Fecha: Wed Apr 22 11:00:16 CEST 2009
Usuario: evoflor
Presente Oscuro Del Espectro: Sí
La Referencia de Presente Del Espectro De: Sí
Muestreados de los componentes de Número de espectros: 1
Espectrómetros: USB4F02353
Tiempo de integración (usec): 500000 (USB4F02353)
Promedio de Espectros Hechos un: 5 (USB4F02353)
El Alisar Del Furgón: 0 (USB4F02353)
Párrafo de de Corregir del la del del de Eléctrica del obscuridad: Sí (USB4F02353)
Estrobo/Lámpara Permitido: No (USB4F02353)
Correct for Detector Non-linearity: No (USB4F02353)
Párrafo de de Corregir del la del del de Externa del luz: No (USB4F02353)
Procesado del espectro de Número de pixeles en: 3648
>>>>> Comienza Data<<<<< Espectral Procesado Del EL
177,79	213,004
178,00	213,004
178,22	213,004
178,44	631,978
178,66	-131,061
178,88	169,739
179,09	-8,043
179,31	230,243
179,53	577,059
179,75	298,464
179,96	241,293
180,18	-329,815
180,40	410,159
180,62	511,114
180,83	-88,884
181,05	-440,122
181,27	-72090,000
181,49	-186,065
181,70	93,808
181,92	457,310
182,14	461,114
182,36	73,824
182,58	8,100
182,79	812,009
183,01	-32,608
183,23	265,861
183,45	-52,892
183,66	142,965
183,88	461,118
184,10	-1768,909
184,32	240,817
184,53	66,460
184,75	-238,444
184,97	5,515
185,18	42,124
185,40	-186,490
185,62	103,867
185,84	202,598
186,05	126,057
186,27	-11,208
186,49	1526,538
186,71	44,499
186,92	52,346
187,14	-96,095
187,36	83,486
187,58	133,893
187,79	-31,596
188,01	126,723
188,23	-235,483
188,45	-10,273
188,66	169,152
188,88	-934,364
189,10	-936,900
189,31	-32,406
189,53	-34,325
189,75	49,295
189,97	208,038
190,18	-42,103
190,40	397,588
190,62	-18,363
190,83	-252,315
191,05	164,690
191,27	69,686
191,49	267,550
191,70	-143,221
191,92	-214,322
192,14	-58,428
192,35	518,276
192,57	2908,286
192,79	-15,225
193,01	114,697
193,22	97,530
193,44	35,171
193,66	90,922
193,87	160,150
194,09	-50,044
194,31	35,254
194,53	82,448
194,74	13,210
194,96	41,547
195,18	110,534
195,39	-280,449
195,61	-57,881
195,83	-180,196
196,04	122,896
196,26	-0,452
196,48	40,287
196,70	254,254
196,91	-20,208
197,13	57,190
197,35	62,378
197,56	741,455
197,78	1390,970
198,00	384,545
198,21	319,369
198,43	-628,430
198,65	97,573
198,86	311,115
199,08	97,672
199,30	-32,611
199,51	-23,746
199,73	195,278
199,95	251,955
200,16	332,654
200,38	139,534
200,60	161,897
200,81	264,218
201,03	24,701
201,25	-1323,900
201,46	134,429
201,68	88,303
201,90	1699,773
202,11	-398,817
202,33	139,120
202,55	889,875
202,76	-93,810
202,98	166,516
203,20	-164,856
203,41	56,368
203,63	107,981
203,85	-126090,000
204,06	-139,698
204,28	-0,217
204,50	151,990
204,71	291,148
204,93	-136,080
205,15	89,729
205,36	-19,101
205,58	112,457
205,80	-32,361
206,01	35,221
206,23	128,194
206,45	185,609
206,66	85,329
206,88	-131,748
207,10	67,705
207,31	323,166
207,53	195,686
207,75	65,778
207,96	846,940
208,18	-136,843
208,39	147,695
208,61	3859,714
208,83	-277,635
209,04	133,169
209,26	-294,885
209,48	286,461
209,69	164,177
209,91	222,264
210,13	103,477
210,34	261,719
210,56	129,418
210,77	-1311,732
210,99	74,270
211,21	5352,353
211,42	26,146
211,64	52,287
211,86	252,029
212,07	266,749
212,29	126,645
212,50	111,352
212,72	48,808
212,94	176,611
213,15	138,162
213,37	61,244
213,58	-139,889
213,80	-3024,643
214,02	9799,412
214,23	243,230
214,45	307,180
214,67	-1801,098
214,88	-21,443
215,10	-290,123
215,31	-39,105
215,53	-57,068
215,75	178,591
215,96	1096,211
216,18	-505,775
216,39	184,131
216,61	263,515
216,83	370,045
217,04	1436,966
217,26	-21,629
217,47	155,592
217,69	145,261
217,91	-60,541
218,12	4410,000
218,34	71,319
218,55	121,989
218,77	45,936
218,99	129,950
219,20	-201,056
219,42	332,149
219,63	47,783
219,85	11,110
220,06	180,346
220,28	158,709
220,50	108,205
220,71	59,425
220,93	2446,981
221,14	-1323,900
221,36	159,866
221,58	12,927
221,79	-23,753
222,01	342,155
222,22	1066,382
222,44	-383,258
222,65	31,199
222,87	353,077
223,09	113,805
223,30	100,165
223,52	80,868
223,73	114,912
223,95	26,746
224,16	204,309
224,38	288,128
224,60	91,750
224,81	83,735
225,03	55,606
225,24	139,810
225,46	45,000
225,67	29,463
225,89	9,542
226,10	436,717
226,32	943,920
226,54	23,622
226,75	73,383
226,97	106,508
227,18	64,501
227,40	46,311
227,61	89,060
227,83	-9,775
228,04	48,622
228,26	83,234
228,47	40,110
228,69	135,054
228,91	101,976
229,12	79,476
229,34	24,429
229,55	95,041
229,77	16,457
229,98	0,049
230,20	27,661
230,41	-32,700
230,63	81,679
230,84	50,134
231,06	25,754
231,27	16,588
231,49	50,355
231,71	43,912
231,92	13,725
232,14	26,400
232,35	67,042
232,57	54,381
232,78	23,321
233,00	18,455
233,21	23,979
233,43	17,720
233,64	29,460
233,86	8,187
234,07	-12,985
234,29	17,318
234,50	14,046
234,72	36,954
234,93	-1,006
235,15	8,716
235,36	15,582
235,58	23,508
235,79	44,862
236,01	23,180
236,22	0,495
236,44	44,941
236,65	17,069
236,87	11,475
237,08	13,445
237,30	-0,513
237,51	18,779
237,73	1,517
237,94	4,019
238,16	18,173
238,37	-0,509
238,59	16,817
238,80	8,943
239,02	7,273
239,23	14,978
239,45	-5,361
239,66	16,456
239,88	10,856
240,09	17,008
240,31	-3,298
240,52	9,206
240,74	7,363
240,95	1,998
241,17	7,545
241,38	8,207
241,60	17,753
241,81	12,970
242,03	-3,049
242,24	10,556
242,46	13,243
242,67	3,619
242,89	9,350
243,10	16,772
243,32	18,253
243,53	8,591
243,75	5,665
243,96	4,465
244,18	7,359
244,39	4,556
244,60	6,520
244,82	8,409
245,03	19,076
245,25	5,776
245,46	14,313
245,68	3,145
245,89	6,006
246,11	11,760
246,32	7,363
246,54	2,680
246,75	13,444
246,97	11,527
247,18	19,427
247,39	3,165
247,61	2,482
247,82	-1,141
248,04	6,439
248,25	5,981
248,47	7,264
248,68	9,962
248,90	2,205
249,11	3,754
249,33	13,236
249,54	3,912
249,75	10,011
249,97	5,794
250,18	8,612
250,40	14,874
250,61	-2,850
250,83	2,225
251,04	3,522
251,25	3,877
251,47	0,106
251,68	6,968
251,90	6,688
252,11	10,465
252,33	2,462
252,54	2,859
252,76	5,212
252,97	4,719
253,18	2,386
253,40	-1,703
253,61	0,575
253,83	9,518
254,04	6,825
254,25	7,106
254,47	5,517
254,68	7,639
254,90	6,618
255,11	8,936
255,33	3,475
255,54	3,008
255,75	6,090
255,97	2,042
256,18	1,678
256,40	6,908
256,61	4,554
256,82	-1,050
257,04	9,291
257,25	2,964
257,47	5,190
257,68	3,831
257,89	3,956
258,11	6,384
258,32	4,018
258,54	4,613
258,75	7,292
258,96	9,428
259,18	4,789
259,39	1,465
259,61	7,437
259,82	4,550
260,03	6,861
260,25	2,716
260,46	4,366
260,68	8,762
260,89	2,644
261,10	2,514
261,32	6,254
261,53	5,937
261,75	7,955
261,96	0,711
262,17	8,160
262,39	9,436
262,60	4,357
262,81	1,333
263,03	9,483
263,24	7,579
263,46	0,537
263,67	4,633
263,88	-1,508
264,10	4,327
264,31	2,327
264,52	8,331
264,74	9,970
264,95	4,215
265,17	4,943
265,38	5,531
265,59	5,602
265,81	5,868
266,02	-1,748
266,23	3,610
266,45	9,060
266,66	11,075
266,87	5,178
267,09	-0,434
267,30	7,536
267,52	6,219
267,73	4,427
267,94	6,287
268,16	7,206
268,37	2,165
268,58	4,716
268,80	3,140
269,01	3,906
269,22	3,661
269,44	3,422
269,65	4,257
269,86	0,764
270,08	6,512
270,29	1,215
270,50	4,792
270,72	7,751
270,93	2,953
271,14	2,049
271,36	4,589
271,57	5,773
271,78	6,681
272,00	5,110
272,21	7,892
272,42	7,448
272,64	6,369
272,85	1,690
273,06	0,344
273,28	7,427
273,49	4,812
273,70	8,919
273,92	2,710
274,13	5,784
274,34	6,476
274,56	6,132
274,77	2,674
274,98	6,306
275,20	5,316
275,41	3,993
275,62	3,340
275,84	4,355
276,05	7,127
276,26	5,963
276,47	4,707
276,69	7,458
276,90	6,169
277,11	2,856
277,33	2,917
277,54	4,041
277,75	5,088
277,97	1,204
278,18	4,204
278,39	5,134
278,61	2,762
278,82	6,618
279,03	5,778
279,24	4,436
279,46	1,898
279,67	8,107
279,88	4,983
280,10	9,716
280,31	0,424
280,52	5,661
280,73	1,651
280,95	4,762
281,16	4,292
281,37	4,697
281,59	5,724
281,80	6,948
282,01	3,922
282,22	1,779
282,44	3,073
282,65	6,936
282,86	9,680
283,08	2,832
283,29	5,306
283,50	3,638
283,71	5,504
283,93	4,434
284,14	8,994
284,35	2,241
284,56	7,499
284,78	2,052
284,99	4,137
285,20	6,022
285,42	5,928
285,63	1,920
285,84	2,157
286,05	3,806
286,27	3,837
286,48	2,531
286,69	2,575
286,90	3,751
287,12	4,189
287,33	2,408
287,54	2,201
287,75	6,231
287,97	4,389
288,18	4,485
288,39	3,158
288,60	2,694
288,82	3,189
289,03	2,695
289,24	6,509
289,45	7,005
289,67	4,141
289,88	1,139
290,09	3,319
290,30	3,361
290,52	3,253
290,73	4,148
290,94	2,339
291,15	4,689
291,37	4,335
291,58	4,205
291,79	5,154
292,00	6,797
292,21	4,953
292,43	4,542
292,64	-0,602
292,85	1,877
293,06	5,292
293,28	2,789
293,49	1,507
293,70	4,977
293,91	2,045
294,12	3,308
294,34	4,600
294,55	5,603
294,76	3,425
294,97	5,665
295,19	0,352
295,40	4,756
295,61	7,227
295,82	0,080
296,03	3,447
296,25	5,005
296,46	3,224
296,67	1,111
296,88	0,812
297,09	7,963
297,31	1,476
297,52	3,764
297,73	2,923
297,94	6,749
298,15	4,153
298,37	3,804
298,58	7,739
298,79	5,306
299,00	0,734
299,21	4,744
299,43	1,704
299,64	8,314
299,85	3,578
300,06	1,984
300,27	3,271
300,49	5,980
300,70	3,756
300,91	4,047
301,12	4,278
301,33	7,182
301,54	3,180
301,76	4,469
301,97	1,748
302,18	2,615
302,39	7,936
302,60	4,430
302,82	2,164
303,03	6,917
303,24	5,550
303,45	4,978
303,66	5,840
303,87	4,616
304,09	5,958
304,30	2,797
304,51	3,700
304,72	2,402
304,93	6,571
305,14	3,482
305,36	0,149
305,57	0,803
305,78	3,397
305,99	3,786
306,20	3,027
306,41	4,103
306,62	3,833
306,84	0,822
307,05	0,639
307,26	4,145
307,47	6,435
307,68	3,428
307,89	1,981
308,11	5,005
308,32	3,133
308,53	2,333
308,74	0,643
308,95	3,535
309,16	6,460
309,37	4,949
309,59	3,549
309,80	5,594
310,01	4,175
310,22	5,752
310,43	2,029
310,64	4,085
310,85	4,747
311,06	2,673
311,28	4,788
311,49	1,479
311,70	7,087
311,91	2,479
312,12	5,025
312,33	4,233
312,54	4,655
312,75	2,175
312,97	4,331
313,18	6,175
313,39	3,630
313,60	3,097
313,81	5,553
314,02	4,940
314,23	4,453
314,44	3,593
314,65	3,749
314,87	2,936
315,08	2,896
315,29	7,190
315,50	3,563
315,71	4,560
315,92	3,799
316,13	3,865
316,34	4,952
316,55	4,792
316,77	0,507
316,98	2,214
317,19	3,362
317,40	4,285
317,61	4,719
317,82	2,614
318,03	4,169
318,24	2,683
318,45	6,490
318,66	3,891
318,87	2,714
319,09	5,122
319,30	2,880
319,51	5,213
319,72	4,658
319,93	7,260
320,14	5,262
320,35	2,797
320,56	3,056
320,77	1,679
320,98	8,881
321,19	2,267
321,40	4,194
321,62	3,683
321,83	3,494
322,04	4,314
322,25	4,191
322,46	8,747
322,67	5,061
322,88	4,587
323,09	3,490
323,30	4,490
323,51	5,798
323,72	5,422
323,93	2,604
324,14	1,658
324,35	0,743
324,56	3,087
324,77	2,082
324,99	3,676
325,20	-1,086
325,41	6,600
325,62	4,866
325,83	1,055
326,04	2,381
326,25	5,315
326,46	2,423
326,67	3,659
326,88	5,875
327,09	5,224
327,30	2,946
327,51	5,568
327,72	3,908
327,93	6,721
328,14	1,675
328,35	5,268
328,56	5,305
328,77	4,280
328,98	5,477
329,19	4,329
329,40	3,850
329,61	1,515
329,82	0,648
330,04	3,877
330,25	4,365
330,46	2,276
330,67	4,272
330,88	5,429
331,09	2,730
331,30	4,406
331,51	5,191
331,72	3,669
331,93	4,330
332,14	2,651
332,35	5,471
332,56	3,543
332,77	5,498
332,98	2,997
333,19	3,524
333,40	4,233
333,61	4,738
333,82	6,341
334,03	6,728
334,24	4,479
334,45	4,185
334,66	5,670
334,87	4,271
335,08	1,328
335,29	4,323
335,50	0,833
335,71	4,250
335,92	4,288
336,13	5,580
336,34	2,687
336,55	6,445
336,76	5,734
336,97	4,690
337,18	0,266
337,39	4,653
337,60	5,627
337,81	4,496
338,02	4,192
338,23	2,845
338,44	3,653
338,65	5,665
338,86	6,516
339,07	3,623
339,28	3,329
339,49	4,308
339,70	0,954
339,91	5,964
340,11	6,342
340,32	1,143
340,53	2,120
340,74	0,858
340,95	2,680
341,16	7,334
341,37	6,360
341,58	1,193
341,79	2,639
342,00	5,025
342,21	5,746
342,42	3,323
342,63	2,401
342,84	1,022
343,05	4,992
343,26	5,446
343,47	4,351
343,68	1,357
343,89	2,114
344,10	4,776
344,31	5,940
344,52	4,042
344,73	3,606
344,94	6,688
345,14	4,828
345,35	7,669
345,56	1,771
345,77	4,661
345,98	5,517
346,19	4,532
346,40	2,810
346,61	4,823
346,82	2,875
347,03	3,494
347,24	4,658
347,45	1,711
347,66	5,808
347,87	2,182
348,08	5,692
348,28	-0,140
348,49	5,035
348,70	5,973
348,91	4,123
349,12	-0,938
349,33	15,923
349,54	3,588
349,75	4,440
349,96	3,908
350,17	4,205
350,38	-0,728
350,59	5,594
350,80	3,611
351,00	4,208
351,21	7,236
351,42	5,969
351,63	-0,363
351,84	3,364
352,05	4,002
352,26	2,917
352,47	2,631
352,68	4,902
352,89	5,357
353,09	3,205
353,30	3,223
353,51	5,635
353,72	8,043
353,93	7,747
354,14	0,065
354,35	1,956
354,56	6,248
354,77	0,982
354,98	0,810
355,18	3,941
355,39	9,723
355,60	1,042
355,81	3,846
356,02	3,854
356,23	5,797
356,44	4,111
356,65	4,309
356,85	9,009
357,06	5,453
357,27	6,196
357,48	0,483
357,69	5,190
357,90	3,067
358,11	2,005
358,32	1,137
358,52	6,695
358,73	4,316
358,94	3,145
359,15	4,004
359,36	5,488
359,57	4,554
359,78	3,168
359,98	4,777
360,19	2,443
360,40	4,145
360,61	3,424
360,82	0,707
361,03	6,152
361,24	5,978
361,44	1,122
361,65	4,514
361,86	4,547
362,07	4,983
362,28	3,784
362,49	1,524
362,70	4,002
362,90	5,907
363,11	3,266
363,32	2,962
363,53	2,173
363,74	4,301
363,95	7,577
364,15	2,890
364,36	6,315
364,57	5,139
364,78	4,520
364,99	4,838
365,20	6,077
365,40	4,124
365,61	3,386
365,82	5,196
366,03	2,287
366,24	6,018
366,45	3,716
366,65	6,150
366,86	2,440
367,07	2,712
367,28	3,291
367,49	4,486
367,69	8,273
367,90	3,945
368,11	4,472
368,32	1,010
368,53	6,305
368,73	7,186
368,94	2,043
369,15	4,119
369,36	6,620
369,57	2,789
369,78	5,186
369,98	3,590
370,19	7,445
370,40	1,627
370,61	2,738
370,82	5,414
371,02	5,659
371,23	7,040
371,44	5,559
371,65	4,499
371,85	8,664
372,06	2,722
372,27	0,988
372,48	6,639
372,69	5,790
372,89	2,512
373,10	3,067
373,31	5,214
373,52	2,056
373,73	7,715
373,93	3,241
374,14	2,133
374,35	7,238
374,56	7,366
374,76	7,509
374,97	3,947
375,18	3,963
375,39	5,170
375,60	3,289
375,80	7,093
376,01	2,098
376,22	0,839
376,43	3,250
376,63	5,234
376,84	3,067
377,05	5,131
377,26	2,849
377,46	-0,658
377,67	4,076
377,88	6,733
378,09	6,936
378,29	3,678
378,50	5,578
378,71	4,553
378,92	2,327
379,12	6,874
379,33	4,175
379,54	4,642
379,75	4,897
379,95	1,028
380,16	5,821
380,37	4,222
380,58	3,500
380,78	4,675
380,99	4,986
381,20	3,515
381,41	5,123
381,61	6,118
381,82	4,143
382,03	1,899
382,24	7,597
382,44	1,840
382,65	4,383
382,86	5,771
383,06	0,666
383,27	3,712
383,48	3,954
383,69	6,883
383,89	3,434
384,10	4,418
384,31	3,359
384,51	7,415
384,72	8,515
384,93	6,186
385,14	6,239
385,34	6,709
385,55	5,863
385,76	1,907
385,96	5,364
386,17	7,957
386,38	6,814
386,59	6,223
386,79	6,202
387,00	7,382
387,21	7,847
387,41	6,546
387,62	5,485
387,83	7,185
388,03	6,049
388,24	3,468
388,45	8,944
388,66	6,493
388,86	6,447
389,07	4,268
389,28	10,729
389,48	7,370
389,69	6,703
389,90	5,379
390,10	9,711
390,31	10,695
390,52	1,165
390,72	4,963
390,93	7,826
391,14	5,779
391,34	6,089
391,55	6,790
391,76	12,703
391,96	10,000
392,17	7,165
392,38	4,652
392,58	5,158
392,79	9,051
393,00	5,678
393,20	4,753
393,41	7,438
393,62	8,323
393,82	11,222
394,03	6,245
394,24	10,203
394,44	10,927
394,65	11,871
394,86	8,898
395,06	9,658
395,27	5,323
395,48	7,963
395,68	10,351
395,89	10,814
396,10	11,573
396,30	6,843
396,51	5,350
396,72	9,603
396,92	7,122
397,13	11,984
397,34	6,599
397,54	12,315
397,75	10,754
397,95	8,120
398,16	11,248
398,37	8,371
398,57	9,630
398,78	11,718
398,99	14,524
399,19	12,491
399,40	13,474
399,60	11,641
399,81	14,309
400,02	13,279
400,22	14,036
400,43	9,599
400,64	13,020
400,84	11,818
401,05	12,659
401,25	14,031
401,46	14,721
401,67	13,891
401,87	12,018
402,08	14,810
402,29	11,141
402,49	12,766
402,70	14,982
402,90	11,759
403,11	13,264
403,32	18,073
403,52	14,400
403,73	16,616
403,93	17,503
404,14	17,539
404,35	14,794
404,55	14,992
404,76	14,089
404,96	14,872
405,17	18,451
405,38	17,934
405,58	15,961
405,79	14,788
405,99	18,302
406,20	14,852
406,40	13,928
406,61	17,535
406,82	14,964
407,02	18,557
407,23	15,653
407,43	17,509
407,64	18,601
407,85	16,169
408,05	12,649
408,26	25,487
408,46	24,743
408,67	16,058
408,87	17,467
409,08	18,602
409,29	18,429
409,49	23,124
409,70	19,395
409,90	21,530
410,11	19,805
410,31	21,300
410,52	20,723
410,72	16,332
410,93	19,349
411,14	20,777
411,34	20,083
411,55	23,516
411,75	23,569
411,96	23,630
412,16	21,189
412,37	17,992
412,57	23,079
412,78	21,757
412,99	21,603
413,19	23,844
413,40	23,062
413,60	22,433
413,81	19,962
414,01	23,666
414,22	22,405
414,42	20,620
414,63	20,276
414,83	23,389
415,04	24,703
415,24	22,888
415,45	20,114
415,65	22,382
415,86	25,015
416,07	22,251
416,27	25,458
416,48	25,431
416,68	23,877
416,89	19,946
417,09	21,732
417,30	25,592
417,50	24,794
417,71	23,180
417,91	22,898
418,12	21,603
418,32	24,633
418,53	23,194
418,73	23,626
418,94	25,380
419,14	22,155
419,35	24,080
419,55	24,701
419,76	25,244
419,96	20,426
420,17	22,848
420,37	24,960
420,58	25,088
420,78	28,088
420,99	26,626
421,19	23,128
421,40	25,527
421,60	27,559
421,81	25,046
422,01	29,333
422,22	23,840
422,42	27,706
422,63	26,533
422,83	25,876
423,04	30,901
423,24	28,353
423,45	22,686
423,65	31,498
423,86	28,949
424,06	25,895
424,27	25,657
424,47	25,396
424,67	21,549
424,88	29,218
425,08	26,266
425,29	32,112
425,49	26,283
425,70	22,429
425,90	31,848
426,11	23,770
426,31	25,626
426,52	27,769
426,72	22,251
426,93	25,605
427,13	27,434
427,33	25,528
427,54	27,147
427,74	27,284
427,95	31,192
428,15	24,677
428,36	29,383
428,56	25,349
428,77	28,898
428,97	26,736
429,18	27,323
429,38	24,856
429,58	32,538
429,79	27,231
429,99	26,828
430,20	23,140
430,40	29,453
430,61	25,877
430,81	24,632
431,01	27,230
431,22	29,877
431,42	31,503
431,63	23,369
431,83	29,232
432,04	31,595
432,24	29,920
432,44	32,313
432,65	24,805
432,85	26,639
433,06	29,084
433,26	27,847
433,47	22,958
433,67	24,988
433,87	30,442
434,08	23,212
434,28	26,531
434,49	25,146
434,69	27,656
434,89	24,064
435,10	25,840
435,30	27,065
435,51	25,092
435,71	26,733
435,91	24,407
436,12	27,017
436,32	27,402
436,53	27,106
436,73	25,768
436,93	30,317
437,14	27,225
437,34	26,001
437,55	28,561
437,75	32,140
437,95	27,958
438,16	28,637
438,36	26,383
438,57	29,232
438,77	29,160
438,97	29,017
439,18	31,161
439,38	25,793
439,58	25,373
439,79	28,430
439,99	23,567
440,20	28,639
440,40	26,633
440,60	28,982
440,81	31,648
441,01	28,246
441,21	29,794
441,42	30,232
441,62	26,689
441,83	29,014
442,03	29,572
442,23	28,087
442,44	28,602
442,64	29,557
442,84	23,071
443,05	28,121
443,25	26,093
443,45	26,150
443,66	29,589
443,86	27,748
444,06	26,001
444,27	25,749
444,47	27,429
444,67	25,676
444,88	29,340
445,08	30,424
445,28	30,124
445,49	24,977
445,69	26,532
445,90	29,152
446,10	27,198
446,30	31,615
446,51	29,958
446,71	32,125
446,91	33,168
447,12	32,282
447,32	25,635
447,52	28,291
447,72	25,616
447,93	28,391
448,13	26,900
448,33	31,972
448,54	28,604
448,74	25,122
448,94	30,975
449,15	33,037
449,35	28,083
449,55	28,832
449,76	34,695
449,96	34,777
450,16	32,447
450,37	28,599
450,57	27,485
450,77	25,671
450,98	30,712
451,18	25,832
451,38	32,043
451,58	28,883
451,79	27,774
451,99	28,631
452,19	28,647
452,40	24,654
452,60	29,895
452,80	30,633
453,00	31,576
453,21	35,944
453,41	31,606
453,61	29,271
453,82	34,200
454,02	29,137
454,22	36,038
454,42	35,742
454,63	26,023
454,83	30,009
455,03	31,564
455,24	29,818
455,44	29,447
455,64	30,301
455,84	30,099
456,05	26,997
456,25	29,067
456,45	31,234
456,65	28,999
456,86	31,972
457,06	29,724
457,26	33,352
457,47	31,206
457,67	27,271
457,87	29,856
458,07	28,133
458,28	34,916
458,48	27,301
458,68	24,804
458,88	28,484
459,09	30,073
459,29	31,597
459,49	31,650
459,69	26,853
459,90	33,807
460,10	29,926
460,30	33,568
460,50	29,180
460,71	33,155
460,91	26,159
461,11	28,643
461,31	27,282
461,52	32,404
461,72	27,514
461,92	28,630
462,12	36,351
462,32	23,474
462,53	27,095
462,73	26,776
462,93	31,483
463,13	30,282
463,34	33,389
463,54	29,055
463,74	28,702
463,94	29,518
464,14	29,496
464,35	22,303
464,55	31,650
464,75	28,765
464,95	33,020
465,16	24,808
465,36	28,784
465,56	27,268
465,76	24,308
465,96	29,597
466,17	29,519
466,37	27,423
466,57	32,034
466,77	27,334
466,97	27,204
467,18	30,074
467,38	30,102
467,58	32,057
467,78	32,843
467,98	32,534
468,19	31,358
468,39	32,455
468,59	34,653
468,79	30,089
468,99	28,333
469,19	25,318
469,40	33,766
469,60	20,879
469,80	27,971
470,00	30,570
470,20	28,576
470,41	29,460
470,61	27,801
470,81	27,649
471,01	30,064
471,21	30,714
471,41	28,273
471,62	27,860
471,82	26,194
472,02	25,672
472,22	30,674
472,42	28,640
472,62	31,719
472,83	29,601
473,03	30,769
473,23	26,655
473,43	33,011
473,63	28,318
473,83	28,250
474,03	28,100
474,24	32,699
474,44	29,486
474,64	27,518
474,84	24,187
475,04	28,988
475,24	31,288
475,45	27,583
475,65	25,978
475,85	30,751
476,05	25,728
476,25	29,566
476,45	29,071
476,65	33,647
476,85	29,807
477,06	27,127
477,26	27,093
477,46	29,711
477,66	30,485
477,86	26,935
478,06	27,192
478,26	31,514
478,46	30,151
478,67	27,767
478,87	24,684
479,07	27,744
479,27	28,649
479,47	27,892
479,67	26,676
479,87	24,289
480,07	28,519
480,28	25,384
480,48	26,648
480,68	26,973
480,88	31,649
481,08	28,082
481,28	29,235
481,48	27,165
481,68	27,661
481,88	27,678
482,08	24,607
482,29	29,349
482,49	24,491
482,69	30,623
482,89	28,522
483,09	26,759
483,29	25,543
483,49	23,483
483,69	27,906
483,89	26,050
484,09	24,719
484,29	25,170
484,50	26,313
484,70	28,699
484,90	25,327
485,10	26,857
485,30	28,231
485,50	27,939
485,70	25,521
485,90	24,015
486,10	22,889
486,30	24,567
486,50	26,743
486,70	24,766
486,90	26,281
487,10	26,914
487,30	25,805
487,51	26,894
487,71	24,986
487,91	25,826
488,11	27,228
488,31	23,626
488,51	27,898
488,71	24,764
488,91	27,421
489,11	22,857
489,31	25,468
489,51	23,006
489,71	25,027
489,91	23,627
490,11	24,949
490,31	24,664
490,51	24,641
490,71	26,789
490,91	25,334
491,11	27,639
491,31	24,889
491,51	23,052
491,72	26,197
491,92	27,387
492,12	26,155
492,32	27,370
492,52	28,336
492,72	28,507
492,92	24,445
493,12	26,191
493,32	24,705
493,52	23,428
493,72	24,744
493,92	26,382
494,12	26,639
494,32	25,114
494,52	22,848
494,72	26,801
494,92	24,528
495,12	25,507
495,32	26,685
495,52	22,786
495,72	26,823
495,92	28,467
496,12	27,396
496,32	25,729
496,52	26,002
496,72	24,374
496,92	26,463
497,12	23,989
497,32	26,066
497,52	24,887
497,72	24,957
497,92	25,690
498,12	24,051
498,32	25,141
498,52	22,487
498,72	25,117
498,92	23,126
499,12	26,345
499,32	21,911
499,52	27,585
499,72	25,887
499,92	24,918
500,12	26,589
500,32	26,911
500,52	24,115
500,72	30,182
500,91	27,663
501,11	25,014
501,31	21,634
501,51	25,014
501,71	25,352
501,91	25,367
502,11	22,889
502,31	23,075
502,51	26,374
502,71	23,308
502,91	24,765
503,11	25,184
503,31	22,714
503,51	22,233
503,71	24,263
503,91	29,152
504,11	24,498
504,31	24,986
504,51	24,248
504,71	25,127
504,91	23,886
505,10	24,105
505,30	23,030
505,50	23,692
505,70	22,523
505,90	22,830
506,10	22,210
506,30	22,151
506,50	24,331
506,70	26,883
506,90	24,908
507,10	25,487
507,30	24,921
507,50	23,855
507,70	25,033
507,89	23,275
508,09	23,536
508,29	26,770
508,49	24,792
508,69	23,641
508,89	21,753
509,09	21,369
509,29	23,611
509,49	25,845
509,69	26,626
509,89	22,674
510,09	23,378
510,28	24,087
510,48	23,338
510,68	19,806
510,88	19,526
511,08	22,182
511,28	22,036
511,48	19,562
511,68	20,164
511,88	19,973
512,07	23,033
512,27	25,183
512,47	21,574
512,67	22,013
512,87	20,727
513,07	23,814
513,27	19,727
513,47	21,682
513,67	18,923
513,86	23,738
514,06	24,884
514,26	22,333
514,46	24,739
514,66	22,887
514,86	21,817
515,06	26,874
515,26	21,486
515,45	21,070
515,65	19,492
515,85	24,064
516,05	18,846
516,25	20,058
516,45	22,995
516,65	20,881
516,84	22,621
517,04	23,866
517,24	21,161
517,44	21,497
517,64	23,624
517,84	22,915
518,04	23,586
518,23	21,022
518,43	23,120
518,63	18,640
518,83	19,939
519,03	21,769
519,23	20,143
519,42	20,241
519,62	20,493
519,82	20,778
520,02	20,981
520,22	17,357
520,42	21,421
520,61	22,577
520,81	23,308
521,01	22,577
521,21	17,938
521,41	19,563
521,61	23,071
521,80	18,425
522,00	20,916
522,20	20,553
522,40	24,249
522,60	20,038
522,79	18,755
522,99	22,525
523,19	17,500
523,39	18,130
523,59	18,510
523,78	23,589
523,98	19,475
524,18	19,073
524,38	19,190
524,58	21,166
524,77	22,829
524,97	17,717
525,17	17,443
525,37	18,706
525,57	20,044
525,76	20,738
525,96	20,008
526,16	18,613
526,36	18,966
526,56	20,304
526,75	17,350
526,95	20,292
527,15	19,658
527,35	18,593
527,55	19,478
527,74	21,321
527,94	17,487
528,14	16,936
528,34	20,617
528,53	18,093
528,73	20,715
528,93	17,864
529,13	19,422
529,32	16,873
529,52	22,270
529,72	16,649
529,92	17,426
530,12	17,961
530,31	14,507
530,51	19,383
530,71	17,629
530,91	18,984
531,10	15,812
531,30	18,616
531,50	15,341
531,70	17,506
531,89	15,602
532,09	16,224
532,29	15,895
532,49	19,578
532,68	18,283
532,88	17,168
533,08	15,005
533,28	16,748
533,47	17,812
533,67	18,094
533,87	15,406
534,06	19,406
534,26	16,252
534,46	15,321
534,66	17,911
534,85	19,713
535,05	14,299
535,25	15,455
535,45	15,269
535,64	17,922
535,84	14,803
536,04	17,611
536,23	19,414
536,43	18,360
536,63	16,076
536,83	18,289
537,02	13,718
537,22	16,442
537,42	17,556
537,61	16,935
537,81	17,801
538,01	17,550
538,20	17,074
538,40	14,761
538,60	15,922
538,80	16,283
538,99	15,659
539,19	15,032
539,39	14,083
539,58	16,672
539,78	14,787
539,98	14,603
540,17	14,887
540,37	14,824
540,57	12,615
540,76	14,271
540,96	14,107
541,16	15,519
541,36	12,488
541,55	11,129
541,75	12,043
541,95	13,702
542,14	11,430
542,34	11,292
542,54	12,233
542,73	12,966
542,93	12,108
543,13	11,471
543,32	12,973
543,52	13,029
543,72	11,323
543,91	12,437
544,11	11,025
544,31	10,684
544,50	12,436
544,70	10,809
544,89	13,479
545,09	13,842
545,29	11,346
545,48	12,099
545,68	12,105
545,88	13,027
546,07	10,740
546,27	12,431
546,47	13,703
546,66	14,785
546,86	14,076
547,06	11,992
547,25	12,930
547,45	14,837
547,64	13,854
547,84	18,206
548,04	13,576
548,23	13,666
548,43	14,277
548,63	14,756
548,82	15,714
549,02	14,026
549,21	13,000
549,41	13,475
549,61	14,690
549,80	14,013
550,00	15,443
550,20	13,631
550,39	16,390
550,59	12,635
550,78	17,043
550,98	10,664
551,18	14,624
551,37	16,576
551,57	14,536
551,76	15,184
551,96	14,364
552,16	14,798
552,35	14,387
552,55	15,530
552,74	15,867
552,94	14,878
553,14	13,631
553,33	14,248
553,53	11,273
553,72	15,468
553,92	15,158
554,12	14,225
554,31	15,442
554,51	15,894
554,70	14,079
554,90	15,864
555,09	16,094
555,29	15,773
555,49	14,927
555,68	17,593
555,88	14,692
556,07	12,887
556,27	13,739
556,46	15,890
556,66	13,266
556,86	15,866
557,05	14,991
557,25	11,954
557,44	13,799
557,64	13,394
557,83	13,794
558,03	13,860
558,22	14,581
558,42	15,231
558,62	17,914
558,81	15,076
559,01	13,740
559,20	15,761
559,40	13,495
559,59	15,772
559,79	15,080
559,98	16,146
560,18	13,730
560,37	14,763
560,57	19,427
560,76	14,053
560,96	15,013
561,16	16,806
561,35	15,935
561,55	18,468
561,74	14,876
561,94	14,094
562,13	14,761
562,33	18,274
562,52	15,256
562,72	12,733
562,91	15,581
563,11	14,457
563,30	15,448
563,50	10,322
563,69	13,090
563,89	12,522
564,08	15,336
564,28	13,033
564,47	15,068
564,67	12,966
564,86	13,935
565,06	13,432
565,25	14,848
565,45	14,583
565,64	16,933
565,84	15,415
566,03	13,973
566,23	15,365
566,42	14,397
566,62	14,613
566,81	13,880
567,01	13,621
567,20	15,362
567,40	13,114
567,59	14,103
567,79	14,661
567,98	17,183
568,18	15,887
568,37	15,974
568,57	14,917
568,76	17,438
568,96	15,161
569,15	15,086
569,35	15,661
569,54	16,207
569,73	16,117
569,93	15,129
570,12	14,934
570,32	16,524
570,51	15,417
570,71	15,065
570,90	17,081
571,10	15,389
571,29	13,828
571,49	13,990
571,68	17,118
571,87	16,013
572,07	14,971
572,26	14,665
572,46	16,208
572,65	15,571
572,85	13,588
573,04	14,442
573,24	14,829
573,43	17,599
573,62	16,620
573,82	15,678
574,01	15,501
574,21	15,774
574,40	14,037
574,60	13,731
574,79	19,171
574,98	14,568
575,18	17,225
575,37	16,065
575,57	16,496
575,76	16,346
575,96	15,385
576,15	15,611
576,34	15,368
576,54	16,588
576,73	17,471
576,93	16,342
577,12	16,587
577,31	16,252
577,51	14,515
577,70	14,342
577,90	17,034
578,09	13,544
578,28	15,864
578,48	14,685
578,67	16,538
578,87	16,831
579,06	15,483
579,25	16,913
579,45	16,286
579,64	15,488
579,84	16,431
580,03	16,637
580,22	17,609
580,42	15,976
580,61	17,541
580,81	17,895
581,00	18,377
581,19	16,899
581,39	17,386
581,58	16,743
581,77	18,025
581,97	18,028
582,16	17,075
582,35	15,850
582,55	17,908
582,74	19,582
582,94	17,352
583,13	17,540
583,32	18,649
583,52	18,383
583,71	18,032
583,90	18,227
584,10	16,927
584,29	18,856
584,48	17,722
584,68	20,121
584,87	19,281
585,06	18,338
585,26	18,750
585,45	17,999
585,65	19,752
585,84	19,030
586,03	19,266
586,23	17,804
586,42	18,841
586,61	20,522
586,81	20,586
587,00	20,023
587,19	18,086
587,39	22,318
587,58	19,785
587,77	20,088
587,97	20,539
588,16	18,724
588,35	18,959
588,54	21,126
588,74	19,536
588,93	20,217
589,12	20,897
589,32	20,073
589,51	21,051
589,70	18,707
589,90	19,247
590,09	21,094
590,28	23,794
590,48	20,402
590,67	22,272
590,86	21,953
591,06	21,711
591,25	22,589
591,44	21,497
591,63	20,607
591,83	24,026
592,02	21,641
592,21	21,684
592,41	22,180
592,60	22,095
592,79	23,009
592,98	21,949
593,18	21,922
593,37	22,418
593,56	23,847
593,76	23,063
593,95	22,892
594,14	22,008
594,33	26,329
594,53	22,983
594,72	24,156
594,91	26,180
595,10	26,045
595,30	25,045
595,49	23,039
595,68	23,476
595,88	24,268
596,07	25,963
596,26	25,322
596,45	25,663
596,65	23,663
596,84	23,455
597,03	24,366
597,22	24,459
597,42	26,564
597,61	25,875
597,80	25,394
597,99	25,613
598,19	25,810
598,38	25,808
598,57	23,510
598,76	27,050
598,95	27,424
599,15	27,067
599,34	26,256
599,53	25,759
599,72	26,972
599,92	26,876
600,11	27,318
600,30	28,806
600,49	27,534
600,69	26,577
600,88	27,156
601,07	28,129
601,26	27,899
601,45	27,113
601,65	26,922
601,84	26,545
602,03	27,282
602,22	28,757
602,42	27,201
602,61	27,093
602,80	28,863
602,99	30,026
603,18	27,036
603,38	29,268
603,57	27,218
603,76	28,165
603,95	28,112
604,14	29,068
604,34	28,755
604,53	29,111
604,72	29,231
604,91	28,672
605,10	30,034
605,29	29,377
605,49	26,600
605,68	29,001
605,87	31,013
606,06	28,191
606,25	28,612
606,45	29,418
606,64	28,947
606,83	30,821
607,02	28,876
607,21	30,297
607,40	29,810
607,60	28,212
607,79	28,842
607,98	25,997
608,17	29,150
608,36	28,480
608,55	29,613
608,75	30,368
608,94	29,732
609,13	26,537
609,32	27,776
609,51	27,168
609,70	27,550
609,89	26,829
610,09	27,725
610,28	28,774
610,47	26,757
610,66	26,405
610,85	25,971
611,04	28,743
611,23	26,856
611,43	27,301
611,62	26,626
611,81	28,555
612,00	28,510
612,19	26,893
612,38	28,677
612,57	27,759
612,77	28,321
612,96	29,015
613,15	28,339
613,34	30,351
613,53	29,687
613,72	30,041
613,91	28,754
614,10	29,708
614,29	32,455
614,49	29,205
614,68	29,962
614,87	33,048
615,06	32,558
615,25	31,358
615,44	33,670
615,63	32,311
615,82	31,330
616,01	32,076
616,21	32,328
616,40	33,011
616,59	33,742
616,78	32,212
616,97	33,133
617,16	34,731
617,35	34,247
617,54	34,006
617,73	33,947
617,92	32,901
618,11	36,065
618,31	33,225
618,50	34,455
618,69	33,440
618,88	33,426
619,07	33,373
619,26	31,765
619,45	32,348
619,64	33,904
619,83	33,335
620,02	32,234
620,21	34,937
620,40	36,912
620,59	32,718
620,78	32,971
620,97	36,025
621,17	34,233
621,36	34,224
621,55	33,223
621,74	34,423
621,93	34,601
622,12	34,661
622,31	33,153
622,50	34,418
622,69	36,178
622,88	36,407
623,07	36,578
623,26	35,401
623,45	36,881
623,64	35,494
623,83	35,501
624,02	35,956
624,21	37,005
624,40	36,738
624,59	34,388
624,78	36,993
624,97	38,442
625,16	34,815
625,35	33,307
625,54	36,232
625,73	36,030
625,92	35,791
626,12	37,317
626,31	37,469
626,50	37,233
626,69	38,373
626,88	35,709
627,07	36,840
627,26	37,174
627,45	35,347
627,64	36,034
627,83	38,209
628,02	36,507
628,21	34,607
628,40	35,509
628,59	37,197
628,78	34,945
628,97	35,752
629,16	36,152
629,35	35,943
629,54	38,312
629,73	35,724
629,92	35,283
630,10	37,286
630,29	36,965
630,48	36,520
630,67	36,214
630,86	37,527
631,05	37,314
631,24	37,833
631,43	36,500
631,62	37,622
631,81	37,134
632,00	36,368
632,19	36,569
632,38	37,944
632,57	38,507
632,76	39,209
632,95	40,096
633,14	41,027
633,33	37,092
633,52	38,747
633,71	37,601
633,90	37,154
634,09	38,105
634,28	39,311
634,47	37,991
634,66	37,429
634,85	39,739
635,04	41,041
635,22	38,477
635,41	38,424
635,60	39,010
635,79	38,558
635,98	36,879
636,17	38,714
636,36	38,256
636,55	37,367
636,74	37,628
636,93	39,575
637,12	39,931
637,31	37,973
637,50	37,257
637,69	39,643
637,87	38,943
638,06	38,935
638,25	39,648
638,44	40,972
638,63	38,295
638,82	38,752
639,01	39,354
639,20	38,761
639,39	41,818
639,58	39,206
639,77	40,891
639,95	38,670
640,14	39,486
640,33	39,136
640,52	40,052
640,71	39,779
640,90	39,962
641,09	39,827
641,28	39,332
641,47	38,690
641,66	38,834
641,84	38,849
642,03	38,090
642,22	38,359
642,41	41,033
642,60	39,201
642,79	39,643
642,98	40,599
643,17	37,962
643,35	38,378
643,54	40,818
643,73	39,474
643,92	40,123
644,11	38,998
644,30	37,947
644,49	41,180
644,67	39,864
644,86	37,547
645,05	41,603
645,24	40,437
645,43	38,483
645,62	39,441
645,81	39,970
645,99	40,272
646,18	39,282
646,37	39,595
646,56	38,590
646,75	39,563
646,94	42,486
647,13	40,150
647,31	39,932
647,50	40,568
647,69	40,532
647,88	40,305
648,07	40,664
648,26	41,622
648,44	40,466
648,63	38,622
648,82	40,448
649,01	41,157
649,20	38,204
649,38	38,870
649,57	40,247
649,76	38,665
649,95	39,859
650,14	38,097
650,33	39,489
650,51	39,530
650,70	40,927
650,89	39,196
651,08	39,267
651,27	40,663
651,45	38,997
651,64	38,418
651,83	39,407
652,02	38,528
652,21	41,017
652,39	39,165
652,58	40,289
652,77	39,955
652,96	40,691
653,15	41,692
653,33	38,634
653,52	38,916
653,71	41,149
653,90	41,809
654,09	40,752
654,27	39,255
654,46	41,214
654,65	41,089
654,84	41,490
655,02	40,764
655,21	41,422
655,40	41,839
655,59	39,632
655,77	40,622
655,96	40,137
656,15	40,883
656,34	41,039
656,53	40,626
656,71	40,011
656,90	40,770
657,09	42,193
657,28	41,724
657,46	38,413
657,65	39,432
657,84	39,465
658,03	40,987
658,21	39,948
658,40	39,579
658,59	41,796
658,78	41,284
658,96	39,391
659,15	40,566
659,34	40,471
659,52	39,729
659,71	39,900
659,90	38,309
660,09	40,473
660,27	40,394
660,46	42,394
660,65	39,661
660,84	38,672
661,02	40,443
661,21	40,193
661,40	40,306
661,58	40,444
661,77	40,338
661,96	37,031
662,15	38,623
662,33	39,457
662,52	37,344
662,71	39,838
662,89	37,636
663,08	39,824
663,27	38,797
663,45	40,071
663,64	39,548
663,83	38,258
664,02	37,984
664,20	39,483
664,39	39,311
664,58	38,889
664,76	39,917
664,95	39,461
665,14	38,796
665,32	38,390
665,51	41,014
665,70	39,538
665,88	39,061
666,07	39,559
666,26	41,005
666,44	39,881
666,63	37,848
666,82	39,706
667,00	39,051
667,19	39,294
667,38	38,781
667,56	40,524
667,75	40,590
667,94	39,608
668,12	37,475
668,31	39,760
668,50	37,746
668,68	40,289
668,87	37,769
669,06	38,491
669,24	39,532
669,43	39,116
669,62	36,854
669,80	38,915
669,99	37,996
670,18	39,192
670,36	39,393
670,55	39,360
670,74	39,050
670,92	38,026
671,11	38,715
671,29	38,293
671,48	38,355
671,67	39,375
671,85	40,754
672,04	38,408
672,23	38,818
672,41	40,142
672,60	38,524
672,78	37,260
672,97	37,745
673,16	36,889
673,34	38,380
673,53	38,392
673,71	38,328
673,90	38,391
674,09	39,520
674,27	38,419
674,46	39,806
674,64	38,774
674,83	36,848
675,02	37,696
675,20	39,732
675,39	38,304
675,57	39,171
675,76	38,462
675,95	39,817
676,13	40,449
676,32	37,887
676,50	38,895
676,69	36,032
676,88	38,407
677,06	37,932
677,25	39,127
677,43	40,876
677,62	39,747
677,80	40,488
677,99	38,530
678,18	39,495
678,36	39,802
678,55	36,546
678,73	38,567
678,92	39,374
679,10	38,278
679,29	39,344
679,48	37,182
679,66	38,237
679,85	36,799
680,03	39,764
680,22	39,591
680,40	37,190
680,59	38,431
680,77	38,779
680,96	38,253
681,15	36,752
681,33	41,733
681,52	37,447
681,70	38,273
681,89	42,127
682,07	39,863
682,26	40,445
682,44	39,432
682,63	41,556
682,81	38,634
683,00	40,819
683,18	38,306
683,37	42,185
683,55	38,541
683,74	39,391
683,92	43,534
684,11	39,809
684,29	38,015
684,48	37,219
684,67	39,011
684,85	39,773
685,04	40,125
685,22	39,334
685,41	39,063
685,59	40,266
685,78	40,901
685,96	38,411
686,15	39,632
686,33	38,708
686,52	40,050
686,70	41,512
686,89	41,379
687,07	41,795
687,26	42,761
687,44	42,024
687,62	39,334
687,81	41,385
687,99	40,180
688,18	40,525
688,36	41,368
688,55	41,385
688,73	42,379
688,92	39,545
689,10	41,297
689,29	42,354
689,47	41,842
689,66	40,597
689,84	41,812
690,03	39,814
690,21	42,438
690,40	40,513
690,58	40,158
690,76	41,711
690,95	42,412
691,13	39,453
691,32	42,540
691,50	43,064
691,69	43,164
691,87	40,181
692,06	42,333
692,24	38,435
692,43	42,447
692,61	39,677
692,79	40,707
692,98	39,070
693,16	44,661
693,35	41,799
693,53	43,200
693,72	40,342
693,90	42,299
694,08	40,310
694,27	41,117
694,45	42,474
694,64	43,122
694,82	41,236
695,01	41,776
695,19	42,960
695,37	42,211
695,56	40,288
695,74	43,240
695,93	43,947
696,11	41,523
696,29	41,935
696,48	41,664
696,66	41,935
696,85	42,555
697,03	41,985
697,21	43,128
697,40	43,706
697,58	42,444
697,77	41,666
697,95	41,601
698,13	43,902
698,32	41,227
698,50	41,028
698,69	42,816
698,87	43,020
699,05	42,238
699,24	42,204
699,42	42,626
699,60	40,624
699,79	41,043
699,97	44,268
700,16	39,036
700,34	44,215
700,52	42,881
700,71	41,749
700,89	42,282
701,07	44,362
701,26	43,324
701,44	42,566
701,63	41,393
701,81	43,191
701,99	43,182
702,18	40,192
702,36	42,401
702,54	42,185
702,73	41,848
702,91	42,005
703,09	42,028
703,28	41,988
703,46	42,791
703,64	42,384
703,83	40,738
704,01	42,647
704,19	42,435
704,38	42,370
704,56	42,027
704,74	44,454
704,93	43,120
705,11	41,367
705,29	42,964
705,48	45,202
705,66	42,087
705,84	41,396
706,03	40,956
706,21	42,027
706,39	41,436
706,58	43,309
706,76	42,501
706,94	43,409
707,12	43,191
707,31	41,232
707,49	41,699
707,67	43,259
707,86	42,356
708,04	41,235
708,22	42,046
708,41	42,320
708,59	43,200
708,77	39,351
708,95	44,271
709,14	47,109
709,32	43,561
709,50	41,574
709,69	40,809
709,87	42,031
710,05	41,288
710,23	42,304
710,42	41,726
710,60	41,776
710,78	42,080
710,97	43,392
711,15	41,336
711,33	43,618
711,51	41,411
711,70	42,020
711,88	42,017
712,06	44,631
712,24	41,235
712,43	43,219
712,61	42,518
712,79	42,181
712,97	41,551
713,16	42,762
713,34	41,180
713,52	42,134
713,70	43,653
713,89	43,566
714,07	41,714
714,25	41,832
714,43	45,153
714,62	41,824
714,80	41,550
714,98	39,184
715,16	43,051
715,35	40,064
715,53	42,033
715,71	43,161
715,89	43,597
716,07	42,044
716,26	45,626
716,44	42,929
716,62	42,369
716,80	42,737
716,99	42,199
717,17	45,279
717,35	43,671
717,53	42,259
717,71	41,596
717,90	42,737
718,08	40,704
718,26	40,105
718,44	44,025
718,62	43,915
718,81	42,956
718,99	42,389
719,17	42,357
719,35	41,612
719,53	42,494
719,72	42,719
719,90	43,182
720,08	43,096
720,26	42,114
720,44	41,592
720,62	40,800
720,81	43,388
720,99	43,094
721,17	41,511
721,35	45,388
721,53	42,607
721,72	44,464
721,90	42,309
722,08	41,807
722,26	43,110
722,44	42,807
722,62	41,378
722,81	42,880
722,99	41,645
723,17	41,839
723,35	42,848
723,53	43,120
723,71	44,591
723,89	44,178
724,08	43,897
724,26	41,753
724,44	41,785
724,62	42,214
724,80	41,989
724,98	42,808
725,16	45,781
725,35	42,286
725,53	41,661
725,71	41,476
725,89	43,160
726,07	45,070
726,25	45,267
726,43	43,943
726,61	43,749
726,80	44,004
726,98	42,833
727,16	43,527
727,34	45,532
727,52	43,780
727,70	41,038
727,88	43,166
728,06	40,622
728,25	40,381
728,43	43,288
728,61	42,684
728,79	43,132
728,97	40,292
729,15	44,338
729,33	42,098
729,51	43,542
729,69	42,192
729,87	43,418
730,06	42,244
730,24	42,924
730,42	44,638
730,60	41,231
730,78	45,258
730,96	42,672
731,14	41,779
731,32	41,689
731,50	42,649
731,68	43,463
731,86	43,464
732,04	42,866
732,22	42,676
732,41	44,062
732,59	41,769
732,77	43,598
732,95	43,174
733,13	44,604
733,31	44,235
733,49	41,779
733,67	42,251
733,85	43,155
734,03	43,596
734,21	43,227
734,39	42,686
734,57	43,710
734,75	42,867
734,93	43,746
735,11	42,483
735,29	40,841
735,47	42,760
735,65	43,154
735,84	42,137
736,02	43,070
736,20	44,282
736,38	43,161
736,56	42,574
736,74	42,841
736,92	41,554
737,10	43,540
737,28	42,433
737,46	43,323
737,64	42,011
737,82	43,317
738,00	44,736
738,18	42,748
738,36	42,600
738,54	41,390
738,72	43,334
738,90	42,065
739,08	44,928
739,26	39,597
739,44	42,008
739,62	41,634
739,80	43,628
739,98	42,850
740,16	42,518
740,34	40,770
740,52	45,120
740,70	43,597
740,88	40,133
741,06	42,445
741,24	45,072
741,42	43,002
741,60	41,266
741,78	44,773
741,96	41,322
742,14	42,514
742,32	43,077
742,50	43,989
742,68	42,110
742,86	39,881
743,04	40,165
743,21	44,829
743,39	44,290
743,57	42,891
743,75	42,399
743,93	41,024
744,11	41,232
744,29	40,327
744,47	41,939
744,65	41,675
744,83	42,659
745,01	42,497
745,19	42,987
745,37	46,535
745,55	43,844
745,73	44,767
745,91	40,782
746,09	43,112
746,27	43,921
746,45	43,144
746,62	43,243
746,80	42,211
746,98	44,083
747,16	41,131
747,34	41,915
747,52	42,681
747,70	42,853
747,88	42,598
748,06	44,085
748,24	42,613
748,42	43,846
748,60	43,604
748,78	41,018
748,95	43,209
749,13	44,273
749,31	43,770
749,49	41,462
749,67	44,489
749,85	44,447
750,03	44,470
750,21	43,359
750,39	43,949
750,57	44,257
750,74	43,101
750,92	41,716
751,10	45,729
751,28	41,995
751,46	42,380
751,64	42,385
751,82	43,116
752,00	43,443
752,17	44,410
752,35	39,986
752,53	43,186
752,71	44,063
752,89	42,512
753,07	42,277
753,25	44,204
753,43	40,967
753,60	43,111
753,78	41,865
753,96	44,970
754,14	42,622
754,32	44,162
754,50	42,909
754,68	43,900
754,85	41,816
755,03	44,204
755,21	43,376
755,39	44,324
755,57	44,961
755,75	44,069
755,92	41,736
756,10	43,726
756,28	43,953
756,46	40,430
756,64	43,640
756,82	43,552
756,99	41,800
757,17	42,594
757,35	41,494
757,53	44,392
757,71	44,171
757,89	43,208
758,06	43,423
758,24	41,972
758,42	42,868
758,60	42,474
758,78	43,354
758,95	45,366
759,13	42,970
759,31	43,507
759,49	42,265
759,67	42,977
759,84	42,209
760,02	44,747
760,20	43,294
760,38	41,577
760,56	41,232
760,73	43,935
760,91	42,980
761,09	43,913
761,27	42,286
761,45	43,148
761,62	42,002
761,80	43,058
761,98	43,806
762,16	43,179
762,33	42,670
762,51	44,396
762,69	43,064
762,87	40,620
763,05	44,719
763,22	40,739
763,40	40,509
763,58	41,241
763,76	43,650
763,93	44,204
764,11	42,779
764,29	42,903
764,47	43,273
764,64	43,800
764,82	45,092
765,00	41,206
765,18	39,712
765,35	40,204
765,53	41,173
765,71	44,212
765,89	41,428
766,06	42,272
766,24	44,327
766,42	42,227
766,60	42,518
766,77	41,800
766,95	41,540
767,13	42,619
767,30	43,648
767,48	42,043
767,66	42,001
767,84	42,626
768,01	42,769
768,19	43,339
768,37	43,889
768,54	43,528
768,72	43,979
768,90	43,286
769,08	45,049
769,25	42,836
769,43	40,489
769,61	41,306
769,78	44,044
769,96	41,949
770,14	43,618
770,31	44,471
770,49	43,982
770,67	42,150
770,85	43,133
771,02	42,254
771,20	41,252
771,38	43,316
771,55	41,532
771,73	42,442
771,91	42,434
772,08	43,725
772,26	42,953
772,44	39,881
772,61	43,178
772,79	40,467
772,97	43,090
773,14	41,815
773,32	44,039
773,50	41,855
773,67	42,098
773,85	45,645
774,03	41,526
774,20	43,581
774,38	42,573
774,56	43,105
774,73	43,383
774,91	43,344
775,09	42,514
775,26	43,125
775,44	43,176
775,61	42,975
775,79	42,101
775,97	45,337
776,14	43,324
776,32	41,440
776,50	41,425
776,67	42,601
776,85	44,846
777,03	41,129
777,20	45,443
777,38	42,267
777,55	44,829
777,73	41,954
777,91	40,928
778,08	42,921
778,26	43,277
778,43	44,086
778,61	40,818
778,79	41,143
778,96	40,348
779,14	42,118
779,32	44,947
779,49	42,215
779,67	45,994
779,84	43,403
780,02	42,492
780,20	38,806
780,37	44,970
780,55	37,119
780,72	45,816
780,90	42,968
781,07	42,921
781,25	41,018
781,43	41,304
781,60	43,188
781,78	41,437
781,95	42,743
782,13	41,793
782,30	45,111
782,48	42,869
782,66	40,859
782,83	41,397
783,01	46,155
783,18	42,312
783,36	42,631
783,53	46,693
783,71	42,327
783,89	43,632
784,06	44,654
784,24	43,373
784,41	45,028
784,59	41,772
784,76	43,369
784,94	43,164
785,11	41,608
785,29	41,951
785,46	43,062
785,64	39,737
785,82	46,391
785,99	42,738
786,17	42,498
786,34	44,495
786,52	44,861
786,69	45,835
786,87	41,718
787,04	44,178
787,22	40,471
787,39	43,394
787,57	43,646
787,74	42,659
787,92	43,600
788,09	43,668
788,27	42,215
788,44	43,106
788,62	45,902
788,79	45,814
788,97	43,577
789,14	42,767
789,32	41,458
789,49	44,944
789,67	43,454
789,84	44,765
790,02	42,667
790,19	43,212
790,37	43,290
790,54	45,155
790,72	46,543
790,89	47,030
791,07	43,801
791,24	38,872
791,42	45,150
791,59	41,852
791,77	43,365
791,94	40,842
792,12	42,786
792,29	45,590
792,47	43,159
792,64	47,090
792,81	44,042
792,99	44,857
793,16	43,818
793,34	43,721
793,51	44,116
793,69	45,209
793,86	43,760
794,04	40,524
794,21	46,889
794,39	41,657
794,56	43,713
794,73	45,327
794,91	43,563
795,08	44,221
795,26	44,431
795,43	42,455
795,61	46,662
795,78	43,375
795,95	44,745
796,13	44,768
796,30	43,217
796,48	44,029
796,65	43,091
796,83	44,381
797,00	46,707
797,17	41,506
797,35	43,037
797,52	43,941
797,70	46,673
797,87	44,659
798,04	41,257
798,22	45,111
798,39	42,734
798,57	42,726
798,74	44,382
798,91	42,887
799,09	41,687
799,26	44,417
799,44	40,610
799,61	42,566
799,78	43,264
799,96	48,970
800,13	42,290
800,31	44,134
800,48	46,788
800,65	48,583
800,83	43,450
801,00	41,034
801,17	41,087
801,35	44,834
801,52	42,606
801,70	43,102
801,87	42,767
802,04	46,651
802,22	41,307
802,39	41,067
802,56	49,726
802,74	46,309
802,91	41,353
803,08	42,728
803,26	41,813
803,43	45,235
803,61	44,456
803,78	43,370
803,95	44,589
804,13	44,361
804,30	44,325
804,47	45,442
804,65	44,548
804,82	46,699
804,99	42,177
805,17	43,554
805,34	48,489
805,51	44,632
805,69	41,849
805,86	44,894
806,03	52,520
806,21	45,819
806,38	44,740
806,55	48,247
806,72	43,624
806,90	45,928
807,07	45,809
807,24	43,041
807,42	46,855
807,59	45,412
807,76	39,245
807,94	44,626
808,11	44,909
808,28	45,577
808,45	43,864
808,63	43,522
808,80	43,603
808,97	44,684
809,15	42,733
809,32	45,308
809,49	43,477
809,67	45,186
809,84	45,735
810,01	46,834
810,18	49,599
810,36	46,873
810,53	48,566
810,70	43,122
810,87	48,697
811,05	42,789
811,22	43,742
811,39	42,999
811,57	45,619
811,74	46,904
811,91	44,111
812,08	44,935
812,26	46,497
812,43	44,499
812,60	44,482
812,77	42,841
812,95	47,502
813,12	45,027
813,29	41,759
813,46	45,596
813,64	44,009
813,81	44,772
813,98	43,342
814,15	44,718
814,32	47,390
814,50	45,791
814,67	39,925
814,84	46,326
815,01	47,030
815,19	46,641
815,36	40,553
815,53	46,419
815,70	40,599
815,87	45,158
816,05	40,642
816,22	45,979
816,39	46,293
816,56	53,134
816,74	44,855
816,91	45,329
817,08	48,765
817,25	43,333
817,42	45,271
817,60	46,756
817,77	43,452
817,94	46,319
818,11	45,315
818,28	44,876
818,45	45,503
818,63	44,312
818,80	47,138
818,97	44,821
819,14	51,610
819,31	44,694
819,49	45,354
819,66	43,311
819,83	45,708
820,00	42,034
820,17	47,885
820,34	45,707
820,52	49,771
820,69	46,526
820,86	42,285
821,03	49,388
821,20	51,065
821,37	50,492
821,55	38,672
821,72	48,191
821,89	45,891
822,06	47,628
822,23	44,784
822,40	45,824
822,57	46,070
822,75	50,495
822,92	37,091
823,09	41,585
823,26	47,309
823,43	54,078
823,60	43,780
823,77	42,511
823,94	50,513
824,12	52,695
824,29	41,266
824,46	41,537
824,63	53,740
824,80	52,578
824,97	48,444
825,14	47,749
825,31	50,008
825,49	50,151
825,66	41,147
825,83	42,313
826,00	53,341
826,17	51,669
826,34	46,051
826,51	44,402
826,68	44,182
826,85	52,504
827,02	41,239
827,20	44,365
827,37	43,794
827,54	52,126
827,71	47,846
827,88	48,398
828,05	48,279
828,22	48,449
828,39	47,868
828,56	49,515
828,73	42,509
828,90	49,620
829,07	43,659
829,25	46,491
829,42	44,465
829,59	44,396
829,76	43,588
829,93	47,292
830,10	44,735
830,27	43,830
830,44	44,162
830,61	49,139
830,78	38,281
830,95	48,805
831,12	49,154
831,29	44,770
831,46	46,434
831,63	47,708
831,80	46,038
831,97	50,851
832,14	48,449
832,31	57,913
832,48	44,474
832,65	48,135
832,83	45,176
833,00	47,830
833,17	36,824
833,34	47,684
833,51	47,977
833,68	56,066
833,85	51,482
834,02	40,023
834,19	48,715
834,36	53,170
834,53	43,145
834,70	47,815
834,87	52,216
835,04	43,748
835,21	45,751
835,38	48,116
835,55	46,993
835,72	54,697
835,89	46,729
836,06	50,241
836,23	54,581
836,40	41,050
836,57	44,259
836,74	48,197
836,91	47,495
837,08	48,559
837,25	48,187
837,42	36,774
837,59	36,569
837,76	50,392
837,93	41,385
838,09	38,318
838,26	53,089
838,43	50,078
838,60	47,402
838,77	45,188
838,94	50,933
839,11	46,835
839,28	41,735
839,45	47,410
839,62	50,210
839,79	43,756
839,96	47,515
840,13	49,587
840,30	45,503
840,47	42,543
840,64	48,011
840,81	46,020
840,98	43,483
841,15	53,989
841,32	38,597
841,48	46,673
841,65	51,842
841,82	51,646
841,99	47,851
842,16	52,407
842,33	52,331
842,50	49,299
842,67	43,848
842,84	51,375
843,01	49,529
843,18	50,849
843,35	41,987
843,52	39,936
843,68	52,578
843,85	46,797
844,02	38,346
844,19	44,815
844,36	55,720
844,53	64,102
844,70	45,377
844,87	55,356
845,04	46,174
845,21	46,678
845,37	60,189
845,54	42,550
845,71	40,935
845,88	61,961
846,05	47,643
846,22	48,820
846,39	50,535
846,56	62,022
846,72	41,217
846,89	49,189
847,06	54,893
847,23	58,860
847,40	36,771
847,57	40,688
847,74	45,940
847,90	56,085
848,07	41,224
848,24	49,509
848,41	54,474
848,58	57,539
848,75	53,984
848,92	42,028
849,08	45,460
849,25	53,769
849,42	40,082
849,59	53,030
849,76	47,237
849,93	53,786
850,09	53,218
850,26	39,642
850,43	58,795
850,60	45,309
850,77	46,095
850,94	57,554
851,10	58,317
851,27	51,637
851,44	48,031
851,61	39,914
851,78	48,871
851,95	52,495
852,11	45,962
852,28	40,234
852,45	50,950
852,62	57,046
852,79	52,060
852,95	50,787
853,12	49,552
853,29	44,136
853,46	38,297
853,63	51,809
853,79	47,176
853,96	48,281
854,13	69,129
854,30	46,731
854,46	79,092
854,63	52,721
854,80	50,529
854,97	42,380
855,14	56,630
855,30	54,513
855,47	51,229
855,64	57,751
855,81	51,421
855,97	55,353
856,14	55,523
856,31	42,200
856,48	66,422
856,65	73,547
856,81	47,710
856,98	45,682
857,15	50,854
857,32	57,544
857,48	47,931
857,65	43,549
857,82	56,739
857,99	59,753
858,15	58,842
858,32	39,567
858,49	47,990
858,65	60,780
858,82	65,410
858,99	52,160
859,16	56,706
859,32	61,775
859,49	41,365
859,66	53,998
859,83	50,651
859,99	43,899
860,16	45,431
860,33	36,568
860,49	60,211
860,66	61,576
860,83	46,480
861,00	57,111
861,16	64,492
861,33	45,583
861,50	52,077
861,66	48,410
861,83	72,656
862,00	44,060
862,16	60,540
862,33	55,305
862,50	71,508
862,67	53,997
862,83	43,254
863,00	58,942
863,17	60,823
863,33	63,704
863,50	29,203
863,67	57,303
863,83	62,001
864,00	64,538
864,17	38,399
864,33	43,928
864,50	37,892
864,67	33,715
864,83	43,732
865,00	44,557
865,17	48,797
865,33	46,576
865,50	44,625
865,67	37,764
865,83	52,485
866,00	78,175
866,17	58,228
866,33	60,609
866,50	81,767
866,66	66,932
866,83	47,068
867,00	56,367
867,16	82,489
867,33	81,585
867,50	32,223
867,66	47,091
867,83	67,970
868,00	56,458
868,16	40,049
868,33	36,954
868,49	70,733
868,66	60,835
868,83	67,972
868,99	60,140
869,16	94,634
869,32	48,385
869,49	47,643
869,66	42,820
869,82	84,738
869,99	79,844
870,15	40,660
870,32	54,340
870,49	75,599
870,65	101,709
870,82	58,150
870,98	43,260
871,15	77,169
871,32	72,333
871,48	38,234
871,65	61,590
871,81	68,720
871,98	46,907
872,15	55,312
872,31	34,576
872,48	71,615
872,64	64,875
872,81	31,500
872,97	64,705
873,14	67,439
873,31	60,994
873,47	56,543
873,64	60,956
873,80	95,769
873,97	105,139
874,13	24,410
874,30	58,878
874,46	91,987
874,63	61,454
874,80	65,794
874,96	58,502
875,13	74,314
875,29	63,882
875,46	90,803
875,62	42,667
875,79	92,834
875,95	56,655
876,12	48,291
876,28	33,549
876,45	83,093
876,61	66,254
876,78	60,166
876,94	61,782
877,11	68,839
877,27	75,682
877,44	85,744
877,60	86,256
877,77	36,645
877,94	113,010
878,10	67,883
878,27	100,609
878,43	81,271
878,60	54,731
878,76	64,484
878,93	26,996
879,09	92,372
879,26	130,461
879,42	85,395
879,58	58,888
879,75	100,841
879,91	117,077
880,08	5,404
880,24	53,940
880,41	66,998
880,57	104,867
880,74	30,204
880,90	42,422
881,07	35,397
881,23	99,016
881,40	60,602
881,56	61,234
881,73	88,375
881,89	88,339
882,06	61,548
882,22	147,828
882,38	131,192
882,55	146,602
882,71	72,776
882,88	63,930
883,04	100,213
883,21	158,171
883,37	46,029
883,54	81,484
883,70	142,569
883,86	105,243
884,03	90,880
884,19	44,288
884,36	-45,288
884,52	120,380
884,69	88,799
884,85	53,138
885,01	159,438
885,18	78,505
885,34	117,880
885,51	43,262
885,67	92,465
>>>>> Data<<<<< Espectral Procesado Extremo
