Fichero De Datos De SpectraSuite
++++++++++++++++++++++++++++++++++++
Fecha: Wed Apr 22 10:59:23 CEST 2009
Usuario: evoflor
Presente Oscuro Del Espectro: Sí
La Referencia de Presente Del Espectro De: Sí
Muestreados de los componentes de Número de espectros: 1
Espectrómetros: USB4F02353
Tiempo de integración (usec): 500000 (USB4F02353)
Promedio de Espectros Hechos un: 5 (USB4F02353)
El Alisar Del Furgón: 0 (USB4F02353)
Párrafo de de Corregir del la del del de Eléctrica del obscuridad: Sí (USB4F02353)
Estrobo/Lámpara Permitido: No (USB4F02353)
Correct for Detector Non-linearity: No (USB4F02353)
Párrafo de de Corregir del la del del de Externa del luz: No (USB4F02353)
Procesado del espectro de Número de pixeles en: 3648
>>>>> Comienza Data<<<<< Espectral Procesado Del EL
177,79	258,478
178,00	258,478
178,22	258,478
178,44	991,374
178,66	-112,772
178,88	208,844
179,09	-41,213
179,31	342,409
179,53	514,814
179,75	349,051
179,96	494,698
180,18	-256,877
180,40	242,946
180,62	388,554
180,83	-491,798
181,05	-2170,549
181,27	-146485,000
181,49	-81,707
181,70	189,558
181,92	611,091
182,14	332,786
182,36	19,340
182,58	110,150
182,79	529,397
183,01	4,058
183,23	194,636
183,45	-99,031
183,66	200,066
183,88	390,500
184,10	-3039,727
184,32	137,587
184,53	223,389
184,75	-178,327
184,97	7,385
185,18	-77,415
185,40	-405,697
185,62	109,066
185,84	160,666
186,05	217,146
186,27	-55,222
186,49	2968,654
186,71	48,307
186,92	124,891
187,14	-129,373
187,36	125,318
187,58	10,358
187,79	0,327
188,01	298,740
188,23	-134,901
188,45	35,072
188,66	183,862
188,88	-77,909
189,10	-1248,850
189,31	-122,500
189,53	-8,604
189,75	308,375
189,97	241,481
190,18	-55,000
190,40	274,029
190,62	-178,552
190,83	-167,675
191,05	125,572
191,27	207,671
191,49	264,567
191,70	-288,870
191,92	-127,839
192,14	-53,361
192,35	553,276
192,57	1331,000
192,79	84,336
193,01	46,459
193,22	155,694
193,44	-99,462
193,66	110,450
193,87	-40,931
194,09	-61,464
194,31	131,817
194,53	892,203
194,74	80,944
194,96	-53,216
195,18	136,307
195,39	-258,272
195,61	-120,353
195,83	-169,750
196,04	104,717
196,26	-179,824
196,48	-6,465
196,70	130,189
196,91	130,349
197,13	140,722
197,35	75,523
197,56	453,514
197,78	1516,306
198,00	149,545
198,21	274,199
198,43	-276,076
198,65	142,539
198,86	339,155
199,08	135,033
199,30	210,901
199,51	-301,254
199,73	147,340
199,95	199,963
200,16	539,173
200,38	122,835
200,60	58,752
200,81	188,405
201,03	273,329
201,25	-1293,850
201,46	185,059
201,68	69,354
201,90	2899,659
202,11	-239,637
202,33	220,978
202,55	301,062
202,76	-18,289
202,98	109,007
203,20	-94,159
203,41	-401,500
203,63	90,157
203,85	-114085,000
204,06	80,940
204,28	20,036
204,50	87,595
204,71	126,829
204,93	-116,920
205,15	422,244
205,36	-156,185
205,58	163,695
205,80	-142,907
206,01	44,894
206,23	116,713
206,45	250,896
206,66	102,129
206,88	-17,790
207,10	83,375
207,31	359,715
207,53	53,386
207,75	34,193
207,96	233,470
208,18	-88,712
208,39	184,501
208,61	5059,571
208,83	-315,310
209,04	128,662
209,26	-86,106
209,48	237,545
209,69	263,847
209,91	245,557
210,13	57,216
210,34	-139,988
210,56	179,970
210,77	-1075,472
210,99	82,011
211,21	6022,647
211,42	-86,401
211,64	7,280
211,86	232,381
212,07	185,672
212,29	210,740
212,50	140,657
212,72	-128,904
212,94	155,066
213,15	19,772
213,37	90,366
213,58	-15,488
213,80	-474,464
214,02	7663,824
214,23	237,746
214,45	433,066
214,67	-52,256
214,88	212,131
215,10	-191,347
215,31	-16,190
215,53	-43,443
215,75	131,104
215,96	1127,857
216,18	630,775
216,39	122,371
216,61	321,801
216,83	211,987
217,04	1059,382
217,26	33,040
217,47	94,148
217,69	149,928
217,91	237,152
218,12	-158185,000
218,34	17,299
218,55	92,533
218,77	106,429
218,99	191,869
219,20	-40,622
219,42	368,727
219,63	61,866
219,85	-37,150
220,06	71,865
220,28	114,312
220,50	19,071
220,71	77,826
220,93	1812,925
221,14	-321,850
221,36	53,757
221,58	-71,609
221,79	80,109
222,01	719,698
222,22	490,033
222,44	-548,483
222,65	99,876
222,87	124,371
223,09	134,727
223,30	58,458
223,52	145,546
223,73	143,806
223,95	13,641
224,16	318,732
224,38	481,481
224,60	102,010
224,81	279,316
225,03	122,671
225,24	127,504
225,46	38,513
225,67	7,531
225,89	-22,664
226,10	346,340
226,32	293,480
226,54	29,996
226,75	43,102
226,97	153,460
227,18	171,885
227,40	32,274
227,61	42,988
227,83	53,075
228,04	102,892
228,26	91,453
228,47	44,491
228,69	157,539
228,91	107,036
229,12	83,777
229,34	32,560
229,55	28,214
229,77	-12,310
229,98	8,141
230,20	89,575
230,41	-1,929
230,63	72,022
230,84	34,310
231,06	28,833
231,27	-7,444
231,49	37,363
231,71	17,116
231,92	14,671
232,14	32,785
232,35	61,978
232,57	58,417
232,78	-8,432
233,00	71,423
233,21	34,028
233,43	8,543
233,64	7,923
233,86	42,844
234,07	29,212
234,29	19,075
234,50	20,978
234,72	28,298
234,93	8,372
235,15	35,109
235,36	20,660
235,58	7,783
235,79	25,238
236,01	12,943
236,22	20,413
236,44	44,714
236,65	17,669
236,87	25,713
237,08	10,682
237,30	-8,717
237,51	16,499
237,73	-3,585
237,94	7,713
238,16	0,974
238,37	11,720
238,59	7,765
238,80	10,303
239,02	1,843
239,23	15,301
239,45	-6,501
239,66	23,205
239,88	16,077
240,09	15,654
240,31	-6,109
240,52	13,580
240,74	7,543
240,95	8,972
241,17	17,771
241,38	15,408
241,60	4,532
241,81	18,019
242,03	11,749
242,24	11,254
242,46	14,630
242,67	10,736
242,89	13,229
243,10	12,393
243,32	15,741
243,53	11,860
243,75	4,832
243,96	9,195
244,18	11,701
244,39	15,905
244,60	14,410
244,82	7,908
245,03	19,818
245,25	3,516
245,46	26,269
245,68	0,598
245,89	8,876
246,11	10,462
246,32	5,949
246,54	5,587
246,75	12,556
246,97	8,174
247,18	13,840
247,39	0,617
247,61	5,058
247,82	1,242
248,04	1,849
248,25	6,977
248,47	10,528
248,68	12,045
248,90	3,432
249,11	9,280
249,33	13,012
249,54	8,525
249,75	6,847
249,97	0,359
250,18	10,759
250,40	10,133
250,61	6,783
250,83	5,639
251,04	0,793
251,25	13,238
251,47	0,893
251,68	5,367
251,90	5,111
252,11	11,984
252,33	4,469
252,54	5,511
252,76	7,547
252,97	2,274
253,18	2,175
253,40	5,745
253,61	1,794
253,83	9,409
254,04	11,282
254,25	5,598
254,47	9,466
254,68	12,876
254,90	3,052
255,11	8,836
255,33	6,291
255,54	2,805
255,75	2,808
255,97	4,418
256,18	3,468
256,40	3,257
256,61	7,930
256,82	1,227
257,04	9,663
257,25	4,075
257,47	5,875
257,68	-0,220
257,89	10,672
258,11	7,670
258,32	5,258
258,54	7,783
258,75	9,342
258,96	8,344
259,18	3,208
259,39	6,734
259,61	4,166
259,82	6,329
260,03	2,686
260,25	3,592
260,46	3,202
260,68	2,492
260,89	6,311
261,10	3,594
261,32	3,216
261,53	4,245
261,75	5,984
261,96	-2,463
262,17	10,321
262,39	14,530
262,60	3,530
262,81	0,073
263,03	9,748
263,24	4,084
263,46	2,983
263,67	6,801
263,88	7,020
264,10	7,614
264,31	1,649
264,52	10,173
264,74	9,231
264,95	3,216
265,17	6,629
265,38	4,046
265,59	8,887
265,81	6,216
266,02	0,190
266,23	1,180
266,45	9,355
266,66	6,885
266,87	7,198
267,09	3,491
267,30	7,449
267,52	8,517
267,73	4,982
267,94	3,820
268,16	7,305
268,37	9,186
268,58	4,518
268,80	5,787
269,01	6,495
269,22	5,917
269,44	5,264
269,65	3,478
269,86	-0,275
270,08	7,939
270,29	1,921
270,50	7,355
270,72	6,509
270,93	4,566
271,14	4,922
271,36	4,467
271,57	8,249
271,78	7,951
272,00	7,261
272,21	9,479
272,42	8,379
272,64	4,621
272,85	2,374
273,06	3,091
273,28	8,282
273,49	5,481
273,70	8,477
273,92	8,076
274,13	6,329
274,34	4,818
274,56	4,633
274,77	0,098
274,98	7,350
275,20	7,051
275,41	5,804
275,62	4,754
275,84	6,202
276,05	11,038
276,26	0,767
276,47	2,396
276,69	5,213
276,90	6,264
277,11	2,496
277,33	4,744
277,54	7,719
277,75	4,458
277,97	1,741
278,18	6,635
278,39	4,911
278,61	4,915
278,82	4,697
279,03	6,752
279,24	4,588
279,46	2,286
279,67	5,504
279,88	5,342
280,10	8,317
280,31	3,295
280,52	8,621
280,73	3,453
280,95	5,120
281,16	11,524
281,37	4,463
281,59	12,889
281,80	9,429
282,01	4,815
282,22	3,887
282,44	2,904
282,65	12,275
282,86	9,300
283,08	5,074
283,29	6,722
283,50	5,165
283,71	5,739
283,93	3,361
284,14	7,476
284,35	2,955
284,56	5,529
284,78	2,806
284,99	5,726
285,20	6,847
285,42	4,855
285,63	5,384
285,84	3,562
286,05	0,875
286,27	4,543
286,48	1,510
286,69	4,553
286,90	4,584
287,12	3,176
287,33	2,002
287,54	2,191
287,75	4,893
287,97	5,914
288,18	2,666
288,39	2,251
288,60	5,232
288,82	7,267
289,03	4,323
289,24	4,656
289,45	7,105
289,67	3,666
289,88	3,714
290,09	4,812
290,30	4,246
290,52	4,625
290,73	3,493
290,94	1,862
291,15	3,683
291,37	4,192
291,58	2,316
291,79	5,091
292,00	5,936
292,21	8,349
292,43	3,398
292,64	1,780
292,85	2,136
293,06	7,584
293,28	3,832
293,49	2,237
293,70	6,669
293,91	1,493
294,12	6,141
294,34	2,319
294,55	4,479
294,76	2,810
294,97	6,284
295,19	2,087
295,40	4,773
295,61	4,675
295,82	1,669
296,03	5,224
296,25	4,435
296,46	1,604
296,67	1,632
296,88	1,639
297,09	5,596
297,31	5,455
297,52	3,983
297,73	2,351
297,94	6,496
298,15	6,108
298,37	4,367
298,58	5,452
298,79	4,632
299,00	1,002
299,21	5,164
299,43	1,818
299,64	5,972
299,85	6,191
300,06	3,060
300,27	1,833
300,49	8,192
300,70	5,585
300,91	2,788
301,12	6,706
301,33	6,221
301,54	3,171
301,76	5,266
301,97	3,460
302,18	3,601
302,39	7,577
302,60	6,050
302,82	2,622
303,03	7,511
303,24	5,566
303,45	3,528
303,66	2,688
303,87	4,726
304,09	7,337
304,30	3,664
304,51	3,644
304,72	2,608
304,93	8,266
305,14	5,357
305,36	2,312
305,57	1,717
305,78	3,877
305,99	3,285
306,20	3,287
306,41	3,143
306,62	3,576
306,84	2,079
307,05	1,365
307,26	5,084
307,47	7,998
307,68	2,132
307,89	2,143
308,11	5,301
308,32	3,322
308,53	3,229
308,74	1,791
308,95	5,573
309,16	4,869
309,37	6,243
309,59	2,177
309,80	3,557
310,01	4,722
310,22	5,488
310,43	2,421
310,64	5,676
310,85	6,856
311,06	3,110
311,28	3,795
311,49	2,318
311,70	8,892
311,91	2,038
312,12	3,122
312,33	4,966
312,54	6,198
312,75	4,218
312,97	2,468
313,18	3,408
313,39	3,378
313,60	4,360
313,81	5,036
314,02	4,619
314,23	6,956
314,44	0,958
314,65	5,143
314,87	4,984
315,08	1,906
315,29	5,115
315,50	3,678
315,71	5,703
315,92	7,587
316,13	6,051
316,34	3,326
316,55	7,032
316,77	1,659
316,98	3,399
317,19	4,127
317,40	6,309
317,61	6,668
317,82	3,517
318,03	2,748
318,24	1,998
318,45	8,298
318,66	4,733
318,87	1,069
319,09	5,742
319,30	5,923
319,51	6,482
319,72	4,031
319,93	6,029
320,14	5,485
320,35	3,762
320,56	0,267
320,77	1,805
320,98	10,017
321,19	6,299
321,40	3,564
321,62	5,308
321,83	7,003
322,04	6,779
322,25	5,094
322,46	9,347
322,67	6,358
322,88	5,881
323,09	1,834
323,30	6,816
323,51	6,079
323,72	3,195
323,93	3,182
324,14	2,114
324,35	3,085
324,56	1,182
324,77	4,447
324,99	2,909
325,20	-0,841
325,41	5,571
325,62	4,180
325,83	2,685
326,04	3,871
326,25	5,355
326,46	1,968
326,67	4,401
326,88	4,346
327,09	4,737
327,30	3,727
327,51	5,779
327,72	5,601
327,93	5,812
328,14	1,743
328,35	4,554
328,56	4,596
328,77	2,493
328,98	3,897
329,19	5,389
329,40	2,815
329,61	3,624
329,82	2,162
330,04	5,107
330,25	2,201
330,46	4,238
330,67	3,953
330,88	5,525
331,09	4,760
331,30	5,246
331,51	6,082
331,72	3,714
331,93	4,743
332,14	3,362
332,35	4,445
332,56	5,770
332,77	5,542
332,98	1,806
333,19	4,698
333,40	4,171
333,61	3,782
333,82	6,565
334,03	3,783
334,24	4,680
334,45	2,782
334,66	7,577
334,87	4,554
335,08	4,180
335,29	3,042
335,50	-0,060
335,71	3,953
335,92	5,470
336,13	6,488
336,34	0,423
336,55	5,057
336,76	6,123
336,97	4,473
337,18	1,628
337,39	2,998
337,60	1,684
337,81	5,038
338,02	1,472
338,23	4,433
338,44	4,537
338,65	3,523
338,86	5,864
339,07	3,374
339,28	6,725
339,49	6,060
339,70	2,400
339,91	6,061
340,11	6,843
340,32	4,227
340,53	0,824
340,74	1,036
340,95	2,015
341,16	3,255
341,37	4,639
341,58	2,651
341,79	2,795
342,00	4,038
342,21	3,849
342,42	4,483
342,63	3,018
342,84	0,927
343,05	7,071
343,26	5,784
343,47	3,381
343,68	6,508
343,89	2,187
344,10	7,556
344,31	6,697
344,52	4,311
344,73	2,100
344,94	6,873
345,14	5,204
345,35	6,257
345,56	6,237
345,77	3,725
345,98	6,084
346,19	2,072
346,40	7,814
346,61	4,173
346,82	2,134
347,03	1,091
347,24	6,387
347,45	0,917
347,66	11,223
347,87	6,588
348,08	3,871
348,28	1,590
348,49	5,874
348,70	8,424
348,91	4,915
349,12	2,075
349,33	16,437
349,54	2,054
349,75	5,347
349,96	4,909
350,17	4,196
350,38	2,332
350,59	6,975
350,80	3,631
351,00	6,906
351,21	7,086
351,42	5,079
351,63	0,500
351,84	5,231
352,05	4,506
352,26	4,953
352,47	0,402
352,68	5,092
352,89	7,616
353,09	5,932
353,30	1,588
353,51	4,097
353,72	6,837
353,93	6,393
354,14	3,136
354,35	0,834
354,56	7,142
354,77	4,630
354,98	0,950
355,18	7,780
355,39	10,166
355,60	2,620
355,81	4,569
356,02	7,213
356,23	5,961
356,44	3,891
356,65	6,991
356,85	7,566
357,06	8,183
357,27	7,157
357,48	5,000
357,69	6,477
357,90	6,850
358,11	2,112
358,32	3,483
358,52	5,863
358,73	3,213
358,94	5,050
359,15	5,859
359,36	6,041
359,57	4,756
359,78	5,623
359,98	3,445
360,19	1,409
360,40	4,165
360,61	7,151
360,82	5,378
361,03	6,023
361,24	5,347
361,44	3,683
361,65	5,261
361,86	1,344
362,07	6,541
362,28	0,350
362,49	3,583
362,70	3,666
362,90	8,793
363,11	1,714
363,32	3,259
363,53	1,694
363,74	2,771
363,95	8,101
364,15	6,446
364,36	7,240
364,57	6,449
364,78	4,124
364,99	4,857
365,20	4,704
365,40	8,561
365,61	3,377
365,82	5,928
366,03	3,991
366,24	6,471
366,45	5,128
366,65	4,493
366,86	5,841
367,07	6,826
367,28	4,968
367,49	4,090
367,69	9,675
367,90	7,020
368,11	4,720
368,32	2,667
368,53	4,904
368,73	7,997
368,94	4,223
369,15	2,767
369,36	7,957
369,57	2,525
369,78	3,614
369,98	7,015
370,19	8,344
370,40	5,356
370,61	0,925
370,82	6,832
371,02	6,456
371,23	7,755
371,44	3,780
371,65	4,520
371,85	6,676
372,06	3,680
372,27	4,396
372,48	3,676
372,69	3,308
372,89	1,915
373,10	2,217
373,31	1,384
373,52	4,129
373,73	8,695
373,93	3,994
374,14	-0,070
374,35	4,053
374,56	6,564
374,76	3,235
374,97	4,750
375,18	4,518
375,39	4,850
375,60	5,844
375,80	4,315
376,01	3,874
376,22	7,730
376,43	4,014
376,63	4,220
376,84	6,120
377,05	6,029
377,26	5,237
377,46	1,567
377,67	6,118
377,88	5,870
378,09	3,459
378,29	0,870
378,50	5,657
378,71	4,088
378,92	3,674
379,12	3,964
379,33	4,323
379,54	6,001
379,75	4,855
379,95	1,950
380,16	6,239
380,37	5,790
380,58	4,769
380,78	6,689
380,99	0,278
381,20	2,344
381,41	4,921
381,61	7,343
381,82	2,014
382,03	5,419
382,24	5,055
382,44	3,160
382,65	7,589
382,86	5,229
383,06	4,434
383,27	4,784
383,48	4,623
383,69	4,992
383,89	5,542
384,10	5,678
384,31	5,650
384,51	4,834
384,72	5,954
384,93	3,346
385,14	7,755
385,34	4,580
385,55	2,676
385,76	0,960
385,96	7,483
386,17	6,065
386,38	4,779
386,59	6,244
386,79	4,026
387,00	6,098
387,21	4,498
387,41	5,199
387,62	4,200
387,83	9,858
388,03	5,613
388,24	1,391
388,45	6,161
388,66	6,583
388,86	4,019
389,07	1,007
389,28	7,789
389,48	5,105
389,69	6,986
389,90	3,893
390,10	5,053
390,31	8,672
390,52	0,822
390,72	4,821
390,93	5,395
391,14	4,989
391,34	5,758
391,55	5,261
391,76	5,066
391,96	8,733
392,17	2,198
392,38	8,441
392,58	5,212
392,79	2,504
393,00	4,131
393,20	4,225
393,41	5,190
393,62	5,266
393,82	6,597
394,03	2,329
394,24	5,059
394,44	5,488
394,65	5,942
394,86	3,183
395,06	7,434
395,27	1,777
395,48	2,656
395,68	6,002
395,89	6,051
396,10	7,597
396,30	3,317
396,51	0,967
396,72	8,639
396,92	2,084
397,13	5,220
397,34	2,391
397,54	3,995
397,75	3,468
397,95	5,240
398,16	6,939
398,37	4,787
398,57	3,005
398,78	8,088
398,99	5,022
399,19	7,072
399,40	5,367
399,60	0,792
399,81	4,452
400,02	4,642
400,22	6,752
400,43	5,304
400,64	4,053
400,84	4,147
401,05	6,958
401,25	6,732
401,46	4,604
401,67	2,982
401,87	3,743
402,08	2,112
402,29	3,875
402,49	7,150
402,70	6,746
402,90	3,084
403,11	3,583
403,32	5,837
403,52	2,413
403,73	6,980
403,93	6,889
404,14	8,728
404,35	4,977
404,55	1,999
404,76	2,836
404,96	5,016
405,17	7,332
405,38	5,835
405,58	2,576
405,79	8,863
405,99	4,650
406,20	2,421
406,40	3,261
406,61	6,216
406,82	6,455
407,02	7,065
407,23	5,922
407,43	5,335
407,64	2,994
407,85	4,196
408,05	3,223
408,26	10,234
408,46	6,339
408,67	4,006
408,87	1,595
409,08	2,422
409,29	5,972
409,49	4,504
409,70	2,226
409,90	5,391
410,11	2,693
410,31	9,996
410,52	9,549
410,72	2,749
410,93	5,440
411,14	3,636
411,34	2,430
411,55	9,723
411,75	6,907
411,96	5,274
412,16	6,089
412,37	5,462
412,57	3,949
412,78	3,160
412,99	3,161
413,19	4,522
413,40	6,898
413,60	1,712
413,81	4,458
414,01	4,816
414,22	1,597
414,42	3,625
414,63	1,539
414,83	6,417
415,04	6,663
415,24	5,537
415,45	4,772
415,65	0,798
415,86	1,473
416,07	6,823
416,27	4,669
416,48	9,665
416,68	9,584
416,89	2,264
417,09	3,328
417,30	7,269
417,50	5,089
417,71	5,174
417,91	9,003
418,12	4,229
418,32	2,889
418,53	5,670
418,73	1,050
418,94	4,606
419,14	6,870
419,35	2,167
419,55	0,027
419,76	8,216
419,96	0,863
420,17	6,445
420,37	4,352
420,58	9,697
420,78	7,704
420,99	6,379
421,19	5,790
421,40	8,655
421,60	8,517
421,81	3,282
422,01	6,707
422,22	3,397
422,42	5,611
422,63	5,414
422,83	8,116
423,04	5,958
423,24	4,989
423,45	2,962
423,65	9,651
423,86	6,897
424,06	7,714
424,27	0,513
424,47	3,161
424,67	0,518
424,88	3,797
425,08	6,098
425,29	10,621
425,49	5,030
425,70	-1,013
425,90	2,463
426,11	5,445
426,31	5,721
426,52	5,752
426,72	5,239
426,93	2,791
427,13	8,190
427,33	3,658
427,54	7,337
427,74	6,292
427,95	6,776
428,15	2,607
428,36	7,656
428,56	5,770
428,77	7,249
428,97	3,574
429,18	3,701
429,38	3,481
429,58	8,185
429,79	3,984
429,99	5,799
430,20	0,406
430,40	10,688
430,61	5,151
430,81	3,109
431,01	4,908
431,22	8,896
431,42	8,201
431,63	2,308
431,83	6,916
432,04	5,716
432,24	8,910
432,44	1,441
432,65	4,536
432,85	5,271
433,06	7,938
433,26	5,028
433,47	0,433
433,67	3,920
433,87	5,675
434,08	0,483
434,28	5,823
434,49	2,232
434,69	9,166
434,89	1,235
435,10	5,814
435,30	6,871
435,51	1,438
435,71	2,984
435,91	3,113
436,12	6,152
436,32	4,356
436,53	6,908
436,73	3,718
436,93	7,682
437,14	9,010
437,34	6,239
437,55	5,806
437,75	4,988
437,95	4,135
438,16	4,550
438,36	4,835
438,57	2,943
438,77	2,995
438,97	6,854
439,18	9,735
439,38	8,175
439,58	6,739
439,79	2,585
439,99	5,563
440,20	8,340
440,40	6,103
440,60	10,468
440,81	3,336
441,01	2,267
441,21	5,200
441,42	8,081
441,62	6,135
441,83	3,667
442,03	5,430
442,23	7,418
442,44	4,544
442,64	7,113
442,84	1,246
443,05	5,799
443,25	4,140
443,45	5,346
443,66	8,095
443,86	3,396
444,06	4,269
444,27	1,552
444,47	7,494
444,67	4,717
444,88	4,336
445,08	6,061
445,28	6,514
445,49	2,421
445,69	2,016
445,90	6,148
446,10	9,893
446,30	7,222
446,51	4,545
446,71	8,713
446,91	7,527
447,12	10,419
447,32	3,632
447,52	4,930
447,72	5,292
447,93	6,388
448,13	2,103
448,33	9,080
448,54	5,332
448,74	3,870
448,94	5,613
449,15	10,436
449,35	3,558
449,55	4,696
449,76	11,174
449,96	7,231
450,16	6,258
450,37	5,139
450,57	4,879
450,77	0,229
450,98	6,832
451,18	8,224
451,38	4,601
451,58	7,559
451,79	9,054
451,99	8,359
452,19	6,322
452,40	6,093
452,60	6,852
452,80	8,935
453,00	4,687
453,21	11,099
453,41	7,727
453,61	6,789
453,82	7,200
454,02	0,596
454,22	10,072
454,42	9,734
454,63	4,140
454,83	7,790
455,03	8,865
455,24	9,291
455,44	7,566
455,64	9,532
455,84	-1,502
456,05	2,910
456,25	4,317
456,45	8,740
456,65	3,440
456,86	10,447
457,06	11,948
457,26	11,229
457,47	12,113
457,67	6,942
457,87	5,693
458,07	5,818
458,28	14,038
458,48	11,326
458,68	2,934
458,88	5,646
459,09	4,946
459,29	13,433
459,49	10,275
459,69	15,321
459,90	13,463
460,10	7,439
460,30	9,892
460,50	10,159
460,71	8,812
460,91	5,424
461,11	5,254
461,31	4,747
461,52	15,039
461,72	9,397
461,92	9,733
462,12	15,876
462,32	4,635
462,53	7,818
462,73	3,911
462,93	12,533
463,13	8,497
463,34	11,887
463,54	10,448
463,74	13,752
463,94	9,230
464,14	7,346
464,35	7,340
464,55	10,625
464,75	13,604
464,95	11,127
465,16	7,035
465,36	9,036
465,56	12,109
465,76	9,373
465,96	12,236
466,17	9,164
466,37	9,703
466,57	12,665
466,77	14,512
466,97	11,355
467,18	12,433
467,38	11,269
467,58	12,342
467,78	15,324
467,98	14,513
468,19	13,782
468,39	14,153
468,59	15,117
468,79	15,643
468,99	13,796
469,19	9,019
469,40	16,084
469,60	5,921
469,80	10,714
470,00	14,283
470,20	14,920
470,41	13,201
470,61	15,742
470,81	13,276
471,01	13,958
471,21	16,115
471,41	11,910
471,62	12,482
471,82	12,633
472,02	12,640
472,22	16,501
472,42	14,910
472,62	16,043
472,83	13,894
473,03	17,396
473,23	14,703
473,43	18,202
473,63	17,914
473,83	17,565
474,03	17,436
474,24	19,482
474,44	16,900
474,64	18,696
474,84	15,336
475,04	21,453
475,24	18,789
475,45	18,622
475,65	17,212
475,85	20,642
476,05	14,848
476,25	17,707
476,45	21,510
476,65	23,704
476,85	22,007
477,06	20,572
477,26	17,088
477,46	18,329
477,66	20,762
477,86	22,123
478,06	20,198
478,26	23,537
478,46	20,580
478,67	19,255
478,87	20,214
479,07	18,497
479,27	25,952
479,47	22,504
479,67	18,910
479,87	21,504
480,07	25,557
480,28	21,725
480,48	21,088
480,68	23,738
480,88	26,630
481,08	21,994
481,28	26,464
481,48	26,047
481,68	23,597
481,88	23,165
482,08	25,605
482,29	27,372
482,49	23,715
482,69	27,212
482,89	23,905
483,09	28,009
483,29	25,511
483,49	24,576
483,69	28,309
483,89	24,700
484,09	26,010
484,29	23,572
484,50	26,887
484,70	29,184
484,90	28,446
485,10	26,783
485,30	29,989
485,50	31,087
485,70	30,391
485,90	29,520
486,10	26,541
486,30	28,422
486,50	30,363
486,70	29,183
486,90	29,168
487,10	32,427
487,30	30,173
487,51	32,292
487,71	26,571
487,91	30,815
488,11	32,917
488,31	29,671
488,51	34,136
488,71	32,087
488,91	33,816
489,11	31,682
489,31	32,287
489,51	31,876
489,71	33,265
489,91	32,600
490,11	33,128
490,31	33,766
490,51	35,459
490,71	34,431
490,91	32,075
491,11	37,892
491,31	34,720
491,51	32,583
491,72	32,629
491,92	37,010
492,12	34,881
492,32	33,329
492,52	37,995
492,72	35,219
492,92	35,383
493,12	35,708
493,32	33,682
493,52	35,789
493,72	37,279
493,92	37,633
494,12	38,925
494,32	37,485
494,52	35,533
494,72	37,696
494,92	36,679
495,12	38,548
495,32	39,460
495,52	38,232
495,72	38,530
495,92	43,335
496,12	39,689
496,32	39,665
496,52	39,340
496,72	40,741
496,92	41,056
497,12	39,583
497,32	43,153
497,52	41,438
497,72	42,974
497,92	40,730
498,12	41,684
498,32	41,585
498,52	42,123
498,72	40,037
498,92	40,852
499,12	45,396
499,32	40,164
499,52	44,528
499,72	44,499
499,92	44,979
500,12	44,128
500,32	44,533
500,52	41,574
500,72	47,979
500,91	45,986
501,11	44,387
501,31	41,746
501,51	45,094
501,71	45,113
501,91	47,007
502,11	42,189
502,31	43,116
502,51	47,184
502,71	43,273
502,91	45,347
503,11	45,254
503,31	43,495
503,51	43,014
503,71	42,957
503,91	48,166
504,11	47,415
504,31	46,570
504,51	49,012
504,71	49,611
504,91	46,658
505,10	45,952
505,30	48,180
505,50	46,447
505,70	48,052
505,90	48,900
506,10	43,754
506,30	48,272
506,50	47,927
506,70	49,857
506,90	46,944
507,10	49,912
507,30	47,574
507,50	51,120
507,70	50,031
507,89	46,171
508,09	46,274
508,29	48,571
508,49	50,890
508,69	47,701
508,89	50,512
509,09	47,747
509,29	48,549
509,49	51,539
509,69	50,007
509,89	47,182
510,09	50,650
510,28	51,162
510,48	50,138
510,68	47,862
510,88	48,072
511,08	49,850
511,28	49,428
511,48	49,550
511,68	46,564
511,88	51,036
512,07	50,841
512,27	52,641
512,47	49,509
512,67	48,942
512,87	48,736
513,07	49,611
513,27	50,141
513,47	47,634
513,67	48,486
513,86	50,385
514,06	49,709
514,26	51,856
514,46	53,471
514,66	50,161
514,86	50,633
515,06	56,100
515,26	53,885
515,45	52,675
515,65	49,844
515,85	50,669
516,05	52,004
516,25	52,249
516,45	49,808
516,65	50,410
516,84	51,271
517,04	53,266
517,24	49,728
517,44	49,028
517,64	54,509
517,84	52,418
518,04	53,392
518,23	52,300
518,43	56,323
518,63	51,088
518,83	50,979
519,03	51,182
519,23	55,212
519,42	50,223
519,62	51,345
519,82	51,228
520,02	47,827
520,22	54,966
520,42	50,835
520,61	53,935
520,81	53,657
521,01	57,452
521,21	49,260
521,41	50,836
521,61	52,479
521,80	50,970
522,00	50,058
522,20	53,871
522,40	52,393
522,60	51,785
522,79	52,918
522,99	56,916
523,19	49,584
523,39	53,926
523,59	51,115
523,78	54,931
523,98	53,379
524,18	53,166
524,38	49,911
524,58	51,486
524,77	53,853
524,97	52,915
525,17	51,266
525,37	51,163
525,57	54,993
525,76	50,914
525,96	52,580
526,16	52,954
526,36	50,539
526,56	54,804
526,75	50,838
526,95	53,211
527,15	54,790
527,35	51,671
527,55	55,868
527,74	56,115
527,94	49,291
528,14	52,932
528,34	50,032
528,53	51,858
528,73	53,667
528,93	51,879
529,13	52,296
529,32	52,322
529,52	52,901
529,72	51,699
529,92	52,655
530,12	52,314
530,31	48,368
530,51	53,618
530,71	56,546
530,91	53,842
531,10	49,462
531,30	51,140
531,50	50,276
531,70	52,481
531,89	56,772
532,09	50,699
532,29	48,916
532,49	50,827
532,68	51,531
532,88	52,545
533,08	53,090
533,28	52,483
533,47	52,616
533,67	50,841
533,87	49,722
534,06	53,085
534,26	54,197
534,46	51,532
534,66	54,426
534,85	53,715
535,05	46,392
535,25	51,210
535,45	50,993
535,64	52,233
535,84	48,091
536,04	48,986
536,23	51,409
536,43	53,856
536,63	49,599
536,83	55,012
537,02	51,572
537,22	50,391
537,42	53,703
537,61	51,796
537,81	52,033
538,01	47,500
538,20	51,404
538,40	50,474
538,60	50,038
538,80	48,079
538,99	48,902
539,19	49,368
539,39	50,540
539,58	49,412
539,78	46,254
539,98	48,174
540,17	47,935
540,37	47,895
540,57	46,201
540,76	49,432
540,96	44,447
541,16	47,081
541,36	45,546
541,55	41,798
541,75	43,641
541,95	42,166
542,14	43,643
542,34	43,654
542,54	43,935
542,73	42,470
542,93	45,804
543,13	45,770
543,32	43,957
543,52	44,484
543,72	42,775
543,91	43,961
544,11	43,726
544,31	44,475
544,50	44,299
544,70	45,666
544,89	44,695
545,09	46,533
545,29	43,700
545,48	45,315
545,68	44,789
545,88	43,286
546,07	45,102
546,27	44,694
546,47	45,865
546,66	46,401
546,86	49,205
547,06	46,429
547,25	47,486
547,45	48,748
547,64	48,741
547,84	52,132
548,04	48,145
548,23	50,750
548,43	49,020
548,63	51,567
548,82	49,919
549,02	48,762
549,21	49,536
549,41	50,958
549,61	51,373
549,80	50,145
550,00	49,387
550,20	48,792
550,39	50,932
550,59	47,628
550,78	51,618
550,98	47,943
551,18	51,545
551,37	52,557
551,57	49,119
551,76	49,583
551,96	48,444
552,16	49,189
552,35	48,171
552,55	52,050
552,74	50,462
552,94	51,115
553,14	51,443
553,33	51,124
553,53	48,759
553,72	51,515
553,92	51,014
554,12	51,156
554,31	50,957
554,51	54,060
554,70	51,453
554,90	51,291
555,09	54,390
555,29	53,468
555,49	50,975
555,68	52,359
555,88	49,194
556,07	52,465
556,27	54,109
556,46	52,019
556,66	50,986
556,86	53,429
557,05	53,071
557,25	50,658
557,44	51,176
557,64	51,576
557,83	53,541
558,03	50,454
558,22	50,373
558,42	52,241
558,62	54,644
558,81	50,952
559,01	50,663
559,20	52,196
559,40	53,191
559,59	49,936
559,79	51,682
559,98	52,055
560,18	52,644
560,37	54,916
560,57	50,671
560,76	51,194
560,96	51,330
561,16	55,585
561,35	50,477
561,55	55,085
561,74	51,613
561,94	50,835
562,13	51,396
562,33	52,259
562,52	50,670
562,72	51,134
562,91	53,725
563,11	51,938
563,30	53,599
563,50	49,713
563,69	50,608
563,89	52,083
564,08	51,407
564,28	49,906
564,47	52,777
564,67	52,765
564,86	54,700
565,06	50,991
565,25	52,454
565,45	52,355
565,64	52,435
565,84	49,519
566,03	50,567
566,23	52,211
566,42	51,885
566,62	53,071
566,81	52,542
567,01	51,837
567,20	52,597
567,40	50,407
567,59	51,274
567,79	54,485
567,98	55,853
568,18	52,503
568,37	51,724
568,57	52,362
568,76	53,907
568,96	53,320
569,15	50,751
569,35	54,099
569,54	54,297
569,73	54,929
569,93	51,613
570,12	51,801
570,32	53,493
570,51	52,892
570,71	53,718
570,90	53,059
571,10	50,445
571,29	52,529
571,49	51,592
571,68	52,352
571,87	52,162
572,07	52,833
572,26	50,589
572,46	52,019
572,65	54,784
572,85	51,703
573,04	52,507
573,24	52,140
573,43	54,269
573,62	53,497
573,82	52,939
574,01	51,595
574,21	52,161
574,40	50,510
574,60	52,146
574,79	53,324
574,98	49,941
575,18	52,677
575,37	51,492
575,57	53,515
575,76	51,570
575,96	51,845
576,15	51,023
576,34	51,915
576,54	53,090
576,73	53,761
576,93	51,644
577,12	51,011
577,31	54,404
577,51	50,698
577,70	52,034
577,90	52,909
578,09	49,833
578,28	49,998
578,48	51,247
578,67	53,857
578,87	51,692
579,06	50,908
579,25	51,200
579,45	50,781
579,64	50,708
579,84	50,799
580,03	51,345
580,22	51,951
580,42	50,284
580,61	51,964
580,81	51,776
581,00	51,781
581,19	52,776
581,39	51,227
581,58	50,145
581,77	52,811
581,97	53,309
582,16	50,885
582,35	51,186
582,55	50,769
582,74	53,993
582,94	51,160
583,13	52,756
583,32	52,552
583,52	50,404
583,71	51,903
583,90	52,349
584,10	51,955
584,29	51,577
584,48	51,726
584,68	52,030
584,87	51,106
585,06	50,164
585,26	51,435
585,45	49,725
585,65	53,827
585,84	50,784
586,03	49,869
586,23	51,540
586,42	50,781
586,61	51,938
586,81	50,606
587,00	52,701
587,19	49,194
587,39	53,556
587,58	51,335
587,77	51,240
587,97	51,198
588,16	49,874
588,35	53,078
588,54	52,731
588,74	50,986
588,93	52,857
589,12	52,087
589,32	51,320
589,51	50,189
589,70	50,576
589,90	50,054
590,09	50,497
590,28	53,818
590,48	49,452
590,67	52,690
590,86	49,390
591,06	51,989
591,25	52,332
591,44	50,495
591,63	50,376
591,83	52,030
592,02	50,066
592,21	50,979
592,41	51,811
592,60	51,583
592,79	50,451
592,98	49,395
593,18	50,786
593,37	51,061
593,56	51,048
593,76	51,606
593,95	50,004
594,14	50,565
594,33	53,917
594,53	52,486
594,72	51,125
594,91	54,385
595,10	53,193
595,30	51,527
595,49	51,686
595,68	52,121
595,88	51,607
596,07	52,133
596,26	51,582
596,45	52,039
596,65	50,982
596,84	51,493
597,03	51,809
597,22	51,423
597,42	53,972
597,61	50,623
597,80	52,484
597,99	51,653
598,19	51,903
598,38	50,954
598,57	51,202
598,76	52,226
598,95	52,562
599,15	52,275
599,34	52,196
599,53	51,123
599,72	53,340
599,92	54,051
600,11	52,198
600,30	51,882
600,49	52,867
600,69	51,646
600,88	53,737
601,07	52,764
601,26	53,256
601,45	51,514
601,65	50,922
601,84	51,916
602,03	51,676
602,22	52,506
602,42	53,715
602,61	52,123
602,80	53,532
602,99	53,463
603,18	50,293
603,38	51,415
603,57	50,892
603,76	50,861
603,95	51,958
604,14	53,762
604,34	50,641
604,53	51,282
604,72	51,954
604,91	50,874
605,10	52,153
605,29	53,079
605,49	49,878
605,68	52,213
605,87	52,027
606,06	52,824
606,25	50,803
606,45	52,655
606,64	52,321
606,83	52,127
607,02	51,443
607,21	51,461
607,40	51,884
607,60	51,022
607,79	50,446
607,98	50,352
608,17	50,258
608,36	49,842
608,55	48,998
608,75	51,226
608,94	50,576
609,13	47,127
609,32	47,243
609,51	48,198
609,70	47,763
609,89	47,712
610,09	46,632
610,28	48,786
610,47	47,336
610,66	46,483
610,85	46,809
611,04	48,409
611,23	47,577
611,43	47,252
611,62	45,202
611,81	47,268
612,00	46,069
612,19	45,719
612,38	46,974
612,57	48,373
612,77	47,286
612,96	48,082
613,15	46,956
613,34	48,916
613,53	49,129
613,72	50,844
613,91	49,717
614,10	48,054
614,29	49,954
614,49	49,104
614,68	49,242
614,87	50,238
615,06	51,534
615,25	49,408
615,44	51,318
615,63	49,707
615,82	50,379
616,01	48,993
616,21	49,633
616,40	51,039
616,59	52,354
616,78	50,795
616,97	50,425
617,16	50,612
617,35	52,542
617,54	50,691
617,73	52,492
617,92	50,418
618,11	51,538
618,31	48,454
618,50	50,738
618,69	50,890
618,88	50,355
619,07	48,899
619,26	48,887
619,45	48,830
619,64	50,545
619,83	48,624
620,02	47,739
620,21	52,573
620,40	50,509
620,59	50,082
620,78	48,954
620,97	50,486
621,17	49,949
621,36	50,917
621,55	49,346
621,74	50,257
621,93	51,013
622,12	49,750
622,31	50,173
622,50	50,214
622,69	52,300
622,88	51,073
623,07	49,659
623,26	50,968
623,45	53,874
623,64	49,053
623,83	50,879
624,02	51,931
624,21	51,592
624,40	51,155
624,59	51,407
624,78	51,117
624,97	52,662
625,16	49,864
625,35	49,592
625,54	48,700
625,73	50,928
625,92	49,788
626,12	51,242
626,31	51,798
626,50	49,876
626,69	50,041
626,88	51,423
627,07	50,895
627,26	50,984
627,45	50,209
627,64	49,842
627,83	50,200
628,02	48,744
628,21	49,660
628,40	49,292
628,59	52,157
628,78	48,915
628,97	49,914
629,16	48,598
629,35	49,114
629,54	52,450
629,73	49,243
629,92	50,483
630,10	50,525
630,29	50,912
630,48	49,668
630,67	49,293
630,86	50,212
631,05	49,259
631,24	51,321
631,43	49,954
631,62	50,777
631,81	49,260
632,00	49,704
632,19	49,176
632,38	52,573
632,57	51,372
632,76	49,398
632,95	50,445
633,14	51,475
633,33	49,268
633,52	52,079
633,71	51,254
633,90	51,702
634,09	48,440
634,28	50,296
634,47	50,706
634,66	48,842
634,85	51,894
635,04	53,247
635,22	50,128
635,41	51,140
635,60	51,260
635,79	51,461
635,98	49,458
636,17	51,095
636,36	51,275
636,55	51,664
636,74	49,436
636,93	49,180
637,12	51,820
637,31	50,142
637,50	47,634
637,69	50,301
637,87	51,317
638,06	50,812
638,25	51,106
638,44	50,301
638,63	46,884
638,82	49,865
639,01	51,248
639,20	49,968
639,39	50,479
639,58	48,675
639,77	51,046
639,95	49,330
640,14	52,130
640,33	49,049
640,52	49,406
640,71	50,636
640,90	51,599
641,09	53,077
641,28	49,075
641,47	52,517
641,66	49,662
641,84	49,531
642,03	49,721
642,22	50,604
642,41	52,785
642,60	50,471
642,79	50,669
642,98	50,758
643,17	49,389
643,35	48,844
643,54	51,087
643,73	51,555
643,92	50,625
644,11	51,383
644,30	48,944
644,49	52,840
644,67	51,418
644,86	48,224
645,05	51,669
645,24	49,030
645,43	49,733
645,62	50,294
645,81	50,113
645,99	54,134
646,18	52,327
646,37	49,053
646,56	50,490
646,75	50,897
646,94	49,889
647,13	50,523
647,31	49,511
647,50	51,268
647,69	51,979
647,88	49,560
648,07	48,620
648,26	53,338
648,44	49,438
648,63	49,828
648,82	49,440
649,01	51,669
649,20	48,075
649,38	51,059
649,57	51,086
649,76	48,309
649,95	51,859
650,14	49,074
650,33	48,564
650,51	51,272
650,70	48,809
650,89	48,179
651,08	51,612
651,27	50,291
651,45	47,972
651,64	49,279
651,83	49,866
652,02	49,891
652,21	51,701
652,39	51,258
652,58	49,828
652,77	47,996
652,96	51,374
653,15	48,848
653,33	49,717
653,52	49,369
653,71	51,986
653,90	51,120
654,09	50,275
654,27	50,771
654,46	51,190
654,65	50,670
654,84	51,057
655,02	51,781
655,21	51,213
655,40	52,151
655,59	51,065
655,77	51,374
655,96	50,486
656,15	52,141
656,34	51,994
656,53	50,301
656,71	51,817
656,90	52,057
657,09	52,080
657,28	52,809
657,46	50,621
657,65	51,710
657,84	49,475
658,03	52,389
658,21	50,321
658,40	50,863
658,59	50,513
658,78	49,500
658,96	47,914
659,15	48,816
659,34	49,547
659,52	49,512
659,71	50,174
659,90	49,338
660,09	50,653
660,27	49,359
660,46	51,082
660,65	49,017
660,84	49,131
661,02	48,584
661,21	49,264
661,40	48,559
661,58	48,990
661,77	49,845
661,96	48,004
662,15	49,109
662,33	47,771
662,52	47,430
662,71	47,291
662,89	46,326
663,08	48,555
663,27	50,102
663,45	49,596
663,64	47,668
663,83	46,161
664,02	48,236
664,20	50,242
664,39	47,160
664,58	48,726
664,76	47,560
664,95	48,255
665,14	48,225
665,32	48,606
665,51	49,087
665,70	48,766
665,88	48,032
666,07	48,501
666,26	49,376
666,44	49,223
666,63	48,049
666,82	48,318
667,00	51,354
667,19	46,135
667,38	47,091
667,56	47,618
667,75	48,641
667,94	47,587
668,12	46,381
668,31	47,821
668,50	47,424
668,68	48,066
668,87	47,556
669,06	47,613
669,24	47,418
669,43	47,566
669,62	45,589
669,80	46,699
669,99	47,717
670,18	46,746
670,36	47,172
670,55	47,175
670,74	48,131
670,92	45,030
671,11	48,210
671,29	46,887
671,48	46,895
671,67	47,066
671,85	46,466
672,04	46,730
672,23	47,238
672,41	46,914
672,60	46,940
672,78	45,662
672,97	46,416
673,16	48,494
673,34	48,106
673,53	46,164
673,71	48,238
673,90	47,770
674,09	45,961
674,27	46,128
674,46	46,855
674,64	47,589
674,83	47,380
675,02	44,829
675,20	45,806
675,39	45,437
675,57	46,505
675,76	44,913
675,95	47,304
676,13	47,381
676,32	46,926
676,50	46,565
676,69	46,604
676,88	47,079
677,06	45,524
677,25	46,637
677,43	50,018
677,62	48,427
677,80	46,870
677,99	47,049
678,18	46,733
678,36	48,344
678,55	44,388
678,73	46,590
678,92	48,046
679,10	48,348
679,29	46,844
679,48	46,334
679,66	47,347
679,85	44,728
680,03	47,540
680,22	46,777
680,40	45,926
680,59	46,389
680,77	47,013
680,96	45,888
681,15	46,606
681,33	47,789
681,52	47,130
681,70	46,456
681,89	49,347
682,07	47,719
682,26	46,987
682,44	48,105
682,63	47,620
682,81	46,699
683,00	48,650
683,18	46,914
683,37	47,044
683,55	46,683
683,74	48,573
683,92	50,512
684,11	48,687
684,29	48,131
684,48	47,097
684,67	47,315
684,85	48,987
685,04	48,422
685,22	47,676
685,41	47,973
685,59	49,012
685,78	48,582
685,96	47,617
686,15	48,109
686,33	47,702
686,52	48,085
686,70	47,854
686,89	48,749
687,07	49,516
687,26	49,161
687,44	49,614
687,62	47,297
687,81	50,169
687,99	47,233
688,18	47,321
688,36	48,167
688,55	49,189
688,73	47,977
688,92	48,188
689,10	48,409
689,29	48,363
689,47	51,491
689,66	49,041
689,84	49,618
690,03	53,134
690,21	49,843
690,40	50,011
690,58	48,130
690,76	47,190
690,95	49,517
691,13	47,400
691,32	48,895
691,50	50,293
691,69	51,051
691,87	48,400
692,06	49,334
692,24	48,213
692,43	49,540
692,61	49,139
692,79	49,738
692,98	48,046
693,16	51,617
693,35	49,348
693,53	50,571
693,72	50,065
693,90	51,698
694,08	48,880
694,27	48,886
694,45	50,998
694,64	51,755
694,82	48,965
695,01	48,902
695,19	49,284
695,37	50,845
695,56	50,989
695,74	49,600
695,93	51,546
696,11	47,515
696,29	50,418
696,48	48,348
696,66	51,719
696,85	49,553
697,03	49,022
697,21	50,258
697,40	49,931
697,58	49,882
697,77	51,351
697,95	50,312
698,13	53,481
698,32	50,092
698,50	51,084
698,69	48,841
698,87	50,948
699,05	47,697
699,24	49,694
699,42	49,022
699,60	46,758
699,79	49,509
699,97	49,133
700,16	48,477
700,34	53,405
700,52	50,011
700,71	50,032
700,89	48,390
701,07	51,175
701,26	50,624
701,44	50,346
701,63	49,404
701,81	49,726
701,99	50,790
702,18	48,310
702,36	49,004
702,54	49,141
702,73	48,434
702,91	50,384
703,09	49,636
703,28	47,560
703,46	49,828
703,64	47,596
703,83	50,928
704,01	49,304
704,19	49,210
704,38	48,348
704,56	48,038
704,74	51,833
704,93	49,766
705,11	50,958
705,29	49,376
705,48	52,007
705,66	48,795
705,84	49,787
706,03	48,586
706,21	49,963
706,39	50,140
706,58	48,582
706,76	49,591
706,94	50,341
707,12	49,433
707,31	48,531
707,49	47,559
707,67	50,169
707,86	50,254
708,04	51,075
708,22	48,978
708,41	49,219
708,59	49,347
708,77	47,161
708,95	50,887
709,14	52,679
709,32	49,834
709,50	48,910
709,69	48,170
709,87	48,062
710,05	50,262
710,23	49,134
710,42	49,611
710,60	51,020
710,78	51,451
710,97	49,898
711,15	49,452
711,33	52,010
711,51	48,856
711,70	48,404
711,88	49,927
712,06	51,312
712,24	51,102
712,43	51,048
712,61	50,097
712,79	50,105
712,97	49,361
713,16	49,898
713,34	50,097
713,52	51,085
713,70	50,199
713,89	49,687
714,07	50,054
714,25	48,894
714,43	51,750
714,62	49,633
714,80	49,185
714,98	47,931
715,16	51,184
715,35	48,039
715,53	48,616
715,71	50,660
715,89	50,554
716,07	50,216
716,26	52,368
716,44	52,061
716,62	50,543
716,80	50,492
716,99	49,930
717,17	50,185
717,35	48,869
717,53	49,515
717,71	47,666
717,90	49,157
718,08	48,680
718,26	47,564
718,44	50,912
718,62	49,880
718,81	50,748
718,99	49,247
719,17	50,625
719,35	50,413
719,53	48,336
719,72	47,267
719,90	51,349
720,08	50,950
720,26	50,621
720,44	50,364
720,62	49,623
720,81	51,258
720,99	52,648
721,17	48,800
721,35	50,266
721,53	50,387
721,72	52,054
721,90	49,974
722,08	50,793
722,26	52,113
722,44	48,797
722,62	49,437
722,81	47,876
722,99	50,886
723,17	51,047
723,35	49,942
723,53	49,182
723,71	51,689
723,89	51,422
724,08	50,022
724,26	48,679
724,44	50,728
724,62	48,262
724,80	49,264
724,98	50,971
725,16	51,256
725,35	49,102
725,53	48,536
725,71	49,018
725,89	49,706
726,07	52,360
726,25	52,492
726,43	50,849
726,61	50,226
726,80	51,782
726,98	48,989
727,16	51,019
727,34	48,686
727,52	50,060
727,70	49,129
727,88	49,947
728,06	49,421
728,25	48,364
728,43	50,816
728,61	48,181
728,79	48,986
728,97	50,640
729,15	48,511
729,33	50,499
729,51	49,964
729,69	52,383
729,87	50,971
730,06	47,230
730,24	50,208
730,42	50,029
730,60	48,857
730,78	49,926
730,96	48,208
731,14	51,403
731,32	50,148
731,50	48,580
731,68	48,494
731,86	48,157
732,04	50,688
732,22	49,506
732,41	50,866
732,59	51,103
732,77	52,387
732,95	52,916
733,13	52,008
733,31	49,668
733,49	49,972
733,67	51,521
733,85	50,202
734,03	49,721
734,21	50,252
734,39	49,485
734,57	53,273
734,75	50,030
734,93	49,144
735,11	50,398
735,29	47,799
735,47	51,540
735,65	49,240
735,84	48,481
736,02	50,223
736,20	51,982
736,38	50,211
736,56	49,294
736,74	49,956
736,92	51,070
737,10	49,696
737,28	48,679
737,46	51,160
737,64	49,499
737,82	50,524
738,00	51,026
738,18	50,699
738,36	49,483
738,54	47,604
738,72	50,751
738,90	50,930
739,08	52,307
739,26	46,821
739,44	51,517
739,62	51,948
739,80	49,428
739,98	51,607
740,16	47,990
740,34	49,363
740,52	52,933
740,70	49,404
740,88	49,637
741,06	50,752
741,24	51,578
741,42	51,225
741,60	48,426
741,78	52,608
741,96	49,765
742,14	49,920
742,32	50,116
742,50	49,218
742,68	49,042
742,86	51,148
743,04	49,819
743,21	52,555
743,39	51,122
743,57	49,476
743,75	49,725
743,93	49,411
744,11	48,608
744,29	50,217
744,47	50,057
744,65	50,585
744,83	48,498
745,01	49,613
745,19	49,189
745,37	50,868
745,55	51,331
745,73	52,219
745,91	47,792
746,09	51,072
746,27	49,797
746,45	47,832
746,62	50,551
746,80	48,401
746,98	48,797
747,16	49,054
747,34	47,923
747,52	49,754
747,70	49,486
747,88	49,601
748,06	49,474
748,24	49,011
748,42	50,685
748,60	50,268
748,78	50,542
748,95	49,655
749,13	51,575
749,31	49,081
749,49	48,721
749,67	49,393
749,85	51,243
750,03	50,653
750,21	48,781
750,39	53,202
750,57	50,610
750,74	51,162
750,92	47,354
751,10	51,251
751,28	47,794
751,46	49,783
751,64	51,369
751,82	50,365
752,00	48,872
752,17	50,789
752,35	48,902
752,53	50,692
752,71	50,549
752,89	49,804
753,07	47,481
753,25	51,487
753,43	48,878
753,60	51,467
753,78	48,211
753,96	53,186
754,14	49,104
754,32	50,013
754,50	52,115
754,68	52,617
754,85	50,297
755,03	50,272
755,21	50,517
755,39	54,039
755,57	50,543
755,75	49,958
755,92	48,442
756,10	52,982
756,28	53,991
756,46	49,030
756,64	50,995
756,82	49,755
756,99	49,020
757,17	48,434
757,35	49,870
757,53	49,630
757,71	52,783
757,89	49,246
758,06	50,584
758,24	49,997
758,42	50,296
758,60	49,063
758,78	48,968
758,95	52,367
759,13	50,925
759,31	48,225
759,49	50,893
759,67	49,926
759,84	50,421
760,02	51,694
760,20	48,034
760,38	50,451
760,56	48,583
760,73	50,754
760,91	51,942
761,09	50,996
761,27	49,858
761,45	48,840
761,62	49,029
761,80	48,573
761,98	50,520
762,16	49,608
762,33	48,968
762,51	50,807
762,69	48,820
762,87	48,263
763,05	50,952
763,22	49,167
763,40	50,849
763,58	48,701
763,76	50,527
763,93	50,054
764,11	51,647
764,29	48,483
764,47	52,240
764,64	50,393
764,82	52,414
765,00	50,005
765,18	46,534
765,35	49,168
765,53	50,249
765,71	50,213
765,89	48,202
766,06	51,089
766,24	49,301
766,42	51,444
766,60	49,759
766,77	48,715
766,95	48,706
767,13	50,343
767,30	50,253
767,48	50,803
767,66	50,309
767,84	48,366
768,01	49,677
768,19	52,490
768,37	51,179
768,54	48,254
768,72	50,248
768,90	50,614
769,08	51,540
769,25	50,125
769,43	49,917
769,61	47,396
769,78	49,684
769,96	50,257
770,14	49,650
770,31	52,026
770,49	48,712
770,67	51,723
770,85	49,442
771,02	50,144
771,20	49,411
771,38	52,694
771,55	49,265
771,73	51,303
771,91	49,166
772,08	51,911
772,26	50,154
772,44	50,589
772,61	49,038
772,79	48,968
772,97	50,224
773,14	49,243
773,32	49,755
773,50	47,872
773,67	49,734
773,85	53,015
774,03	52,946
774,20	50,367
774,38	48,617
774,56	48,057
774,73	51,056
774,91	49,650
775,09	51,295
775,26	49,219
775,44	51,412
775,61	51,692
775,79	49,372
775,97	51,631
776,14	49,740
776,32	48,977
776,50	49,467
776,67	49,694
776,85	52,227
777,03	47,709
777,20	50,831
777,38	50,885
777,55	49,864
777,73	48,782
777,91	48,451
778,08	52,669
778,26	48,233
778,43	49,924
778,61	46,391
778,79	50,917
778,96	47,021
779,14	49,618
779,32	48,530
779,49	52,022
779,67	54,068
779,84	49,335
780,02	50,412
780,20	47,807
780,37	51,375
780,55	45,639
780,72	50,808
780,90	51,293
781,07	48,453
781,25	50,807
781,43	51,180
781,60	48,848
781,78	50,863
781,95	49,206
782,13	50,319
782,30	54,347
782,48	49,485
782,66	50,284
782,83	49,501
783,01	54,308
783,18	51,003
783,36	52,753
783,53	52,679
783,71	49,267
783,89	48,238
784,06	51,389
784,24	52,139
784,41	52,462
784,59	50,631
784,76	53,544
784,94	52,231
785,11	50,149
785,29	52,534
785,46	52,704
785,64	49,606
785,82	50,496
785,99	49,466
786,17	51,107
786,34	49,559
786,52	50,853
786,69	51,003
786,87	52,045
787,04	50,088
787,22	49,822
787,39	50,720
787,57	50,715
787,74	50,331
787,92	53,963
788,09	52,037
788,27	51,503
788,44	49,913
788,62	50,274
788,79	51,344
788,97	53,191
789,14	51,124
789,32	52,547
789,49	52,581
789,67	50,503
789,84	52,287
790,02	52,790
790,19	49,971
790,37	52,015
790,54	53,261
790,72	54,816
790,89	55,439
791,07	50,542
791,24	50,642
791,42	51,358
791,59	49,874
791,77	48,454
791,94	49,293
792,12	48,163
792,29	54,139
792,47	50,830
792,64	52,859
792,81	53,269
792,99	50,319
793,16	52,205
793,34	51,470
793,51	53,401
793,69	50,645
793,86	50,946
794,04	53,385
794,21	52,932
794,39	50,444
794,56	51,539
794,73	51,760
794,91	56,742
795,08	52,867
795,26	51,025
795,43	49,821
795,61	53,998
795,78	54,004
795,95	54,175
796,13	52,873
796,30	53,646
796,48	51,813
796,65	49,784
796,83	55,481
797,00	57,357
797,17	51,761
797,35	53,660
797,52	51,466
797,70	54,054
797,87	50,167
798,04	50,982
798,22	50,551
798,39	53,810
798,57	52,300
798,74	53,652
798,91	51,896
799,09	51,155
799,26	51,370
799,44	51,412
799,61	49,275
799,78	53,162
799,96	54,246
800,13	50,423
800,31	52,084
800,48	55,234
800,65	52,692
800,83	51,655
801,00	51,891
801,17	53,498
801,35	51,606
801,52	51,516
801,70	52,566
801,87	51,028
802,04	54,366
802,22	52,331
802,39	49,787
802,56	55,295
802,74	51,002
802,91	55,457
803,08	50,229
803,26	52,609
803,43	53,221
803,61	49,962
803,78	51,879
803,95	51,600
804,13	53,693
804,30	50,975
804,47	50,040
804,65	52,822
804,82	53,143
804,99	52,934
805,17	50,120
805,34	58,220
805,51	55,207
805,69	50,991
805,86	53,412
806,03	55,800
806,21	54,016
806,38	54,114
806,55	53,357
806,72	55,342
806,90	51,525
807,07	54,369
807,24	52,073
807,42	49,820
807,59	52,996
807,76	47,750
807,94	51,295
808,11	57,077
808,28	53,676
808,45	52,200
808,63	57,401
808,80	54,138
808,97	53,106
809,15	51,455
809,32	53,717
809,49	51,440
809,67	52,949
809,84	54,976
810,01	56,551
810,18	63,479
810,36	55,321
810,53	56,163
810,70	54,458
810,87	54,343
811,05	49,829
811,22	53,803
811,39	52,718
811,57	58,368
811,74	56,794
811,91	54,566
812,08	56,010
812,26	51,821
812,43	50,806
812,60	57,053
812,77	52,802
812,95	57,890
813,12	54,133
813,29	50,978
813,46	53,981
813,64	58,073
813,81	56,675
813,98	53,497
814,15	57,491
814,32	51,883
814,50	57,186
814,67	54,170
814,84	53,558
815,01	56,975
815,19	52,517
815,36	48,835
815,53	52,090
815,70	50,902
815,87	54,480
816,05	48,365
816,22	54,489
816,39	58,283
816,56	55,622
816,74	56,923
816,91	52,491
817,08	59,441
817,25	58,069
817,42	55,381
817,60	52,746
817,77	52,229
817,94	55,301
818,11	55,384
818,28	55,164
818,45	55,003
818,63	53,881
818,80	54,094
818,97	53,778
819,14	59,568
819,31	56,148
819,49	57,688
819,66	54,557
819,83	57,054
820,00	55,668
820,17	52,503
820,34	56,198
820,52	57,993
820,69	53,558
820,86	52,239
821,03	54,674
821,20	59,744
821,37	58,368
821,55	50,147
821,72	57,831
821,89	57,569
822,06	62,928
822,23	51,036
822,40	50,915
822,57	59,328
822,75	63,810
822,92	51,609
823,09	52,205
823,26	58,876
823,43	61,463
823,60	55,844
823,77	54,242
823,94	60,547
824,12	62,612
824,29	53,162
824,46	50,988
824,63	64,011
824,80	55,498
824,97	57,471
825,14	55,649
825,31	58,708
825,49	56,391
825,66	49,160
825,83	52,996
826,00	53,759
826,17	64,101
826,34	58,399
826,51	47,188
826,68	55,271
826,85	59,062
827,02	51,953
827,20	51,628
827,37	57,634
827,54	55,172
827,71	54,693
827,88	56,883
828,05	54,328
828,22	60,492
828,39	53,801
828,56	63,108
828,73	58,579
828,90	59,546
829,07	54,432
829,25	59,947
829,42	63,017
829,59	58,253
829,76	53,309
829,93	55,312
830,10	56,959
830,27	56,713
830,44	57,117
830,61	58,306
830,78	46,895
830,95	60,882
831,12	52,555
831,29	56,741
831,46	54,551
831,63	57,590
831,80	55,626
831,97	48,858
832,14	56,112
832,31	68,433
832,48	55,768
832,65	59,179
832,83	55,977
833,00	57,108
833,17	50,146
833,34	57,553
833,51	60,027
833,68	62,132
833,85	60,708
834,02	49,522
834,19	61,814
834,36	59,345
834,53	52,319
834,70	53,003
834,87	62,326
835,04	62,910
835,21	59,114
835,38	54,850
835,55	47,106
835,72	65,291
835,89	54,557
836,06	61,082
836,23	66,387
836,40	49,856
836,57	54,589
836,74	61,177
836,91	59,546
837,08	60,466
837,25	57,937
837,42	49,787
837,59	51,332
837,76	61,185
837,93	53,985
838,09	48,867
838,26	56,007
838,43	67,357
838,60	58,585
838,77	53,026
838,94	67,151
839,11	54,838
839,28	55,598
839,45	55,880
839,62	59,509
839,79	68,263
839,96	62,616
840,13	62,276
840,30	56,100
840,47	50,454
840,64	57,781
840,81	64,211
840,98	54,211
841,15	67,400
841,32	53,080
841,48	66,181
841,65	54,474
841,82	57,004
841,99	63,975
842,16	49,872
842,33	64,930
842,50	65,280
842,67	59,078
842,84	64,009
843,01	71,777
843,18	61,631
843,35	55,623
843,52	53,144
843,68	62,378
843,85	53,975
844,02	62,123
844,19	57,261
844,36	70,084
844,53	66,986
844,70	63,562
844,87	60,668
845,04	56,145
845,21	56,845
845,37	69,850
845,54	54,986
845,71	56,113
845,88	66,797
846,05	52,763
846,22	53,919
846,39	57,416
846,56	66,715
846,72	50,029
846,89	57,398
847,06	74,227
847,23	72,671
847,40	56,317
847,57	59,132
847,74	54,150
847,90	63,645
848,07	57,835
848,24	62,152
848,41	62,592
848,58	75,700
848,75	55,114
848,92	63,779
849,08	57,270
849,25	64,454
849,42	47,893
849,59	60,558
849,76	54,676
849,93	66,193
850,09	81,463
850,26	48,704
850,43	67,684
850,60	56,953
850,77	59,757
850,94	55,488
851,10	67,869
851,27	65,442
851,44	61,615
851,61	49,529
851,78	61,476
851,95	68,112
852,11	51,956
852,28	57,468
852,45	63,676
852,62	62,260
852,79	61,100
852,95	58,188
853,12	71,191
853,29	61,273
853,46	51,687
853,63	57,652
853,79	67,326
853,96	58,766
854,13	73,488
854,30	58,430
854,46	88,356
854,63	62,866
854,80	64,567
854,97	53,380
855,14	70,584
855,30	57,327
855,47	50,037
855,64	58,083
855,81	56,244
855,97	69,289
856,14	65,682
856,31	52,948
856,48	67,855
856,65	72,005
856,81	60,335
856,98	54,199
857,15	60,954
857,32	70,247
857,48	65,644
857,65	54,029
857,82	45,022
857,99	76,989
858,15	74,417
858,32	57,425
858,49	65,374
858,65	91,114
858,82	72,314
858,99	63,839
859,16	76,316
859,32	69,700
859,49	64,453
859,66	61,056
859,83	62,352
859,99	57,472
860,16	66,501
860,33	58,128
860,49	72,815
860,66	70,028
860,83	69,203
861,00	61,434
861,16	71,814
861,33	69,118
861,50	55,504
861,66	62,732
861,83	73,381
862,00	62,108
862,16	64,018
862,33	64,104
862,50	99,299
862,67	72,990
862,83	60,494
863,00	80,680
863,17	82,358
863,33	70,188
863,50	41,093
863,67	55,058
863,83	71,172
864,00	79,945
864,17	68,923
864,33	73,692
864,50	69,482
864,67	69,991
864,83	66,157
865,00	63,186
865,17	64,852
865,33	81,325
865,50	56,764
865,67	74,408
865,83	75,220
866,00	100,379
866,17	110,430
866,33	70,895
866,50	84,588
866,66	65,464
866,83	86,268
867,00	79,551
867,16	90,540
867,33	87,472
867,50	43,335
867,66	55,215
867,83	91,110
868,00	71,936
868,16	62,386
868,33	56,458
868,49	79,832
868,66	73,201
868,83	57,791
868,99	71,191
869,16	91,286
869,32	76,670
869,49	58,068
869,66	45,939
869,82	101,469
869,99	82,279
870,15	70,394
870,32	81,203
870,49	80,253
870,65	94,755
870,82	67,289
870,98	65,942
871,15	80,939
871,32	86,549
871,48	43,385
871,65	78,119
871,81	76,028
871,98	48,086
872,15	67,164
872,31	45,645
872,48	120,763
872,64	84,214
872,81	47,742
872,97	82,921
873,14	99,422
873,31	96,007
873,47	55,600
873,64	78,134
873,80	89,221
873,97	104,142
874,13	31,293
874,30	73,328
874,46	118,482
874,63	67,086
874,80	76,753
874,96	65,484
875,13	105,289
875,29	72,285
875,46	64,146
875,62	61,352
875,79	89,684
875,95	86,748
876,12	67,203
876,28	62,153
876,45	95,198
876,61	82,510
876,78	71,214
876,94	50,972
877,11	80,242
877,27	83,152
877,44	96,476
877,60	73,265
877,77	150,699
877,94	108,232
878,10	81,936
878,27	67,448
878,43	140,738
878,60	80,922
878,76	90,605
878,93	76,541
879,09	154,089
879,26	88,466
879,42	86,451
879,58	76,803
879,75	122,394
879,91	120,423
880,08	33,582
880,24	59,829
880,41	74,348
880,57	108,718
880,74	28,547
880,90	93,168
881,07	68,208
881,23	102,129
881,40	75,182
881,56	115,711
881,73	109,355
881,89	88,607
882,06	67,213
882,22	163,049
882,38	158,981
882,55	125,775
882,71	91,728
882,88	69,408
883,04	86,725
883,21	148,497
883,37	72,920
883,54	59,454
883,70	130,320
883,86	123,562
884,03	111,154
884,19	44,488
884,36	40,868
884,52	176,278
884,69	124,600
884,85	60,319
885,01	135,389
885,18	147,422
885,34	182,383
885,51	70,347
885,67	107,565
>>>>> Data<<<<< Espectral Procesado Extremo
