Fichero De Datos De SpectraSuite
++++++++++++++++++++++++++++++++++++
Fecha: Wed Apr 22 11:01:11 CEST 2009
Usuario: evoflor
Presente Oscuro Del Espectro: Sí
La Referencia de Presente Del Espectro De: Sí
Muestreados de los componentes de Número de espectros: 1
Espectrómetros: USB4F02353
Tiempo de integración (usec): 500000 (USB4F02353)
Promedio de Espectros Hechos un: 5 (USB4F02353)
El Alisar Del Furgón: 0 (USB4F02353)
Párrafo de de Corregir del la del del de Eléctrica del obscuridad: Sí (USB4F02353)
Estrobo/Lámpara Permitido: No (USB4F02353)
Correct for Detector Non-linearity: No (USB4F02353)
Párrafo de de Corregir del la del del de Externa del luz: No (USB4F02353)
Procesado del espectro de Número de pixeles en: 3648
>>>>> Comienza Data<<<<< Espectral Procesado Del EL
177,79	212,537
178,00	212,537
178,22	212,537
178,44	331,484
178,66	-206,538
178,88	66,010
179,09	-239,298
179,31	191,713
179,53	619,923
179,75	337,455
179,96	787,371
180,18	-78,877
180,40	560,303
180,62	235,106
180,83	-384,979
181,05	-1783,354
181,27	-41835,000
181,49	71,446
181,70	36,288
181,92	564,137
182,14	302,214
182,36	74,885
182,58	274,650
182,79	504,174
183,01	-6,571
183,23	271,714
183,45	-258,877
183,66	-29,801
183,88	590,206
184,10	-1267,909
184,32	-12,290
184,53	268,548
184,75	-61,959
184,97	34,782
185,18	-212,284
185,40	-391,514
185,62	140,036
185,84	-30,491
186,05	160,946
186,27	-158,120
186,49	1782,115
186,71	-25,064
186,92	63,646
187,14	-144,575
187,36	98,089
187,58	77,471
187,79	112,865
188,01	278,879
188,23	-90,724
188,45	87,564
188,66	194,799
188,88	-351,545
189,10	-1246,350
189,31	154,377
189,53	9,005
189,75	277,125
189,97	237,058
190,18	-218,305
190,40	701,382
190,62	-64,572
190,83	-114,660
191,05	113,728
191,27	109,243
191,49	250,582
191,70	-335,264
191,92	-255,381
192,14	1,212
192,35	433,249
192,57	321,000
192,79	131,981
193,01	198,560
193,22	79,267
193,44	-123,609
193,66	68,131
193,87	56,820
194,09	71,017
194,31	159,213
194,53	179,266
194,74	132,798
194,96	-25,914
195,18	120,531
195,39	-345,475
195,61	-25,170
195,83	-0,946
196,04	121,328
196,26	-318,769
196,48	-46,552
196,70	172,634
196,91	0,821
197,13	-101,430
197,35	21,981
197,56	530,759
197,78	1742,799
198,00	475,070
198,21	452,112
198,43	-353,110
198,65	141,426
198,86	425,665
199,08	-143,164
199,30	296,022
199,51	-80,570
199,73	158,538
199,95	241,671
200,16	524,365
200,38	180,654
200,60	129,009
200,81	170,525
201,03	209,062
201,25	-1138,350
201,46	127,741
201,68	92,022
201,90	828,068
202,11	-355,477
202,33	170,440
202,55	106,688
202,76	-19,033
202,98	-114,512
203,20	28,197
203,41	-381,237
203,63	127,792
203,85	-45435,000
204,06	130,476
204,28	27,145
204,50	156,717
204,71	153,419
204,93	-615,720
205,15	-14,955
205,36	9,493
205,58	159,760
205,80	-74,839
206,01	100,454
206,23	81,259
206,45	123,811
206,66	118,233
206,88	40,109
207,10	15,307
207,31	287,861
207,53	155,529
207,75	-0,556
207,96	251,754
208,18	-149,718
208,39	68,618
208,61	2172,429
208,83	-213,597
209,04	51,039
209,26	-250,853
209,48	161,899
209,69	74,734
209,91	287,280
210,13	41,019
210,34	16,308
210,56	179,756
210,77	-1257,756
210,99	212,249
211,21	3466,765
211,42	-78,153
211,64	-8,615
211,86	167,160
212,07	213,923
212,29	150,951
212,50	105,022
212,72	84,750
212,94	108,349
213,15	152,266
213,37	130,658
213,58	-146,641
213,80	916,607
214,02	6696,176
214,23	391,670
214,45	299,459
214,67	-1124,817
214,88	-110,185
215,10	-247,949
215,31	63,832
215,53	5,080
215,75	64,930
215,96	1377,857
216,18	-513,592
216,39	153,317
216,61	166,015
216,83	371,585
217,04	1086,910
217,26	61,669
217,47	114,828
217,69	191,696
217,91	-98,544
218,12	-38235,000
218,34	100,614
218,55	347,308
218,77	63,134
218,99	33,803
219,20	-120,902
219,42	266,822
219,63	-43,145
219,85	5,638
220,06	-154,096
220,28	196,357
220,50	118,881
220,71	36,913
220,93	2606,321
221,14	-1219,350
221,36	-5,994
221,58	161,209
221,79	-1,126
222,01	-73,836
222,22	600,888
222,44	-156,910
222,65	28,656
222,87	-3,252
223,09	113,422
223,30	57,459
223,52	116,327
223,73	86,072
223,95	-45,021
224,16	134,505
224,38	139,656
224,60	36,730
224,81	55,302
225,03	82,748
225,24	161,398
225,46	-5,257
225,67	29,032
225,89	-6,499
226,10	445,889
226,32	817,080
226,54	2,563
226,75	-25,304
226,97	149,458
227,18	61,337
227,40	53,478
227,61	31,225
227,83	19,945
228,04	103,432
228,26	82,095
228,47	60,753
228,69	122,412
228,91	81,763
229,12	77,787
229,34	47,725
229,55	35,086
229,77	27,677
229,98	-28,907
230,20	56,636
230,41	9,818
230,63	75,562
230,84	-65,163
231,06	23,498
231,27	-0,558
231,49	37,278
231,71	2,276
231,92	32,692
232,14	-1,870
232,35	78,380
232,57	55,898
232,78	4,922
233,00	26,900
233,21	43,248
233,43	21,501
233,64	20,825
233,86	35,401
234,07	27,782
234,29	13,756
234,50	7,358
234,72	27,882
234,93	17,352
235,15	40,313
235,36	22,270
235,58	22,800
235,79	49,177
236,01	11,666
236,22	13,658
236,44	42,802
236,65	21,723
236,87	15,700
237,08	15,357
237,30	-3,632
237,51	20,430
237,73	-5,263
237,94	11,548
238,16	13,184
238,37	17,037
238,59	6,786
238,80	14,732
239,02	-0,157
239,23	18,553
239,45	-2,261
239,66	18,243
239,88	24,590
240,09	16,667
240,31	-1,123
240,52	13,170
240,74	7,188
240,95	5,700
241,17	7,150
241,38	0,143
241,60	7,827
241,81	21,410
242,03	11,816
242,24	12,520
242,46	13,717
242,67	5,140
242,89	12,749
243,10	15,639
243,32	15,446
243,53	9,157
243,75	4,665
243,96	8,506
244,18	9,570
244,39	11,482
244,60	10,819
244,82	0,989
245,03	16,597
245,25	5,875
245,46	19,405
245,68	9,242
245,89	13,444
246,11	11,316
246,32	8,316
246,54	5,060
246,75	12,353
246,97	11,374
247,18	21,507
247,39	8,307
247,61	9,148
247,82	-1,830
248,04	10,355
248,25	8,821
248,47	12,298
248,68	9,098
248,90	3,178
249,11	13,807
249,33	14,496
249,54	6,166
249,75	12,506
249,97	5,974
250,18	10,955
250,40	12,705
250,61	1,513
250,83	2,800
251,04	8,559
251,25	2,589
251,47	3,646
251,68	11,260
251,90	5,146
252,11	10,297
252,33	6,575
252,54	9,476
252,76	6,843
252,97	7,261
253,18	4,543
253,40	7,487
253,61	-0,120
253,83	10,835
254,04	9,372
254,25	10,199
254,47	4,532
254,68	5,582
254,90	5,703
255,11	7,542
255,33	5,319
255,54	5,936
255,75	6,465
255,97	9,721
256,18	4,073
256,40	9,871
256,61	7,489
256,82	1,993
257,04	9,222
257,25	-0,823
257,47	3,436
257,68	1,871
257,89	9,183
258,11	7,578
258,32	5,163
258,54	9,824
258,75	11,268
258,96	8,456
259,18	8,361
259,39	2,212
259,61	9,373
259,82	8,486
260,03	5,529
260,25	6,981
260,46	6,958
260,68	6,776
260,89	4,980
261,10	5,526
261,32	10,020
261,53	6,889
261,75	7,571
261,96	-0,146
262,17	10,155
262,39	11,923
262,60	5,471
262,81	1,017
263,03	6,113
263,24	3,882
263,46	4,571
263,67	5,795
263,88	9,706
264,10	10,637
264,31	4,375
264,52	7,362
264,74	5,441
264,95	4,912
265,17	6,341
265,38	8,290
265,59	13,209
265,81	7,972
266,02	1,851
266,23	4,276
266,45	8,343
266,66	11,161
266,87	11,142
267,09	6,742
267,30	12,248
267,52	5,398
267,73	4,291
267,94	2,806
268,16	8,936
268,37	7,747
268,58	5,844
268,80	6,331
269,01	7,517
269,22	6,675
269,44	9,545
269,65	7,452
269,86	5,722
270,08	7,605
270,29	4,901
270,50	7,961
270,72	10,409
270,93	5,727
271,14	5,095
271,36	6,658
271,57	10,200
271,78	6,167
272,00	6,223
272,21	7,506
272,42	7,788
272,64	10,687
272,85	4,343
273,06	3,875
273,28	7,371
273,49	5,759
273,70	8,539
273,92	5,817
274,13	11,159
274,34	7,184
274,56	11,838
274,77	6,247
274,98	7,905
275,20	7,148
275,41	8,304
275,62	7,316
275,84	7,526
276,05	11,820
276,26	3,579
276,47	4,225
276,69	10,137
276,90	3,047
277,11	8,956
277,33	5,601
277,54	10,320
277,75	7,403
277,97	9,348
278,18	9,166
278,39	8,415
278,61	4,835
278,82	9,802
279,03	8,067
279,24	4,612
279,46	7,762
279,67	6,709
279,88	6,410
280,10	10,819
280,31	4,582
280,52	7,443
280,73	6,048
280,95	7,657
281,16	10,022
281,37	7,263
281,59	10,197
281,80	11,756
282,01	2,428
282,22	5,810
282,44	2,515
282,65	11,000
282,86	8,243
283,08	6,343
283,29	6,713
283,50	8,466
283,71	7,656
283,93	6,809
284,14	11,325
284,35	5,373
284,56	5,334
284,78	5,336
284,99	5,929
285,20	9,133
285,42	9,556
285,63	7,502
285,84	5,830
286,05	3,939
286,27	6,967
286,48	3,524
286,69	5,773
286,90	6,725
287,12	6,493
287,33	6,098
287,54	6,984
287,75	6,833
287,97	9,001
288,18	6,890
288,39	3,864
288,60	8,488
288,82	7,259
289,03	4,871
289,24	5,570
289,45	9,349
289,67	5,357
289,88	6,092
290,09	7,667
290,30	7,381
290,52	4,862
290,73	6,366
290,94	4,410
291,15	7,527
291,37	6,014
291,58	7,174
291,79	6,018
292,00	7,341
292,21	8,997
292,43	3,796
292,64	4,137
292,85	4,860
293,06	8,053
293,28	4,666
293,49	2,731
293,70	7,770
293,91	3,993
294,12	8,587
294,34	6,047
294,55	3,330
294,76	6,594
294,97	8,566
295,19	3,797
295,40	6,796
295,61	6,194
295,82	3,698
296,03	7,181
296,25	2,973
296,46	4,920
296,67	3,590
296,88	2,796
297,09	6,597
297,31	4,635
297,52	5,011
297,73	4,479
297,94	7,495
298,15	8,462
298,37	7,341
298,58	8,375
298,79	8,350
299,00	6,365
299,21	6,015
299,43	5,871
299,64	7,934
299,85	8,682
300,06	3,974
300,27	4,558
300,49	7,184
300,70	8,193
300,91	5,159
301,12	6,400
301,33	9,267
301,54	5,473
301,76	6,968
301,97	4,830
302,18	4,266
302,39	8,343
302,60	6,953
302,82	7,085
303,03	9,046
303,24	5,855
303,45	7,560
303,66	6,647
303,87	5,167
304,09	8,192
304,30	6,087
304,51	6,590
304,72	5,904
304,93	8,950
305,14	4,897
305,36	4,769
305,57	4,550
305,78	7,265
305,99	5,699
306,20	6,378
306,41	4,625
306,62	2,947
306,84	5,609
307,05	3,610
307,26	6,309
307,47	8,924
307,68	4,458
307,89	6,361
308,11	6,627
308,32	2,674
308,53	6,052
308,74	3,483
308,95	4,056
309,16	9,032
309,37	9,219
309,59	4,179
309,80	5,331
310,01	5,728
310,22	8,927
310,43	5,407
310,64	5,407
310,85	6,119
311,06	4,488
311,28	8,785
311,49	6,233
311,70	8,764
311,91	5,013
312,12	5,413
312,33	8,042
312,54	7,576
312,75	4,405
312,97	3,722
313,18	7,056
313,39	5,416
313,60	8,959
313,81	7,089
314,02	7,839
314,23	5,582
314,44	3,144
314,65	6,514
314,87	6,432
315,08	5,070
315,29	8,906
315,50	8,517
315,71	8,695
315,92	10,453
316,13	4,733
316,34	6,941
316,55	8,077
316,77	3,695
316,98	3,914
317,19	4,313
317,40	7,574
317,61	7,915
317,82	5,140
318,03	5,348
318,24	6,175
318,45	8,654
318,66	6,598
318,87	2,870
319,09	7,087
319,30	6,661
319,51	5,910
319,72	6,575
319,93	8,341
320,14	8,778
320,35	4,191
320,56	5,102
320,77	3,203
320,98	11,562
321,19	9,122
321,40	4,877
321,62	8,100
321,83	7,101
322,04	7,251
322,25	7,020
322,46	10,718
322,67	9,342
322,88	5,587
323,09	5,704
323,30	7,570
323,51	6,493
323,72	8,684
323,93	6,108
324,14	5,288
324,35	5,530
324,56	1,908
324,77	5,248
324,99	6,478
325,20	3,302
325,41	5,280
325,62	5,722
325,83	3,637
326,04	4,364
326,25	8,626
326,46	4,429
326,67	5,684
326,88	9,511
327,09	6,527
327,30	5,611
327,51	6,480
327,72	7,654
327,93	8,313
328,14	4,129
328,35	6,513
328,56	7,316
328,77	6,068
328,98	10,276
329,19	6,320
329,40	8,246
329,61	5,810
329,82	3,497
330,04	5,759
330,25	2,352
330,46	7,565
330,67	3,557
330,88	5,257
331,09	5,441
331,30	7,944
331,51	6,895
331,72	6,966
331,93	6,240
332,14	5,232
332,35	8,939
332,56	7,546
332,77	8,690
332,98	4,610
333,19	3,692
333,40	6,412
333,61	5,301
333,82	8,567
334,03	9,060
334,24	6,296
334,45	6,421
334,66	9,226
334,87	7,091
335,08	5,418
335,29	5,287
335,50	3,387
335,71	2,241
335,92	6,733
336,13	8,392
336,34	2,107
336,55	8,815
336,76	7,336
336,97	5,846
337,18	4,600
337,39	8,111
337,60	6,166
337,81	6,050
338,02	6,421
338,23	4,101
338,44	6,184
338,65	5,201
338,86	8,912
339,07	5,869
339,28	5,565
339,49	5,661
339,70	4,574
339,91	4,735
340,11	9,173
340,32	5,712
340,53	4,300
340,74	5,815
340,95	4,767
341,16	6,752
341,37	6,778
341,58	3,086
341,79	5,287
342,00	6,094
342,21	7,120
342,42	6,326
342,63	5,299
342,84	5,024
343,05	5,002
343,26	7,057
343,47	7,524
343,68	7,487
343,89	6,236
344,10	7,683
344,31	7,373
344,52	7,479
344,73	3,894
344,94	8,114
345,14	7,761
345,35	6,666
345,56	8,108
345,77	4,251
345,98	4,183
346,19	8,929
346,40	5,285
346,61	5,698
346,82	7,589
347,03	7,108
347,24	7,445
347,45	4,718
347,66	9,417
347,87	5,999
348,08	9,326
348,28	3,322
348,49	5,979
348,70	6,454
348,91	6,681
349,12	2,895
349,33	19,339
349,54	2,315
349,75	6,999
349,96	5,284
350,17	6,332
350,38	4,253
350,59	8,473
350,80	5,079
351,00	7,272
351,21	10,765
351,42	5,213
351,63	5,591
351,84	4,314
352,05	8,440
352,26	5,561
352,47	6,233
352,68	7,676
352,89	5,921
353,09	8,777
353,30	5,040
353,51	7,834
353,72	9,100
353,93	9,161
354,14	2,480
354,35	8,458
354,56	8,447
354,77	8,540
354,98	2,586
355,18	6,714
355,39	8,203
355,60	7,318
355,81	5,617
356,02	5,941
356,23	8,126
356,44	6,941
356,65	7,580
356,85	11,184
357,06	10,289
357,27	8,890
357,48	7,031
357,69	9,063
357,90	8,207
358,11	3,961
358,32	6,011
358,52	6,883
358,73	8,729
358,94	5,251
359,15	7,746
359,36	5,555
359,57	5,476
359,78	8,384
359,98	5,989
360,19	5,226
360,40	5,126
360,61	11,339
360,82	6,931
361,03	9,415
361,24	6,344
361,44	5,732
361,65	6,675
361,86	6,678
362,07	5,210
362,28	4,659
362,49	5,308
362,70	5,731
362,90	8,615
363,11	5,117
363,32	2,881
363,53	5,997
363,74	9,225
363,95	8,925
364,15	7,174
364,36	11,587
364,57	6,357
364,78	7,682
364,99	7,281
365,20	6,889
365,40	9,087
365,61	5,219
365,82	8,353
366,03	8,341
366,24	9,847
366,45	6,803
366,65	8,956
366,86	6,290
367,07	7,872
367,28	6,225
367,49	7,883
367,69	10,020
367,90	6,248
368,11	6,832
368,32	4,547
368,53	8,772
368,73	9,425
368,94	5,085
369,15	6,539
369,36	9,656
369,57	9,037
369,78	5,885
369,98	9,478
370,19	10,269
370,40	9,301
370,61	8,685
370,82	7,614
371,02	6,759
371,23	9,600
371,44	7,686
371,65	6,166
371,85	9,904
372,06	8,797
372,27	7,835
372,48	7,595
372,69	6,021
372,89	4,154
373,10	7,336
373,31	7,395
373,52	8,892
373,73	12,496
373,93	7,101
374,14	10,288
374,35	10,516
374,56	10,146
374,76	6,049
374,97	6,119
375,18	7,715
375,39	8,771
375,60	9,903
375,80	7,447
376,01	9,689
376,22	6,948
376,43	6,717
376,63	7,101
376,84	4,298
377,05	10,650
377,26	5,644
377,46	4,362
377,67	6,943
377,88	7,949
378,09	6,764
378,29	3,821
378,50	9,564
378,71	8,144
378,92	6,140
379,12	6,224
379,33	5,388
379,54	9,169
379,75	6,728
379,95	5,017
380,16	9,782
380,37	10,096
380,58	6,103
380,78	9,421
380,99	7,315
381,20	7,103
381,41	8,633
381,61	10,207
381,82	7,750
382,03	5,083
382,24	7,674
382,44	5,274
382,65	6,171
382,86	7,971
383,06	4,358
383,27	8,484
383,48	4,647
383,69	6,694
383,89	10,747
384,10	7,943
384,31	8,931
384,51	8,382
384,72	6,455
384,93	8,533
385,14	8,915
385,34	9,095
385,55	5,548
385,76	3,389
385,96	9,983
386,17	8,531
386,38	9,492
386,59	11,706
386,79	9,462
387,00	10,529
387,21	9,162
387,41	7,960
387,62	7,266
387,83	11,963
388,03	7,598
388,24	4,014
388,45	8,925
388,66	6,203
388,86	8,439
389,07	5,736
389,28	13,670
389,48	9,199
389,69	8,774
389,90	8,046
390,10	9,564
390,31	8,632
390,52	6,223
390,72	4,910
390,93	8,468
391,14	7,641
391,34	8,440
391,55	9,064
391,76	14,438
391,96	8,632
392,17	6,537
392,38	10,003
392,58	8,199
392,79	8,580
393,00	5,090
393,20	6,995
393,41	8,832
393,62	9,122
393,82	7,882
394,03	9,963
394,24	11,360
394,44	10,456
394,65	7,643
394,86	9,104
395,06	10,007
395,27	10,353
395,48	5,952
395,68	11,391
395,89	10,826
396,10	10,546
396,30	7,837
396,51	8,221
396,72	7,676
396,92	5,954
397,13	8,620
397,34	6,712
397,54	12,058
397,75	10,315
397,95	7,871
398,16	9,095
398,37	7,693
398,57	8,071
398,78	11,825
398,99	10,010
399,19	10,505
399,40	8,381
399,60	9,320
399,81	10,514
400,02	13,763
400,22	9,645
400,43	12,168
400,64	12,167
400,84	9,753
401,05	13,569
401,25	12,367
401,46	8,596
401,67	11,844
401,87	10,040
402,08	9,125
402,29	6,897
402,49	13,893
402,70	13,056
402,90	9,678
403,11	12,586
403,32	14,713
403,52	11,572
403,73	13,563
403,93	14,035
404,14	16,063
404,35	12,430
404,55	12,444
404,76	11,429
404,96	14,278
405,17	14,400
405,38	11,335
405,58	11,644
405,79	12,741
405,99	15,466
406,20	14,796
406,40	9,203
406,61	16,442
406,82	11,056
407,02	14,655
407,23	11,877
407,43	12,355
407,64	11,270
407,85	15,499
408,05	8,904
408,26	22,155
408,46	16,607
408,67	9,730
408,87	13,311
409,08	11,007
409,29	19,335
409,49	14,288
409,70	14,230
409,90	15,517
410,11	11,002
410,31	17,108
410,52	15,190
410,72	11,810
410,93	16,638
411,14	13,211
411,34	12,962
411,55	16,077
411,75	17,875
411,96	14,329
412,16	17,474
412,37	16,006
412,57	18,251
412,78	15,611
412,99	14,451
413,19	18,400
413,40	16,169
413,60	10,910
413,81	16,870
414,01	16,567
414,22	15,852
414,42	15,443
414,63	17,233
414,83	17,855
415,04	19,890
415,24	18,170
415,45	17,610
415,65	16,233
415,86	17,616
416,07	17,722
416,27	16,371
416,48	18,937
416,68	18,343
416,89	14,864
417,09	18,521
417,30	19,731
417,50	21,544
417,71	19,872
417,91	18,920
418,12	12,992
418,32	18,997
418,53	19,194
418,73	16,959
418,94	17,179
419,14	18,797
419,35	13,434
419,55	20,461
419,76	15,792
419,96	16,733
420,17	15,545
420,37	14,906
420,58	22,448
420,78	17,952
420,99	18,840
421,19	19,185
421,40	17,873
421,60	21,853
421,81	17,472
422,01	16,497
422,22	19,265
422,42	20,479
422,63	19,232
422,83	18,707
423,04	19,052
423,24	19,750
423,45	15,344
423,65	19,748
423,86	25,063
424,06	20,668
424,27	17,245
424,47	17,879
424,67	18,362
424,88	21,113
425,08	16,149
425,29	23,483
425,49	14,576
425,70	13,103
425,90	17,794
426,11	17,404
426,31	22,829
426,52	18,408
426,72	18,977
426,93	17,873
427,13	19,457
427,33	19,606
427,54	23,208
427,74	20,856
427,95	22,551
428,15	14,986
428,36	22,236
428,56	18,828
428,77	23,542
428,97	21,815
429,18	20,774
429,38	18,549
429,58	25,249
429,79	20,693
429,99	23,246
430,20	14,244
430,40	22,163
430,61	16,951
430,81	16,678
431,01	24,768
431,22	22,706
431,42	25,815
431,63	19,874
431,83	16,545
432,04	21,290
432,24	19,294
432,44	17,126
432,65	21,350
432,85	22,190
433,06	22,536
433,26	18,827
433,47	17,742
433,67	20,911
433,87	20,853
434,08	19,722
434,28	20,466
434,49	19,342
434,69	22,333
434,89	20,348
435,10	22,445
435,30	20,263
435,51	16,688
435,71	19,830
435,91	18,742
436,12	17,918
436,32	21,640
436,53	18,779
436,73	22,587
436,93	22,778
437,14	20,191
437,34	21,239
437,55	20,127
437,75	23,059
437,95	21,102
438,16	22,098
438,36	19,654
438,57	20,572
438,77	22,294
438,97	23,802
439,18	24,822
439,38	19,855
439,58	20,446
439,79	20,077
439,99	21,239
440,20	22,574
440,40	23,409
440,60	23,207
440,81	22,547
441,01	22,409
441,21	27,061
441,42	21,073
441,62	24,667
441,83	19,406
442,03	21,046
442,23	20,278
442,44	20,393
442,64	20,613
442,84	18,171
443,05	22,929
443,25	19,901
443,45	21,621
443,66	22,232
443,86	20,446
444,06	17,569
444,27	21,685
444,47	18,489
444,67	20,246
444,88	22,559
445,08	22,345
445,28	22,634
445,49	21,477
445,69	19,703
445,90	21,792
446,10	23,135
446,30	24,014
446,51	20,189
446,71	23,265
446,91	26,994
447,12	24,779
447,32	22,477
447,52	22,894
447,72	21,108
447,93	20,500
448,13	19,559
448,33	29,277
448,54	24,904
448,74	16,727
448,94	24,365
449,15	23,943
449,35	19,467
449,55	21,752
449,76	29,575
449,96	23,565
450,16	25,010
450,37	17,208
450,57	25,652
450,77	18,296
450,98	21,618
451,18	27,275
451,38	22,953
451,58	23,363
451,79	24,458
451,99	25,616
452,19	22,064
452,40	22,662
452,60	23,246
452,80	22,454
453,00	27,763
453,21	24,355
453,41	24,908
453,61	20,967
453,82	23,150
454,02	20,222
454,22	28,199
454,42	25,273
454,63	23,905
454,83	23,992
455,03	26,447
455,24	25,814
455,44	24,581
455,64	20,697
455,84	19,075
456,05	20,338
456,25	21,449
456,45	24,211
456,65	21,664
456,86	23,299
457,06	24,164
457,26	23,148
457,47	26,282
457,67	21,986
457,87	23,632
458,07	25,156
458,28	28,074
458,48	23,488
458,68	21,432
458,88	29,313
459,09	25,473
459,29	26,786
459,49	23,724
459,69	27,339
459,90	26,484
460,10	22,285
460,30	27,772
460,50	24,345
460,71	27,509
460,91	24,040
461,11	24,362
461,31	23,720
461,52	27,812
461,72	24,263
461,92	22,574
462,12	27,015
462,32	20,119
462,53	23,272
462,73	20,848
462,93	29,798
463,13	19,060
463,34	23,697
463,54	24,982
463,74	25,479
463,94	22,338
464,14	26,876
464,35	23,469
464,55	25,046
464,75	32,709
464,95	28,332
465,16	22,799
465,36	27,741
465,56	24,649
465,76	23,569
465,96	26,815
466,17	26,999
466,37	26,580
466,57	25,745
466,77	26,984
466,97	25,532
467,18	29,725
467,38	26,905
467,58	26,474
467,78	28,580
467,98	27,031
468,19	27,067
468,39	28,456
468,59	30,232
468,79	26,714
468,99	23,960
469,19	22,016
469,40	30,921
469,60	18,787
469,80	22,133
470,00	28,152
470,20	28,062
470,41	25,888
470,61	26,469
470,81	24,509
471,01	23,736
471,21	25,066
471,41	23,334
471,62	26,622
471,82	23,593
472,02	25,761
472,22	27,393
472,42	25,806
472,62	29,057
472,83	26,303
473,03	29,446
473,23	27,421
473,43	28,227
473,63	26,150
473,83	25,139
474,03	26,515
474,24	29,486
474,44	24,606
474,64	27,334
474,84	24,934
475,04	24,651
475,24	25,281
475,45	25,691
475,65	24,928
475,85	25,504
476,05	25,958
476,25	24,219
476,45	28,837
476,65	29,590
476,85	29,172
477,06	24,917
477,26	26,077
477,46	26,333
477,66	26,000
477,86	29,810
478,06	26,832
478,26	31,407
478,46	24,512
478,67	29,948
478,87	25,320
479,07	24,218
479,27	27,373
479,47	26,480
479,67	22,419
479,87	25,301
480,07	28,136
480,28	28,380
480,48	25,882
480,68	28,068
480,88	30,838
481,08	27,066
481,28	26,374
481,48	24,349
481,68	23,616
481,88	24,903
482,08	23,609
482,29	27,904
482,49	23,810
482,69	26,172
482,89	27,317
483,09	26,719
483,29	26,642
483,49	23,205
483,69	28,029
483,89	25,527
484,09	23,451
484,29	23,566
484,50	25,809
484,70	24,922
484,90	25,402
485,10	23,662
485,30	27,864
485,50	29,192
485,70	27,761
485,90	22,908
486,10	23,216
486,30	25,635
486,50	25,400
486,70	25,941
486,90	24,638
487,10	27,504
487,30	24,019
487,51	25,928
487,71	24,575
487,91	26,516
488,11	27,511
488,31	22,433
488,51	26,773
488,71	24,843
488,91	27,825
489,11	23,731
489,31	24,351
489,51	25,845
489,71	24,607
489,91	25,593
490,11	24,526
490,31	23,959
490,51	26,994
490,71	25,856
490,91	24,841
491,11	24,478
491,31	27,010
491,51	21,825
491,72	25,075
491,92	26,148
492,12	27,207
492,32	23,693
492,52	25,846
492,72	25,547
492,92	24,615
493,12	26,449
493,32	23,857
493,52	23,483
493,72	24,706
493,92	26,230
494,12	25,171
494,32	25,699
494,52	23,280
494,72	25,000
494,92	22,638
495,12	23,564
495,32	26,717
495,52	24,104
495,72	24,955
495,92	28,653
496,12	26,123
496,32	23,739
496,52	24,856
496,72	24,135
496,92	25,303
497,12	23,265
497,32	26,378
497,52	25,452
497,72	26,899
497,92	26,078
498,12	22,831
498,32	24,850
498,52	22,834
498,72	23,638
498,92	21,661
499,12	26,401
499,32	21,779
499,52	24,353
499,72	22,676
499,92	25,516
500,12	24,809
500,32	26,966
500,52	24,816
500,72	28,403
500,91	27,461
501,11	24,476
501,31	21,162
501,51	24,565
501,71	26,165
501,91	26,136
502,11	23,850
502,31	22,372
502,51	26,750
502,71	22,145
502,91	25,953
503,11	23,673
503,31	23,928
503,51	22,061
503,71	22,836
503,91	25,904
504,11	24,626
504,31	21,558
504,51	26,727
504,71	27,037
504,91	26,575
505,10	24,322
505,30	23,475
505,50	26,729
505,70	22,701
505,90	24,464
506,10	19,573
506,30	22,807
506,50	24,948
506,70	24,077
506,90	23,262
507,10	22,009
507,30	22,718
507,50	25,730
507,70	24,066
507,89	24,879
508,09	22,803
508,29	23,390
508,49	21,324
508,69	21,092
508,89	23,217
509,09	20,712
509,29	20,362
509,49	24,661
509,69	26,635
509,89	21,562
510,09	23,316
510,28	24,263
510,48	21,801
510,68	19,593
510,88	21,191
511,08	20,076
511,28	22,991
511,48	20,697
511,68	20,150
511,88	20,577
512,07	21,689
512,27	22,740
512,47	21,292
512,67	20,870
512,87	18,698
513,07	22,718
513,27	18,357
513,47	21,862
513,67	18,172
513,86	23,115
514,06	22,600
514,26	19,974
514,46	22,615
514,66	21,572
514,86	20,552
515,06	24,193
515,26	23,494
515,45	21,725
515,65	18,213
515,85	22,465
516,05	19,702
516,25	18,616
516,45	19,727
516,65	19,012
516,84	22,293
517,04	22,429
517,24	20,027
517,44	20,975
517,64	22,430
517,84	22,652
518,04	19,025
518,23	21,983
518,43	24,877
518,63	19,599
518,83	17,466
519,03	20,629
519,23	20,728
519,42	20,831
519,62	20,028
519,82	18,448
520,02	18,999
520,22	18,834
520,42	18,985
520,61	20,931
520,81	20,300
521,01	21,591
521,21	15,030
521,41	20,166
521,61	21,384
521,80	18,557
522,00	19,978
522,20	18,139
522,40	21,145
522,60	18,687
522,79	17,869
522,99	21,351
523,19	16,585
523,39	17,113
523,59	18,893
523,78	20,022
523,98	16,189
524,18	18,715
524,38	16,731
524,58	17,747
524,77	22,692
524,97	17,949
525,17	17,917
525,37	18,542
525,57	18,779
525,76	15,672
525,96	20,316
526,16	15,284
526,36	17,568
526,56	17,642
526,75	19,069
526,95	18,382
527,15	17,845
527,35	20,291
527,55	17,845
527,74	18,570
527,94	16,695
528,14	16,060
528,34	18,323
528,53	14,935
528,73	16,667
528,93	17,971
529,13	18,027
529,32	17,231
529,52	19,433
529,72	15,065
529,92	15,117
530,12	16,441
530,31	13,399
530,51	18,176
530,71	19,600
530,91	19,874
531,10	13,996
531,30	16,997
531,50	16,155
531,70	18,524
531,89	15,710
532,09	16,374
532,29	14,495
532,49	16,701
532,68	16,001
532,88	15,260
533,08	14,873
533,28	15,502
533,47	16,754
533,67	16,366
533,87	15,700
534,06	20,002
534,26	14,636
534,46	16,714
534,66	18,085
534,85	16,429
535,05	10,115
535,25	17,939
535,45	14,304
535,64	16,611
535,84	12,688
536,04	14,171
536,23	14,448
536,43	16,663
536,63	14,679
536,83	13,641
537,02	14,059
537,22	15,573
537,42	15,536
537,61	14,783
537,81	16,960
538,01	18,227
538,20	17,942
538,40	14,578
538,60	15,616
538,80	13,913
538,99	15,901
539,19	13,900
539,39	14,730
539,58	16,029
539,78	13,556
539,98	14,883
540,17	12,843
540,37	13,340
540,57	13,170
540,76	12,650
540,96	11,279
541,16	15,310
541,36	13,175
541,55	9,227
541,75	10,947
541,95	10,821
542,14	11,528
542,34	11,313
542,54	10,060
542,73	11,979
542,93	12,611
543,13	12,999
543,32	11,473
543,52	10,888
543,72	10,133
543,91	12,297
544,11	10,378
544,31	9,905
544,50	11,719
544,70	11,155
544,89	10,868
545,09	13,862
545,29	11,306
545,48	11,122
545,68	10,362
545,88	12,652
546,07	12,107
546,27	11,824
546,47	12,818
546,66	13,648
546,86	13,240
547,06	10,969
547,25	13,249
547,45	12,858
547,64	14,024
547,84	15,335
548,04	10,857
548,23	14,691
548,43	13,965
548,63	15,946
548,82	13,109
549,02	12,066
549,21	12,439
549,41	13,806
549,61	13,124
549,80	11,758
550,00	14,074
550,20	11,700
550,39	13,046
550,59	12,248
550,78	13,746
550,98	11,885
551,18	14,906
551,37	15,671
551,57	13,568
551,76	14,345
551,96	12,701
552,16	11,375
552,35	13,026
552,55	13,494
552,74	13,741
552,94	15,128
553,14	13,483
553,33	11,525
553,53	14,287
553,72	11,465
553,92	16,646
554,12	13,244
554,31	12,485
554,51	14,891
554,70	11,886
554,90	12,446
555,09	15,255
555,29	14,172
555,49	13,145
555,68	15,883
555,88	13,413
556,07	15,798
556,27	14,388
556,46	14,507
556,66	12,806
556,86	16,087
557,05	14,582
557,25	14,104
557,44	13,418
557,64	14,198
557,83	11,424
558,03	14,222
558,22	11,049
558,42	14,060
558,62	15,036
558,81	15,612
559,01	13,768
559,20	17,766
559,40	12,874
559,59	12,545
559,79	11,055
559,98	15,807
560,18	12,721
560,37	13,048
560,57	13,760
560,76	12,300
560,96	12,315
561,16	15,363
561,35	12,580
561,55	17,088
561,74	14,217
561,94	14,701
562,13	13,417
562,33	15,555
562,52	13,481
562,72	13,015
562,91	11,538
563,11	14,017
563,30	14,731
563,50	9,095
563,69	13,334
563,89	13,106
564,08	15,441
564,28	12,316
564,47	14,611
564,67	12,269
564,86	15,781
565,06	11,649
565,25	15,771
565,45	12,661
565,64	16,302
565,84	13,436
566,03	13,272
566,23	15,034
566,42	14,980
566,62	14,696
566,81	14,041
567,01	15,217
567,20	15,954
567,40	12,953
567,59	13,325
567,79	14,871
567,98	14,068
568,18	15,462
568,37	14,699
568,57	15,216
568,76	15,529
568,96	11,639
569,15	15,225
569,35	14,688
569,54	16,678
569,73	13,872
569,93	13,544
570,12	14,570
570,32	14,745
570,51	13,689
570,71	13,999
570,90	14,812
571,10	12,537
571,29	13,740
571,49	13,965
571,68	15,615
571,87	14,024
572,07	13,382
572,26	12,864
572,46	15,199
572,65	13,990
572,85	12,541
573,04	14,260
573,24	14,626
573,43	16,886
573,62	15,220
573,82	15,015
574,01	13,544
574,21	14,390
574,40	12,219
574,60	14,342
574,79	15,297
574,98	15,421
575,18	15,932
575,37	14,160
575,57	14,670
575,76	15,774
575,96	16,231
576,15	14,054
576,34	15,212
576,54	16,180
576,73	14,790
576,93	14,707
577,12	15,691
577,31	15,110
577,51	13,460
577,70	13,793
577,90	15,672
578,09	15,499
578,28	14,783
578,48	14,848
578,67	17,644
578,87	16,660
579,06	13,928
579,25	16,671
579,45	15,100
579,64	15,243
579,84	13,981
580,03	15,414
580,22	16,257
580,42	16,031
580,61	17,521
580,81	15,220
581,00	16,400
581,19	16,205
581,39	15,668
581,58	15,826
581,77	14,969
581,97	15,642
582,16	15,662
582,35	14,357
582,55	17,098
582,74	17,214
582,94	15,343
583,13	14,344
583,32	16,960
583,52	15,449
583,71	16,247
583,90	16,997
584,10	17,593
584,29	17,615
584,48	15,589
584,68	16,973
584,87	17,799
585,06	17,228
585,26	15,295
585,45	16,341
585,65	16,545
585,84	17,923
586,03	18,181
586,23	15,459
586,42	18,038
586,61	17,754
586,81	19,256
587,00	17,485
587,19	15,865
587,39	19,735
587,58	18,626
587,77	18,884
587,97	18,171
588,16	16,568
588,35	18,016
588,54	19,145
588,74	17,676
588,93	19,078
589,12	19,185
589,32	19,068
589,51	18,037
589,70	17,324
589,90	18,545
590,09	18,604
590,28	20,959
590,48	17,946
590,67	19,606
590,86	19,163
591,06	18,808
591,25	20,678
591,44	18,890
591,63	18,768
591,83	20,839
592,02	18,750
592,21	18,821
592,41	19,129
592,60	19,637
592,79	18,886
592,98	20,441
593,18	19,357
593,37	19,901
593,56	20,342
593,76	19,355
593,95	19,334
594,14	20,164
594,33	22,148
594,53	20,908
594,72	20,129
594,91	22,923
595,10	22,797
595,30	20,157
595,49	19,782
595,68	22,031
595,88	20,913
596,07	22,310
596,26	20,455
596,45	21,931
596,65	21,117
596,84	19,881
597,03	21,640
597,22	22,727
597,42	23,249
597,61	23,143
597,80	22,115
597,99	21,938
598,19	23,016
598,38	22,248
598,57	22,480
598,76	23,435
598,95	23,258
599,15	23,683
599,34	24,075
599,53	24,437
599,72	22,607
599,92	24,391
600,11	23,561
600,30	23,796
600,49	25,115
600,69	23,287
600,88	23,584
601,07	23,406
601,26	24,332
601,45	25,355
601,65	23,955
601,84	24,174
602,03	23,759
602,22	25,541
602,42	25,518
602,61	23,875
602,80	25,050
602,99	25,471
603,18	23,707
603,38	25,798
603,57	24,948
603,76	23,277
603,95	23,939
604,14	25,687
604,34	27,247
604,53	26,028
604,72	26,352
604,91	25,597
605,10	25,833
605,29	26,381
605,49	23,488
605,68	26,482
605,87	26,434
606,06	26,224
606,25	24,375
606,45	25,467
606,64	26,028
606,83	27,674
607,02	26,758
607,21	27,375
607,40	26,972
607,60	25,680
607,79	25,575
607,98	24,276
608,17	25,486
608,36	25,540
608,55	26,059
608,75	26,241
608,94	25,603
609,13	23,906
609,32	23,709
609,51	25,178
609,70	24,213
609,89	26,707
610,09	25,580
610,28	26,701
610,47	25,075
610,66	24,725
610,85	23,943
611,04	25,922
611,23	23,722
611,43	25,123
611,62	24,983
611,81	25,028
612,00	25,991
612,19	24,803
612,38	25,558
612,57	27,482
612,77	26,243
612,96	26,355
613,15	27,055
613,34	28,074
613,53	28,376
613,72	28,821
613,91	28,076
614,10	27,806
614,29	29,980
614,49	26,885
614,68	26,717
614,87	29,087
615,06	28,725
615,25	28,099
615,44	29,661
615,63	28,938
615,82	29,195
616,01	28,316
616,21	28,913
616,40	29,431
616,59	31,980
616,78	29,812
616,97	29,858
617,16	30,325
617,35	31,432
617,54	30,779
617,73	31,730
617,92	30,089
618,11	30,578
618,31	28,686
618,50	30,720
618,69	30,132
618,88	29,141
619,07	29,870
619,26	29,619
619,45	30,602
619,64	30,552
619,83	30,055
620,02	29,643
620,21	32,554
620,40	31,176
620,59	29,553
620,78	30,400
620,97	33,426
621,17	33,220
621,36	29,353
621,55	29,922
621,74	32,118
621,93	31,727
622,12	32,897
622,31	31,365
622,50	31,927
622,69	33,518
622,88	32,790
623,07	32,777
623,26	32,314
623,45	34,447
623,64	31,494
623,83	32,341
624,02	33,943
624,21	33,527
624,40	32,573
624,59	31,703
624,78	32,843
624,97	35,122
625,16	33,186
625,35	31,371
625,54	32,052
625,73	33,464
625,92	33,995
626,12	34,415
626,31	34,111
626,50	32,855
626,69	33,657
626,88	32,118
627,07	32,910
627,26	33,952
627,45	31,664
627,64	30,774
627,83	34,081
628,02	32,343
628,21	32,177
628,40	33,002
628,59	33,742
628,78	33,052
628,97	33,475
629,16	32,338
629,35	33,672
629,54	35,033
629,73	32,698
629,92	32,684
630,10	33,899
630,29	34,305
630,48	33,653
630,67	32,433
630,86	35,903
631,05	34,031
631,24	37,795
631,43	33,058
631,62	34,337
631,81	34,914
632,00	34,941
632,19	33,971
632,38	34,972
632,57	36,510
632,76	34,747
632,95	34,315
633,14	36,272
633,33	35,104
633,52	35,051
633,71	34,787
633,90	33,306
634,09	34,635
634,28	33,516
634,47	34,515
634,66	35,475
634,85	35,807
635,04	36,208
635,22	35,018
635,41	36,829
635,60	37,073
635,79	36,832
635,98	33,841
636,17	35,274
636,36	36,831
636,55	36,102
636,74	35,386
636,93	36,252
637,12	36,558
637,31	35,879
637,50	35,692
637,69	37,499
637,87	37,233
638,06	34,965
638,25	35,650
638,44	36,969
638,63	34,212
638,82	36,258
639,01	36,382
639,20	35,988
639,39	37,614
639,58	36,083
639,77	39,509
639,95	35,111
640,14	38,461
640,33	36,015
640,52	35,904
640,71	37,700
640,90	36,361
641,09	37,389
641,28	36,600
641,47	36,819
641,66	37,876
641,84	37,228
642,03	35,365
642,22	35,792
642,41	37,977
642,60	37,495
642,79	37,427
642,98	37,719
643,17	36,365
643,35	36,166
643,54	37,438
643,73	38,744
643,92	37,545
644,11	36,305
644,30	35,729
644,49	39,603
644,67	36,911
644,86	35,671
645,05	37,979
645,24	36,941
645,43	38,360
645,62	38,001
645,81	37,583
645,99	39,263
646,18	38,376
646,37	36,384
646,56	37,581
646,75	40,036
646,94	39,618
647,13	38,792
647,31	37,532
647,50	38,460
647,69	39,579
647,88	38,559
648,07	38,274
648,26	41,967
648,44	37,972
648,63	37,407
648,82	37,162
649,01	39,932
649,20	36,826
649,38	37,613
649,57	39,413
649,76	37,216
649,95	38,793
650,14	37,034
650,33	38,260
650,51	37,672
650,70	39,330
650,89	36,561
651,08	37,000
651,27	38,652
651,45	38,412
651,64	37,829
651,83	39,371
652,02	37,239
652,21	39,793
652,39	39,599
652,58	39,733
652,77	37,830
652,96	39,667
653,15	39,298
653,33	39,481
653,52	40,624
653,71	41,656
653,90	41,150
654,09	40,361
654,27	40,508
654,46	40,600
654,65	40,603
654,84	40,163
655,02	41,428
655,21	42,459
655,40	41,611
655,59	40,687
655,77	41,331
655,96	41,072
656,15	40,887
656,34	43,090
656,53	40,454
656,71	42,175
656,90	41,075
657,09	41,576
657,28	41,359
657,46	41,230
657,65	40,102
657,84	39,835
658,03	39,761
658,21	41,114
658,40	38,821
658,59	38,930
658,78	38,985
658,96	39,685
659,15	38,140
659,34	38,493
659,52	38,241
659,71	39,553
659,90	36,641
660,09	38,743
660,27	38,341
660,46	39,924
660,65	38,047
660,84	38,859
661,02	39,021
661,21	38,330
661,40	38,901
661,58	38,378
661,77	38,360
661,96	35,953
662,15	39,859
662,33	36,721
662,52	37,349
662,71	39,106
662,89	37,070
663,08	38,923
663,27	37,701
663,45	37,306
663,64	38,481
663,83	37,062
664,02	36,867
664,20	39,557
664,39	38,485
664,58	38,701
664,76	40,197
664,95	39,452
665,14	37,361
665,32	38,726
665,51	37,752
665,70	39,754
665,88	39,188
666,07	38,802
666,26	38,288
666,44	39,591
666,63	38,573
666,82	39,098
667,00	38,469
667,19	37,765
667,38	37,883
667,56	39,135
667,75	39,133
667,94	38,449
668,12	38,490
668,31	39,139
668,50	38,455
668,68	38,694
668,87	39,887
669,06	38,851
669,24	38,077
669,43	37,822
669,62	37,097
669,80	36,646
669,99	38,276
670,18	38,357
670,36	38,230
670,55	39,614
670,74	39,140
670,92	37,028
671,11	39,949
671,29	38,497
671,48	39,453
671,67	39,136
671,85	38,740
672,04	37,821
672,23	37,463
672,41	38,527
672,60	38,771
672,78	35,913
672,97	38,379
673,16	38,073
673,34	38,818
673,53	38,179
673,71	38,844
673,90	39,113
674,09	37,453
674,27	37,972
674,46	39,004
674,64	38,526
674,83	37,892
675,02	36,670
675,20	38,280
675,39	38,175
675,57	38,229
675,76	37,719
675,95	39,049
676,13	38,410
676,32	39,072
676,50	39,903
676,69	36,588
676,88	38,386
677,06	37,816
677,25	36,788
677,43	39,465
677,62	37,502
677,80	39,457
677,99	38,548
678,18	38,731
678,36	40,185
678,55	37,115
678,73	38,225
678,92	39,447
679,10	37,556
679,29	37,558
679,48	37,946
679,66	37,912
679,85	37,690
680,03	37,326
680,22	38,357
680,40	38,283
680,59	39,209
680,77	38,730
680,96	39,134
681,15	39,265
681,33	38,681
681,52	37,013
681,70	37,335
681,89	41,739
682,07	39,056
682,26	38,596
682,44	38,585
682,63	39,056
682,81	39,161
683,00	38,868
683,18	37,732
683,37	40,234
683,55	39,746
683,74	38,474
683,92	41,777
684,11	39,462
684,29	38,963
684,48	38,516
684,67	38,444
684,85	39,630
685,04	39,633
685,22	40,928
685,41	38,897
685,59	39,072
685,78	38,499
685,96	38,743
686,15	39,077
686,33	40,347
686,52	38,136
686,70	38,738
686,89	40,081
687,07	40,033
687,26	39,867
687,44	40,123
687,62	40,297
687,81	40,770
687,99	39,577
688,18	38,505
688,36	38,391
688,55	41,322
688,73	39,209
688,92	38,139
689,10	39,923
689,29	39,564
689,47	41,476
689,66	39,460
689,84	38,730
690,03	42,286
690,21	38,805
690,40	39,832
690,58	38,667
690,76	38,497
690,95	39,073
691,13	37,705
691,32	41,027
691,50	41,165
691,69	41,102
691,87	37,692
692,06	39,357
692,24	38,651
692,43	40,621
692,61	39,163
692,79	39,851
692,98	37,260
693,16	40,583
693,35	40,413
693,53	38,972
693,72	40,334
693,90	40,717
694,08	39,157
694,27	38,181
694,45	40,636
694,64	40,771
694,82	39,801
695,01	37,665
695,19	40,751
695,37	39,337
695,56	40,630
695,74	40,805
695,93	41,496
696,11	39,306
696,29	39,378
696,48	40,910
696,66	41,656
696,85	39,005
697,03	38,222
697,21	43,093
697,40	40,642
697,58	40,806
697,77	39,747
697,95	42,515
698,13	40,024
698,32	40,232
698,50	39,785
698,69	39,324
698,87	40,974
699,05	38,584
699,24	39,812
699,42	40,145
699,60	37,656
699,79	40,228
699,97	38,629
700,16	39,001
700,34	41,381
700,52	39,465
700,71	38,778
700,89	39,610
701,07	40,251
701,26	40,742
701,44	40,888
701,63	38,535
701,81	41,527
701,99	40,871
702,18	38,181
702,36	39,467
702,54	38,003
702,73	39,549
702,91	39,800
703,09	39,032
703,28	39,288
703,46	39,942
703,64	38,746
703,83	40,993
704,01	41,513
704,19	38,615
704,38	41,171
704,56	39,099
704,74	40,421
704,93	40,495
705,11	40,077
705,29	40,526
705,48	43,871
705,66	41,752
705,84	39,394
706,03	38,439
706,21	40,994
706,39	39,904
706,58	39,855
706,76	39,440
706,94	41,260
707,12	40,590
707,31	38,033
707,49	37,482
707,67	39,985
707,86	41,458
708,04	41,076
708,22	40,765
708,41	40,795
708,59	39,451
708,77	38,926
708,95	41,072
709,14	42,613
709,32	39,036
709,50	39,614
709,69	39,078
709,87	39,885
710,05	39,745
710,23	39,727
710,42	39,805
710,60	39,357
710,78	40,305
710,97	39,409
711,15	39,440
711,33	42,714
711,51	38,701
711,70	39,307
711,88	38,492
712,06	41,812
712,24	40,528
712,43	40,222
712,61	39,265
712,79	39,979
712,97	39,921
713,16	41,450
713,34	40,161
713,52	41,782
713,70	41,306
713,89	40,284
714,07	39,260
714,25	39,616
714,43	41,784
714,62	39,454
714,80	40,773
714,98	38,432
715,16	39,459
715,35	39,348
715,53	39,406
715,71	40,323
715,89	41,911
716,07	39,771
716,26	42,659
716,44	40,069
716,62	40,164
716,80	39,897
716,99	38,643
717,17	41,981
717,35	40,474
717,53	39,102
717,71	39,512
717,90	39,681
718,08	38,933
718,26	38,161
718,44	39,975
718,62	39,874
718,81	40,020
718,99	38,243
719,17	39,729
719,35	41,074
719,53	40,541
719,72	39,048
719,90	41,268
720,08	40,336
720,26	40,088
720,44	37,863
720,62	38,698
720,81	39,479
720,99	41,381
721,17	39,701
721,35	41,838
721,53	39,508
721,72	40,214
721,90	40,571
722,08	38,548
722,26	42,062
722,44	39,490
722,62	40,460
722,81	40,148
722,99	39,307
723,17	41,113
723,35	41,782
723,53	39,930
723,71	40,573
723,89	43,195
724,08	41,772
724,26	39,791
724,44	39,697
724,62	39,831
724,80	40,957
724,98	40,163
725,16	41,589
725,35	38,889
725,53	39,249
725,71	38,962
725,89	40,287
726,07	40,798
726,25	42,852
726,43	41,185
726,61	40,878
726,80	41,051
726,98	38,679
727,16	39,574
727,34	41,956
727,52	42,337
727,70	39,813
727,88	38,931
728,06	39,639
728,25	39,320
728,43	40,919
728,61	39,890
728,79	40,368
728,97	39,156
729,15	39,925
729,33	42,057
729,51	41,785
729,69	41,937
729,87	40,240
730,06	39,253
730,24	40,728
730,42	40,268
730,60	38,521
730,78	40,272
730,96	39,495
731,14	41,372
731,32	41,314
731,50	39,100
731,68	39,663
731,86	41,684
732,04	40,507
732,22	38,950
732,41	41,932
732,59	39,678
732,77	41,353
732,95	40,646
733,13	41,549
733,31	40,936
733,49	39,965
733,67	42,552
733,85	41,488
734,03	42,029
734,21	39,709
734,39	41,019
734,57	43,733
734,75	41,766
734,93	39,537
735,11	40,526
735,29	40,646
735,47	43,055
735,65	42,196
735,84	40,568
736,02	42,037
736,20	43,605
736,38	41,523
736,56	40,920
736,74	39,393
736,92	39,712
737,10	39,655
737,28	42,174
737,46	41,547
737,64	40,701
737,82	39,639
738,00	42,241
738,18	42,382
738,36	39,372
738,54	40,079
738,72	39,251
738,90	40,053
739,08	42,101
739,26	38,556
739,44	37,573
739,62	39,462
739,80	39,723
739,98	42,094
740,16	40,536
740,34	39,642
740,52	42,293
740,70	41,901
740,88	39,219
741,06	39,313
741,24	39,842
741,42	40,792
741,60	38,597
741,78	40,764
741,96	39,563
742,14	39,741
742,32	36,703
742,50	39,975
742,68	39,866
742,86	39,418
743,04	38,542
743,21	41,216
743,39	41,175
743,57	38,203
743,75	41,014
743,93	39,473
744,11	38,444
744,29	40,097
744,47	41,586
744,65	40,892
744,83	38,343
745,01	39,488
745,19	40,588
745,37	42,572
745,55	42,329
745,73	40,261
745,91	38,030
746,09	39,702
746,27	38,979
746,45	38,357
746,62	39,211
746,80	38,418
746,98	41,916
747,16	38,258
747,34	40,005
747,52	37,801
747,70	39,012
747,88	39,784
748,06	40,038
748,24	42,212
748,42	42,316
748,60	40,554
748,78	40,143
748,95	43,329
749,13	43,732
749,31	39,513
749,49	40,964
749,67	40,841
749,85	40,176
750,03	40,782
750,21	40,019
750,39	41,446
750,57	42,568
750,74	40,134
750,92	40,129
751,10	41,820
751,28	39,190
751,46	40,542
751,64	41,636
751,82	42,093
752,00	40,185
752,17	40,202
752,35	40,264
752,53	40,427
752,71	39,184
752,89	39,796
753,07	40,105
753,25	42,056
753,43	39,656
753,60	40,717
753,78	38,100
753,96	41,210
754,14	39,667
754,32	39,704
754,50	42,490
754,68	40,663
754,85	40,163
755,03	40,575
755,21	40,408
755,39	43,223
755,57	41,547
755,75	41,299
755,92	40,368
756,10	40,912
756,28	43,010
756,46	40,832
756,64	39,223
756,82	40,837
756,99	40,996
757,17	39,802
757,35	41,898
757,53	44,143
757,71	42,686
757,89	40,804
758,06	42,224
758,24	42,278
758,42	42,339
758,60	39,798
758,78	40,599
758,95	41,557
759,13	42,422
759,31	40,002
759,49	39,544
759,67	39,885
759,84	40,248
760,02	41,311
760,20	41,949
760,38	41,502
760,56	40,208
760,73	40,112
760,91	41,189
761,09	42,502
761,27	39,205
761,45	40,741
761,62	40,186
761,80	39,843
761,98	40,345
762,16	41,694
762,33	39,062
762,51	44,353
762,69	39,861
762,87	40,098
763,05	40,465
763,22	39,841
763,40	38,264
763,58	39,128
763,76	39,854
763,93	41,291
764,11	42,503
764,29	39,982
764,47	41,367
764,64	42,170
764,82	43,442
765,00	39,207
765,18	39,669
765,35	39,886
765,53	40,172
765,71	40,878
765,89	38,992
766,06	39,975
766,24	39,198
766,42	40,630
766,60	40,344
766,77	40,542
766,95	38,913
767,13	41,204
767,30	40,808
767,48	39,854
767,66	38,957
767,84	39,408
768,01	41,425
768,19	41,766
768,37	41,403
768,54	40,333
768,72	40,633
768,90	40,400
769,08	40,318
769,25	41,189
769,43	39,121
769,61	39,141
769,78	41,675
769,96	40,181
770,14	41,710
770,31	40,706
770,49	41,274
770,67	41,506
770,85	40,756
771,02	40,810
771,20	40,460
771,38	40,227
771,55	41,576
771,73	40,688
771,91	40,912
772,08	40,456
772,26	41,922
772,44	39,406
772,61	39,797
772,79	41,115
772,97	40,673
773,14	37,520
773,32	42,268
773,50	38,178
773,67	40,340
773,85	44,753
774,03	39,893
774,20	40,844
774,38	40,491
774,56	38,501
774,73	41,171
774,91	39,512
775,09	39,885
775,26	41,239
775,44	41,321
775,61	41,532
775,79	40,998
775,97	43,541
776,14	40,436
776,32	41,032
776,50	39,457
776,67	39,845
776,85	41,229
777,03	39,714
777,20	40,992
777,38	41,516
777,55	40,427
777,73	38,463
777,91	38,530
778,08	41,913
778,26	39,246
778,43	41,810
778,61	40,785
778,79	39,112
778,96	37,360
779,14	39,708
779,32	40,031
779,49	43,321
779,67	42,958
779,84	42,110
780,02	42,723
780,20	38,116
780,37	42,012
780,55	37,023
780,72	42,660
780,90	41,526
781,07	41,301
781,25	43,175
781,43	42,259
781,60	41,308
781,78	42,905
781,95	40,222
782,13	40,989
782,30	40,856
782,48	40,429
782,66	39,377
782,83	39,168
783,01	43,046
783,18	43,842
783,36	40,951
783,53	41,920
783,71	39,227
783,89	40,437
784,06	39,689
784,24	41,004
784,41	43,348
784,59	40,711
784,76	41,192
784,94	38,300
785,11	42,142
785,29	40,835
785,46	40,886
785,64	42,313
785,82	41,539
785,99	39,931
786,17	40,779
786,34	40,399
786,52	41,036
786,69	40,621
786,87	42,172
787,04	40,677
787,22	39,137
787,39	43,543
787,57	42,354
787,74	40,515
787,92	43,817
788,09	40,568
788,27	42,201
788,44	40,106
788,62	41,347
788,79	41,431
788,97	43,394
789,14	40,238
789,32	40,735
789,49	42,674
789,67	41,571
789,84	42,297
790,02	42,866
790,19	42,257
790,37	41,987
790,54	42,319
790,72	45,974
790,89	43,259
791,07	43,300
791,24	41,344
791,42	41,023
791,59	40,770
791,77	41,933
791,94	40,753
792,12	43,244
792,29	42,796
792,47	40,788
792,64	44,670
792,81	43,130
792,99	41,137
793,16	40,710
793,34	44,053
793,51	42,328
793,69	42,396
793,86	40,481
794,04	42,190
794,21	44,204
794,39	39,290
794,56	40,610
794,73	42,322
794,91	44,642
795,08	41,189
795,26	42,275
795,43	39,703
795,61	44,373
795,78	42,883
795,95	42,166
796,13	40,886
796,30	44,714
796,48	40,293
796,65	40,225
796,83	43,597
797,00	47,741
797,17	39,514
797,35	40,921
797,52	44,914
797,70	45,724
797,87	39,757
798,04	39,264
798,22	43,667
798,39	41,622
798,57	43,100
798,74	44,638
798,91	40,864
799,09	40,691
799,26	42,766
799,44	40,092
799,61	41,528
799,78	42,055
799,96	45,205
800,13	44,272
800,31	42,956
800,48	44,624
800,65	45,375
800,83	38,395
801,00	40,082
801,17	41,446
801,35	48,526
801,52	41,066
801,70	41,309
801,87	40,711
802,04	44,717
802,22	41,710
802,39	41,494
802,56	48,126
802,74	43,327
802,91	42,207
803,08	40,423
803,26	42,266
803,43	43,240
803,61	43,707
803,78	40,960
803,95	42,523
804,13	47,466
804,30	44,679
804,47	44,164
804,65	43,550
804,82	42,082
804,99	39,761
805,17	42,779
805,34	47,243
805,51	44,805
805,69	41,044
805,86	41,196
806,03	46,458
806,21	47,271
806,38	40,207
806,55	46,408
806,72	42,828
806,90	45,650
807,07	42,343
807,24	41,569
807,42	41,391
807,59	41,530
807,76	40,568
807,94	40,947
808,11	42,609
808,28	45,217
808,45	42,851
808,63	44,083
808,80	44,428
808,97	40,580
809,15	43,216
809,32	44,730
809,49	38,762
809,67	42,835
809,84	44,183
810,01	45,814
810,18	45,512
810,36	46,568
810,53	45,289
810,70	40,965
810,87	43,654
811,05	43,973
811,22	44,195
811,39	43,366
811,57	49,774
811,74	41,985
811,91	38,139
812,08	43,967
812,26	45,597
812,43	42,998
812,60	43,911
812,77	41,403
812,95	47,902
813,12	46,491
813,29	42,469
813,46	43,080
813,64	43,908
813,81	45,231
813,98	40,728
814,15	47,614
814,32	49,772
814,50	45,612
814,67	46,166
814,84	45,994
815,01	46,034
815,19	44,573
815,36	37,752
815,53	46,160
815,70	39,349
815,87	45,334
816,05	39,472
816,22	42,046
816,39	43,137
816,56	46,394
816,74	43,216
816,91	43,124
817,08	50,622
817,25	41,785
817,42	43,736
817,60	43,914
817,77	43,737
817,94	46,578
818,11	44,425
818,28	45,263
818,45	42,813
818,63	42,567
818,80	42,649
818,97	47,945
819,14	48,030
819,31	49,137
819,49	47,589
819,66	41,719
819,83	43,576
820,00	45,864
820,17	42,577
820,34	43,394
820,52	47,342
820,69	50,150
820,86	43,726
821,03	41,013
821,20	46,069
821,37	49,586
821,55	40,014
821,72	41,476
821,89	43,804
822,06	45,788
822,23	41,986
822,40	44,853
822,57	42,473
822,75	48,748
822,92	41,844
823,09	45,021
823,26	47,048
823,43	49,840
823,60	44,267
823,77	44,860
823,94	45,128
824,12	49,834
824,29	42,234
824,46	40,785
824,63	50,935
824,80	46,869
824,97	45,576
825,14	43,105
825,31	43,954
825,49	45,871
825,66	41,688
825,83	46,777
826,00	48,287
826,17	54,260
826,34	42,657
826,51	47,875
826,68	40,879
826,85	46,245
827,02	44,388
827,20	41,208
827,37	46,328
827,54	46,020
827,71	47,921
827,88	48,619
828,05	49,204
828,22	42,235
828,39	51,907
828,56	50,937
828,73	41,854
828,90	52,850
829,07	48,531
829,25	46,566
829,42	47,812
829,59	42,839
829,76	45,949
829,93	39,774
830,10	46,292
830,27	44,504
830,44	48,972
830,61	48,507
830,78	41,777
830,95	46,714
831,12	41,949
831,29	44,624
831,46	45,841
831,63	46,449
831,80	44,283
831,97	43,908
832,14	53,394
832,31	59,023
832,48	38,718
832,65	50,395
832,83	48,239
833,00	46,864
833,17	48,995
833,34	44,999
833,51	43,498
833,68	49,515
833,85	45,202
834,02	38,917
834,19	46,620
834,36	53,813
834,53	40,336
834,70	46,842
834,87	53,359
835,04	47,864
835,21	46,991
835,38	45,299
835,55	43,629
835,72	55,776
835,89	45,220
836,06	50,134
836,23	54,808
836,40	40,153
836,57	46,315
836,74	52,659
836,91	46,716
837,08	53,098
837,25	50,003
837,42	40,677
837,59	43,920
837,76	49,971
837,93	38,536
838,09	38,471
838,26	50,789
838,43	56,889
838,60	45,946
838,77	42,637
838,94	57,273
839,11	45,606
839,28	40,009
839,45	42,892
839,62	42,912
839,79	46,858
839,96	50,113
840,13	47,354
840,30	46,885
840,47	42,969
840,64	41,140
840,81	48,442
840,98	44,741
841,15	53,633
841,32	47,978
841,48	53,945
841,65	48,854
841,82	43,769
841,99	44,999
842,16	35,097
842,33	57,608
842,50	51,311
842,67	47,268
842,84	45,796
843,01	53,567
843,18	58,413
843,35	48,439
843,52	46,732
843,68	53,559
843,85	46,982
844,02	48,118
844,19	43,305
844,36	59,530
844,53	45,294
844,70	47,313
844,87	55,652
845,04	58,353
845,21	43,489
845,37	50,244
845,54	45,503
845,71	46,317
845,88	63,211
846,05	39,504
846,22	39,392
846,39	58,759
846,56	54,633
846,72	41,890
846,89	51,258
847,06	59,724
847,23	60,179
847,40	40,082
847,57	44,097
847,74	46,438
847,90	59,068
848,07	51,070
848,24	50,646
848,41	50,579
848,58	59,957
848,75	52,145
848,92	49,520
849,08	50,049
849,25	52,064
849,42	43,687
849,59	55,746
849,76	52,063
849,93	41,678
850,09	49,413
850,26	43,913
850,43	54,605
850,60	50,308
850,77	44,810
850,94	59,440
851,10	52,129
851,27	44,707
851,44	46,599
851,61	43,772
851,78	51,497
851,95	52,426
852,11	48,289
852,28	43,067
852,45	54,621
852,62	53,915
852,79	50,303
852,95	52,562
853,12	56,610
853,29	44,905
853,46	39,402
853,63	61,708
853,79	42,954
853,96	46,153
854,13	57,559
854,30	43,137
854,46	66,111
854,63	62,731
854,80	47,280
854,97	57,140
855,14	54,814
855,30	58,174
855,47	40,891
855,64	56,552
855,81	43,146
855,97	55,946
856,14	51,975
856,31	34,487
856,48	65,334
856,65	58,907
856,81	41,246
856,98	36,592
857,15	32,287
857,32	59,411
857,48	38,450
857,65	50,126
857,82	51,362
857,99	52,621
858,15	37,050
858,32	60,519
858,49	57,822
858,65	64,470
858,82	66,651
858,99	46,970
859,16	66,117
859,32	70,194
859,49	40,825
859,66	49,882
859,83	45,269
859,99	61,149
860,16	56,745
860,33	47,084
860,49	54,868
860,66	62,801
860,83	46,289
861,00	59,461
861,16	55,497
861,33	58,881
861,50	44,541
861,66	49,932
861,83	67,116
862,00	61,929
862,16	53,859
862,33	48,065
862,50	84,818
862,67	50,606
862,83	52,780
863,00	56,366
863,17	68,145
863,33	53,730
863,50	40,534
863,67	50,319
863,83	62,225
864,00	72,486
864,17	37,663
864,33	57,496
864,50	67,633
864,67	56,344
864,83	54,954
865,00	36,587
865,17	53,304
865,33	73,129
865,50	43,124
865,67	39,918
865,83	58,123
866,00	86,352
866,17	67,848
866,33	65,195
866,50	64,337
866,66	65,239
866,83	66,294
867,00	89,363
867,16	68,030
867,33	87,615
867,50	42,587
867,66	49,693
867,83	86,198
868,00	66,349
868,16	57,037
868,33	54,944
868,49	78,875
868,66	59,952
868,83	50,103
868,99	51,465
869,16	82,543
869,32	39,237
869,49	53,896
869,66	43,190
869,82	68,015
869,99	74,917
870,15	37,867
870,32	63,036
870,49	77,935
870,65	84,260
870,82	68,544
870,98	60,499
871,15	97,067
871,32	42,539
871,48	22,889
871,65	44,019
871,81	69,700
871,98	42,611
872,15	44,618
872,31	43,480
872,48	111,807
872,64	61,300
872,81	32,988
872,97	72,322
873,14	73,795
873,31	104,380
873,47	51,000
873,64	45,059
873,80	54,461
873,97	86,442
874,13	42,421
874,30	63,330
874,46	60,118
874,63	58,573
874,80	65,347
874,96	59,645
875,13	94,553
875,29	69,195
875,46	82,585
875,62	72,001
875,79	69,322
875,95	68,100
876,12	45,770
876,28	60,737
876,45	94,818
876,61	74,935
876,78	35,637
876,94	75,023
877,11	93,527
877,27	90,920
877,44	66,987
877,60	53,848
877,77	94,416
877,94	104,573
878,10	35,066
878,27	37,886
878,43	108,791
878,60	24,021
878,76	56,296
878,93	66,864
879,09	88,444
879,26	92,810
879,42	53,390
879,58	70,024
879,75	91,477
879,91	114,521
880,08	-28,100
880,24	45,369
880,41	84,873
880,57	93,461
880,74	39,514
880,90	67,214
881,07	47,605
881,23	78,885
881,40	69,285
881,56	69,803
881,73	107,918
881,89	91,735
882,06	29,749
882,22	175,623
882,38	135,421
882,55	124,235
882,71	92,670
882,88	65,050
883,04	132,961
883,21	164,976
883,37	64,740
883,54	30,938
883,70	180,813
883,86	78,786
884,03	83,831
884,19	48,041
884,36	5,388
884,52	161,985
884,69	95,726
884,85	34,816
885,01	198,606
885,18	121,811
885,34	94,038
885,51	8,682
885,67	73,756
>>>>> Data<<<<< Espectral Procesado Extremo
