Fichero De Datos De SpectraSuite
++++++++++++++++++++++++++++++++++++
Fecha: Wed Apr 22 11:05:03 CEST 2009
Usuario: evoflor
Presente Oscuro Del Espectro: Sí
La Referencia de Presente Del Espectro De: Sí
Muestreados de los componentes de Número de espectros: 1
Espectrómetros: USB4F02353
Tiempo de integración (usec): 500000 (USB4F02353)
Promedio de Espectros Hechos un: 5 (USB4F02353)
El Alisar Del Furgón: 0 (USB4F02353)
Párrafo de de Corregir del la del del de Eléctrica del obscuridad: Sí (USB4F02353)
Estrobo/Lámpara Permitido: No (USB4F02353)
Correct for Detector Non-linearity: No (USB4F02353)
Párrafo de de Corregir del la del del de Externa del luz: No (USB4F02353)
Procesado del espectro de Número de pixeles en: 3648
>>>>> Comienza Data<<<<< Espectral Procesado Del EL
177,79	201,719
178,00	201,719
178,22	201,719
178,44	1470,000
178,66	-58,806
178,88	127,915
179,09	-361,404
179,31	42,835
179,53	143,127
179,75	-17,982
179,96	445,086
180,18	-56,400
180,40	436,720
180,62	182,308
180,83	-95,331
181,05	-1332,073
181,27	-41730,000
181,49	-16,370
181,70	233,192
181,92	294,061
182,14	152,801
182,36	47,553
182,58	-264,300
182,79	632,277
183,01	-43,657
183,23	227,493
183,45	-106,246
183,66	34,381
183,88	335,471
184,10	-2967,818
184,32	355,025
184,53	148,743
184,75	-77,871
184,97	79,636
185,18	-53,064
185,40	-75,144
185,62	59,112
185,84	-70,022
186,05	162,210
186,27	-165,758
186,49	878,077
186,71	96,391
186,92	66,784
187,14	-170,360
187,36	113,089
187,58	52,332
187,79	65,152
188,01	248,114
188,23	-110,881
188,45	66,029
188,66	359,062
188,88	-2018,727
189,10	-462,300
189,31	-94,249
189,53	-28,960
189,75	258,477
189,97	18,577
190,18	109,571
190,40	256,059
190,62	203,199
190,83	-209,008
191,05	220,874
191,27	209,229
191,49	223,589
191,70	-31,875
191,92	-10,424
192,14	-3,490
192,35	354,191
192,57	1192,286
192,79	-70,600
193,01	155,043
193,22	76,506
193,44	-26,672
193,66	91,097
193,87	122,120
194,09	31,959
194,31	78,142
194,53	1015,594
194,74	15,048
194,96	37,251
195,18	102,260
195,39	-361,821
195,61	-74,615
195,83	-118,109
196,04	111,671
196,26	-96,633
196,48	-18,367
196,70	190,318
196,91	70,245
197,13	-131,316
197,35	-13,103
197,56	441,269
197,78	1211,418
198,00	386,224
198,21	635,097
198,43	-755,407
198,65	140,455
198,86	108,022
199,08	66,000
199,30	221,113
199,51	-256,124
199,73	203,324
199,95	312,698
200,16	589,731
200,38	349,669
200,60	126,291
200,81	108,630
201,03	-11,332
201,25	-237,300
201,46	103,932
201,68	21,517
201,90	3300,682
202,11	-159,275
202,33	189,641
202,55	510,375
202,76	50,080
202,98	63,868
203,20	227,740
203,41	-361,737
203,63	33,402
203,85	-33630,000
204,06	-130,789
204,28	51,253
204,50	62,663
204,71	33,975
204,93	-18,960
205,15	76,898
205,36	20,019
205,58	213,109
205,80	-76,261
206,01	57,581
206,23	113,995
206,45	107,315
206,66	117,405
206,88	-77,697
207,10	235,977
207,31	322,291
207,53	152,657
207,75	-13,600
207,96	747,985
208,18	-135,717
208,39	121,135
208,61	2452,286
208,83	-206,085
209,04	197,281
209,26	-51,290
209,48	79,384
209,69	173,274
209,91	575,777
210,13	84,974
210,34	2,978
210,56	106,527
210,77	-916,772
210,99	52,165
211,21	3778,235
211,42	-80,628
211,64	19,412
211,86	217,070
212,07	217,673
212,29	152,509
212,50	108,436
212,72	63,577
212,94	64,912
213,15	37,272
213,37	66,222
213,58	21,220
213,80	-943,929
214,02	4784,118
214,23	294,580
214,45	328,623
214,67	-1101,585
214,88	-324,262
215,10	-287,377
215,31	-115,218
215,53	213,477
215,75	136,748
215,96	991,491
216,18	131,408
216,39	188,220
216,61	32,162
216,83	-78,884
217,04	994,719
217,26	94,887
217,47	91,704
217,69	247,642
217,91	17,706
218,12	9570,000
218,34	68,498
218,55	187,082
218,77	31,216
218,99	88,707
219,20	-95,495
219,42	339,375
219,63	-16,055
219,85	-24,175
220,06	84,346
220,28	55,448
220,50	23,173
220,71	57,538
220,93	1976,038
221,14	-777,300
221,36	135,315
221,58	-30,055
221,79	-44,964
222,01	344,224
222,22	700,855
222,44	-77,191
222,65	93,661
222,87	-551,538
223,09	110,242
223,30	71,442
223,52	103,054
223,73	193,392
223,95	-3,338
224,16	-14,165
224,38	98,886
224,60	116,431
224,81	-22,204
225,03	-34,328
225,24	54,510
225,46	11,013
225,67	-6,742
225,89	14,568
226,10	413,042
226,32	405,840
226,54	24,554
226,75	-33,681
226,97	52,500
227,18	77,708
227,40	20,268
227,61	49,404
227,83	42,436
228,04	93,635
228,26	48,888
228,47	49,815
228,69	188,670
228,91	127,239
229,12	45,430
229,34	44,029
229,55	26,510
229,77	11,213
229,98	23,492
230,20	33,565
230,41	-14,672
230,63	38,637
230,84	-38,514
231,06	19,835
231,27	15,215
231,49	49,209
231,71	51,026
231,92	15,603
232,14	24,974
232,35	29,643
232,57	36,819
232,78	12,651
233,00	45,277
233,21	49,978
233,43	1,319
233,64	-8,140
233,86	36,423
234,07	27,750
234,29	12,419
234,50	-4,355
234,72	21,461
234,93	-11,837
235,15	33,769
235,36	22,747
235,58	23,756
235,79	48,602
236,01	9,013
236,22	13,959
236,44	29,051
236,65	19,736
236,87	18,064
237,08	4,482
237,30	2,189
237,51	18,186
237,73	4,559
237,94	13,135
238,16	20,950
238,37	8,796
238,59	17,794
238,80	5,915
239,02	-0,377
239,23	13,793
239,45	9,204
239,66	17,923
239,88	15,595
240,09	19,867
240,31	-8,500
240,52	5,304
240,74	8,906
240,95	16,881
241,17	1,569
241,38	13,634
241,60	14,078
241,81	16,584
242,03	4,854
242,24	11,464
242,46	23,077
242,67	1,991
242,89	10,519
243,10	11,929
243,32	18,133
243,53	5,393
243,75	5,171
243,96	6,417
244,18	8,979
244,39	10,446
244,60	9,340
244,82	0,162
245,03	14,014
245,25	4,425
245,46	15,016
245,68	4,937
245,89	15,835
246,11	12,651
246,32	14,605
246,54	6,898
246,75	8,382
246,97	8,911
247,18	17,930
247,39	7,920
247,61	8,356
247,82	4,169
248,04	13,283
248,25	5,602
248,47	11,427
248,68	11,802
248,90	-0,335
249,11	8,309
249,33	14,955
249,54	6,438
249,75	9,045
249,97	1,825
250,18	8,679
250,40	14,340
250,61	-0,093
250,83	10,261
251,04	8,667
251,25	7,054
251,47	4,294
251,68	12,678
251,90	9,043
252,11	12,524
252,33	6,569
252,54	8,534
252,76	5,317
252,97	7,970
253,18	2,593
253,40	5,384
253,61	1,823
253,83	8,045
254,04	8,870
254,25	6,711
254,47	7,397
254,68	7,033
254,90	10,980
255,11	12,409
255,33	6,547
255,54	5,086
255,75	5,341
255,97	8,387
256,18	4,772
256,40	3,883
256,61	8,686
256,82	2,446
257,04	10,635
257,25	2,131
257,47	7,711
257,68	2,370
257,89	6,573
258,11	8,508
258,32	5,450
258,54	8,311
258,75	12,695
258,96	9,892
259,18	6,747
259,39	2,851
259,61	7,448
259,82	5,645
260,03	9,012
260,25	6,369
260,46	2,751
260,68	6,062
260,89	6,215
261,10	5,076
261,32	4,289
261,53	4,737
261,75	6,447
261,96	1,512
262,17	9,801
262,39	10,724
262,60	2,537
262,81	2,715
263,03	10,290
263,24	6,441
263,46	2,434
263,67	5,867
263,88	5,410
264,10	10,974
264,31	3,582
264,52	4,064
264,74	8,720
264,95	1,569
265,17	6,850
265,38	3,752
265,59	7,031
265,81	8,529
266,02	2,524
266,23	5,615
266,45	8,685
266,66	11,764
266,87	6,850
267,09	5,265
267,30	8,963
267,52	6,628
267,73	6,139
267,94	5,293
268,16	8,260
268,37	7,010
268,58	7,398
268,80	6,367
269,01	4,528
269,22	10,950
269,44	8,341
269,65	9,210
269,86	2,600
270,08	10,477
270,29	6,638
270,50	10,206
270,72	8,394
270,93	5,496
271,14	1,876
271,36	6,030
271,57	7,480
271,78	10,689
272,00	7,460
272,21	6,339
272,42	6,622
272,64	5,800
272,85	4,779
273,06	5,383
273,28	4,696
273,49	7,297
273,70	5,885
273,92	6,762
274,13	7,882
274,34	6,010
274,56	8,063
274,77	1,722
274,98	6,203
275,20	6,609
275,41	8,266
275,62	4,253
275,84	5,241
276,05	10,096
276,26	4,809
276,47	2,665
276,69	6,459
276,90	5,644
277,11	4,813
277,33	5,251
277,54	5,408
277,75	6,025
277,97	6,222
278,18	3,985
278,39	7,919
278,61	4,412
278,82	4,581
279,03	7,723
279,24	4,934
279,46	5,963
279,67	9,232
279,88	7,045
280,10	8,536
280,31	3,542
280,52	8,577
280,73	3,077
280,95	6,715
281,16	9,955
281,37	5,089
281,59	7,252
281,80	10,818
282,01	7,581
282,22	4,404
282,44	4,252
282,65	7,103
282,86	10,150
283,08	5,457
283,29	6,895
283,50	6,483
283,71	8,049
283,93	4,413
284,14	9,002
284,35	5,086
284,56	5,610
284,78	5,118
284,99	7,223
285,20	6,507
285,42	3,749
285,63	6,181
285,84	6,873
286,05	6,765
286,27	4,131
286,48	5,900
286,69	1,882
286,90	6,286
287,12	4,254
287,33	3,915
287,54	3,597
287,75	5,235
287,97	9,294
288,18	5,105
288,39	3,166
288,60	5,250
288,82	5,903
289,03	5,089
289,24	4,300
289,45	10,362
289,67	6,341
289,88	5,265
290,09	6,813
290,30	5,427
290,52	4,831
290,73	3,321
290,94	5,341
291,15	5,720
291,37	6,899
291,58	5,789
291,79	4,654
292,00	6,778
292,21	8,077
292,43	5,252
292,64	4,491
292,85	5,955
293,06	6,754
293,28	2,376
293,49	3,757
293,70	9,211
293,91	5,877
294,12	5,020
294,34	4,895
294,55	4,336
294,76	6,959
294,97	8,587
295,19	4,519
295,40	6,496
295,61	7,107
295,82	2,303
296,03	5,009
296,25	6,671
296,46	6,630
296,67	5,502
296,88	3,350
297,09	6,127
297,31	4,251
297,52	6,498
297,73	3,691
297,94	8,130
298,15	7,017
298,37	4,953
298,58	6,369
298,79	8,026
299,00	4,824
299,21	1,220
299,43	2,586
299,64	7,543
299,85	5,569
300,06	4,230
300,27	5,091
300,49	11,085
300,70	4,825
300,91	4,372
301,12	2,843
301,33	7,555
301,54	5,370
301,76	5,696
301,97	3,647
302,18	5,283
302,39	8,808
302,60	6,711
302,82	7,671
303,03	8,995
303,24	6,222
303,45	7,100
303,66	4,848
303,87	5,188
304,09	9,720
304,30	6,036
304,51	4,091
304,72	4,238
304,93	5,318
305,14	6,253
305,36	3,864
305,57	1,950
305,78	6,896
305,99	3,628
306,20	5,863
306,41	4,598
306,62	5,208
306,84	3,498
307,05	2,652
307,26	5,430
307,47	11,180
307,68	5,281
307,89	3,648
308,11	6,904
308,32	5,136
308,53	5,050
308,74	4,219
308,95	5,466
309,16	4,683
309,37	8,104
309,59	1,026
309,80	4,240
310,01	6,232
310,22	6,689
310,43	3,708
310,64	6,096
310,85	6,895
311,06	3,545
311,28	5,639
311,49	7,029
311,70	7,601
311,91	4,096
312,12	6,405
312,33	5,817
312,54	7,024
312,75	5,078
312,97	2,854
313,18	5,988
313,39	5,243
313,60	4,734
313,81	4,978
314,02	6,223
314,23	6,523
314,44	3,310
314,65	5,883
314,87	3,470
315,08	3,658
315,29	8,495
315,50	8,168
315,71	7,637
315,92	8,624
316,13	6,876
316,34	5,514
316,55	5,557
316,77	3,768
316,98	5,377
317,19	3,296
317,40	6,397
317,61	8,063
317,82	3,508
318,03	2,933
318,24	6,347
318,45	7,344
318,66	4,894
318,87	2,306
319,09	7,374
319,30	7,402
319,51	6,718
319,72	8,355
319,93	8,039
320,14	7,331
320,35	7,110
320,56	6,315
320,77	3,389
320,98	8,099
321,19	4,461
321,40	5,986
321,62	8,278
321,83	5,802
322,04	6,822
322,25	7,393
322,46	9,416
322,67	9,556
322,88	6,235
323,09	6,370
323,30	6,097
323,51	5,621
323,72	7,345
323,93	5,136
324,14	4,018
324,35	2,794
324,56	2,436
324,77	4,609
324,99	5,544
325,20	2,413
325,41	5,016
325,62	6,953
325,83	2,839
326,04	5,027
326,25	8,839
326,46	2,476
326,67	6,760
326,88	5,624
327,09	5,446
327,30	3,574
327,51	6,038
327,72	7,771
327,93	5,145
328,14	1,090
328,35	4,746
328,56	6,713
328,77	4,261
328,98	5,205
329,19	4,935
329,40	6,139
329,61	6,412
329,82	1,171
330,04	6,072
330,25	3,847
330,46	6,855
330,67	1,691
330,88	2,984
331,09	4,008
331,30	5,474
331,51	4,139
331,72	3,975
331,93	6,131
332,14	6,258
332,35	9,648
332,56	4,269
332,77	10,107
332,98	2,820
333,19	4,530
333,40	6,858
333,61	4,693
333,82	8,281
334,03	4,333
334,24	6,580
334,45	5,291
334,66	6,816
334,87	5,630
335,08	3,799
335,29	0,513
335,50	5,365
335,71	1,976
335,92	7,020
336,13	4,095
336,34	2,721
336,55	6,001
336,76	5,927
336,97	4,385
337,18	4,228
337,39	5,914
337,60	5,687
337,81	5,799
338,02	6,144
338,23	4,504
338,44	5,236
338,65	4,987
338,86	5,022
339,07	3,869
339,28	7,553
339,49	4,260
339,70	2,752
339,91	4,863
340,11	5,866
340,32	5,600
340,53	4,378
340,74	2,764
340,95	4,874
341,16	6,210
341,37	7,019
341,58	3,332
341,79	2,784
342,00	5,358
342,21	5,360
342,42	5,561
342,63	7,258
342,84	3,237
343,05	6,816
343,26	8,655
343,47	3,850
343,68	4,128
343,89	4,862
344,10	6,607
344,31	7,808
344,52	4,606
344,73	5,498
344,94	5,974
345,14	5,580
345,35	8,846
345,56	3,767
345,77	5,819
345,98	7,253
346,19	5,622
346,40	5,912
346,61	6,168
346,82	6,093
347,03	4,656
347,24	7,862
347,45	4,323
347,66	9,631
347,87	1,434
348,08	5,558
348,28	0,353
348,49	7,135
348,70	6,948
348,91	8,222
349,12	3,633
349,33	15,523
349,54	5,509
349,75	4,906
349,96	6,701
350,17	5,700
350,38	5,623
350,59	5,254
350,80	6,712
351,00	9,429
351,21	10,565
351,42	3,334
351,63	4,912
351,84	7,096
352,05	8,951
352,26	6,343
352,47	3,952
352,68	7,160
352,89	5,772
353,09	5,921
353,30	1,004
353,51	4,355
353,72	11,249
353,93	9,771
354,14	3,894
354,35	5,780
354,56	7,481
354,77	4,504
354,98	2,045
355,18	7,710
355,39	8,285
355,60	4,514
355,81	6,318
356,02	3,742
356,23	6,587
356,44	2,980
356,65	7,218
356,85	12,146
357,06	7,367
357,27	7,117
357,48	5,858
357,69	7,880
357,90	7,536
358,11	4,306
358,32	3,263
358,52	8,582
358,73	5,831
358,94	3,721
359,15	6,870
359,36	6,733
359,57	6,383
359,78	5,793
359,98	5,385
360,19	4,951
360,40	6,856
360,61	7,800
360,82	6,346
361,03	9,529
361,24	8,263
361,44	3,671
361,65	5,219
361,86	4,402
362,07	7,359
362,28	5,400
362,49	3,540
362,70	3,536
362,90	10,400
363,11	3,066
363,32	4,696
363,53	4,967
363,74	7,964
363,95	7,585
364,15	6,464
364,36	8,895
364,57	6,887
364,78	3,518
364,99	6,662
365,20	7,744
365,40	6,949
365,61	5,245
365,82	10,278
366,03	1,724
366,24	8,600
366,45	5,842
366,65	7,187
366,86	4,519
367,07	5,731
367,28	7,599
367,49	4,910
367,69	11,753
367,90	6,336
368,11	5,482
368,32	5,518
368,53	7,526
368,73	9,246
368,94	7,782
369,15	5,743
369,36	6,748
369,57	6,248
369,78	3,290
369,98	6,883
370,19	11,174
370,40	4,792
370,61	5,854
370,82	6,030
371,02	4,486
371,23	10,205
371,44	5,946
371,65	10,346
371,85	6,844
372,06	7,730
372,27	2,905
372,48	5,613
372,69	5,454
372,89	6,105
373,10	4,430
373,31	8,038
373,52	4,842
373,73	7,754
373,93	5,845
374,14	5,806
374,35	7,460
374,56	10,386
374,76	5,985
374,97	6,052
375,18	5,857
375,39	8,489
375,60	7,396
375,80	4,925
376,01	4,355
376,22	4,314
376,43	5,522
376,63	9,622
376,84	6,545
377,05	4,875
377,26	4,393
377,46	5,492
377,67	4,566
377,88	7,328
378,09	5,533
378,29	3,394
378,50	6,980
378,71	7,351
378,92	5,654
379,12	6,189
379,33	4,595
379,54	6,083
379,75	6,003
379,95	2,652
380,16	7,513
380,37	10,672
380,58	7,380
380,78	4,714
380,99	5,756
381,20	4,071
381,41	4,908
381,61	8,443
381,82	6,751
382,03	7,171
382,24	7,157
382,44	8,691
382,65	4,759
382,86	7,072
383,06	4,918
383,27	5,263
383,48	5,485
383,69	9,274
383,89	8,253
384,10	7,337
384,31	6,723
384,51	8,510
384,72	6,387
384,93	9,812
385,14	7,417
385,34	8,353
385,55	5,839
385,76	4,253
385,96	8,432
386,17	8,659
386,38	9,970
386,59	9,130
386,79	4,473
387,00	8,631
387,21	11,895
387,41	7,289
387,62	6,201
387,83	10,818
388,03	7,463
388,24	4,210
388,45	7,519
388,66	9,327
388,86	9,644
389,07	3,634
389,28	13,530
389,48	4,318
389,69	6,385
389,90	7,321
390,10	13,507
390,31	12,528
390,52	4,128
390,72	4,776
390,93	7,503
391,14	6,793
391,34	8,853
391,55	8,874
391,76	7,127
391,96	8,015
392,17	7,269
392,38	11,318
392,58	11,095
392,79	8,673
393,00	5,486
393,20	11,709
393,41	9,124
393,62	9,413
393,82	9,671
394,03	10,460
394,24	9,264
394,44	9,899
394,65	9,874
394,86	12,194
395,06	13,254
395,27	7,656
395,48	9,085
395,68	9,620
395,89	12,672
396,10	10,607
396,30	10,557
396,51	7,948
396,72	14,793
396,92	7,705
397,13	10,045
397,34	7,674
397,54	12,895
397,75	8,348
397,95	11,420
398,16	12,484
398,37	12,767
398,57	11,833
398,78	11,472
398,99	13,393
399,19	12,271
399,40	10,426
399,60	12,083
399,81	10,613
400,02	12,243
400,22	15,206
400,43	14,953
400,64	12,563
400,84	12,833
401,05	16,220
401,25	15,374
401,46	15,239
401,67	14,365
401,87	11,164
402,08	11,275
402,29	9,992
402,49	16,995
402,70	18,870
402,90	12,959
403,11	14,309
403,32	17,648
403,52	15,119
403,73	18,536
403,93	17,769
404,14	19,197
404,35	19,524
404,55	13,305
404,76	15,400
404,96	17,511
405,17	15,052
405,38	19,045
405,58	13,770
405,79	18,883
405,99	22,433
406,20	16,366
406,40	18,383
406,61	19,343
406,82	15,192
407,02	20,243
407,23	19,242
407,43	17,659
407,64	18,646
407,85	16,008
408,05	12,623
408,26	25,083
408,46	21,904
408,67	18,563
408,87	15,873
409,08	20,655
409,29	24,123
409,49	25,127
409,70	20,792
409,90	22,549
410,11	21,663
410,31	26,022
410,52	20,767
410,72	22,075
410,93	25,910
411,14	20,094
411,34	20,416
411,55	25,260
411,75	26,398
411,96	21,284
412,16	23,010
412,37	22,419
412,57	24,078
412,78	23,315
412,99	20,682
413,19	26,342
413,40	24,690
413,60	25,174
413,81	20,251
414,01	21,880
414,22	24,494
414,42	24,041
414,63	21,721
414,83	29,895
415,04	30,426
415,24	28,370
415,45	27,679
415,65	22,978
415,86	26,469
416,07	27,983
416,27	24,887
416,48	31,487
416,68	29,112
416,89	25,528
417,09	25,042
417,30	33,715
417,50	27,701
417,71	29,285
417,91	31,297
418,12	25,331
418,32	30,583
418,53	28,269
418,73	26,411
418,94	30,423
419,14	27,593
419,35	24,307
419,55	28,213
419,76	31,102
419,96	28,139
420,17	30,000
420,37	27,699
420,58	34,567
420,78	27,843
420,99	30,669
421,19	32,688
421,40	29,386
421,60	31,597
421,81	30,527
422,01	29,742
422,22	28,545
422,42	29,589
422,63	31,674
422,83	27,943
423,04	30,393
423,24	34,256
423,45	29,978
423,65	35,061
423,86	36,687
424,06	36,213
424,27	32,192
424,47	33,423
424,67	27,887
424,88	33,251
425,08	32,842
425,29	40,067
425,49	30,175
425,70	29,348
425,90	33,384
426,11	28,272
426,31	32,735
426,52	33,539
426,72	29,874
426,93	32,487
427,13	35,158
427,33	31,474
427,54	34,292
427,74	36,797
427,95	32,655
428,15	33,324
428,36	31,408
428,56	32,581
428,77	33,479
428,97	30,057
429,18	35,999
429,38	31,251
429,58	37,278
429,79	38,192
429,99	31,849
430,20	27,293
430,40	35,187
430,61	33,808
430,81	31,500
431,01	36,693
431,22	36,109
431,42	32,586
431,63	31,553
431,83	36,131
432,04	33,194
432,24	37,479
432,44	30,378
432,65	32,272
432,85	31,281
433,06	32,061
433,26	31,949
433,47	29,691
433,67	31,500
433,87	32,051
434,08	30,913
434,28	34,189
434,49	35,052
434,69	33,683
434,89	26,781
435,10	31,108
435,30	34,796
435,51	30,369
435,71	34,301
435,91	32,683
436,12	31,550
436,32	31,710
436,53	32,508
436,73	33,478
436,93	36,300
437,14	32,445
437,34	36,209
437,55	31,888
437,75	37,685
437,95	39,455
438,16	35,093
438,36	33,882
438,57	31,902
438,77	32,381
438,97	35,055
439,18	39,201
439,38	37,634
439,58	31,173
439,79	35,492
439,99	33,762
440,20	40,403
440,40	38,465
440,60	35,881
440,81	35,847
441,01	35,045
441,21	35,155
441,42	36,887
441,62	35,544
441,83	38,393
442,03	38,966
442,23	34,658
442,44	34,780
442,64	34,633
442,84	33,638
443,05	32,486
443,25	33,267
443,45	37,090
443,66	35,501
443,86	32,394
444,06	35,115
444,27	33,099
444,47	29,455
444,67	36,499
444,88	37,854
445,08	34,299
445,28	35,393
445,49	30,632
445,69	34,604
445,90	36,953
446,10	39,731
446,30	37,178
446,51	35,767
446,71	37,596
446,91	36,491
447,12	40,362
447,32	34,081
447,52	40,683
447,72	39,007
447,93	33,360
448,13	30,456
448,33	40,856
448,54	36,703
448,74	30,279
448,94	35,747
449,15	38,902
449,35	32,620
449,55	39,821
449,76	40,221
449,96	32,336
450,16	34,177
450,37	33,640
450,57	34,446
450,77	30,131
450,98	37,602
451,18	39,226
451,38	33,501
451,58	33,637
451,79	38,591
451,99	36,933
452,19	36,743
452,40	35,745
452,60	34,283
452,80	32,183
453,00	39,282
453,21	40,411
453,41	36,447
453,61	33,885
453,82	36,369
454,02	29,390
454,22	42,324
454,42	38,519
454,63	34,603
454,83	36,243
455,03	35,008
455,24	37,788
455,44	33,948
455,64	34,634
455,84	35,908
456,05	38,398
456,25	32,751
456,45	36,227
456,65	36,937
456,86	36,984
457,06	35,617
457,26	42,647
457,47	39,671
457,67	38,764
457,87	39,319
458,07	33,815
458,28	39,695
458,48	38,462
458,68	32,718
458,88	38,747
459,09	38,064
459,29	41,181
459,49	37,218
459,69	38,459
459,90	37,266
460,10	33,517
460,30	37,363
460,50	35,018
460,71	34,598
460,91	30,982
461,11	38,096
461,31	33,594
461,52	41,283
461,72	37,364
461,92	34,635
462,12	37,183
462,32	33,103
462,53	32,652
462,73	32,226
462,93	35,902
463,13	32,751
463,34	36,080
463,54	32,415
463,74	37,690
463,94	33,406
464,14	38,325
464,35	32,651
464,55	37,809
464,75	36,313
464,95	36,777
465,16	28,715
465,36	37,134
465,56	32,506
465,76	34,454
465,96	36,486
466,17	34,062
466,37	31,503
466,57	37,133
466,77	36,842
466,97	32,896
467,18	37,955
467,38	33,548
467,58	33,709
467,78	37,891
467,98	37,372
468,19	38,758
468,39	37,047
468,59	39,515
468,79	38,782
468,99	32,466
469,19	34,834
469,40	35,719
469,60	29,317
469,80	30,259
470,00	37,763
470,20	38,073
470,41	31,884
470,61	37,613
470,81	34,635
471,01	34,582
471,21	39,198
471,41	32,157
471,62	34,282
471,82	33,106
472,02	31,358
472,22	35,451
472,42	33,107
472,62	35,530
472,83	32,163
473,03	37,801
473,23	34,362
473,43	37,176
473,63	31,871
473,83	36,753
474,03	32,337
474,24	39,227
474,44	33,040
474,64	35,552
474,84	34,703
475,04	32,013
475,24	32,738
475,45	34,637
475,65	34,709
475,85	35,403
476,05	29,193
476,25	31,599
476,45	32,179
476,65	36,316
476,85	36,527
477,06	32,645
477,26	33,914
477,46	34,065
477,66	29,119
477,86	34,174
478,06	33,098
478,26	35,773
478,46	32,663
478,67	32,055
478,87	33,286
479,07	32,868
479,27	35,060
479,47	34,787
479,67	28,991
479,87	32,534
480,07	33,476
480,28	33,520
480,48	30,736
480,68	35,785
480,88	37,077
481,08	35,195
481,28	36,599
481,48	35,349
481,68	34,167
481,88	32,788
482,08	31,060
482,29	34,530
482,49	31,100
482,69	31,764
482,89	31,799
483,09	34,296
483,29	32,473
483,49	29,593
483,69	33,137
483,89	31,376
484,09	30,179
484,29	29,417
484,50	32,862
484,70	32,133
484,90	31,005
485,10	31,229
485,30	34,174
485,50	36,582
485,70	31,417
485,90	30,917
486,10	28,555
486,30	32,033
486,50	30,624
486,70	32,432
486,90	31,533
487,10	34,140
487,30	30,455
487,51	33,466
487,71	29,060
487,91	28,808
488,11	30,963
488,31	28,030
488,51	30,193
488,71	27,912
488,91	32,438
489,11	28,782
489,31	30,117
489,51	26,709
489,71	31,420
489,91	31,324
490,11	28,629
490,31	31,111
490,51	29,497
490,71	29,345
490,91	28,304
491,11	31,660
491,31	32,671
491,51	29,125
491,72	28,096
491,92	29,230
492,12	32,787
492,32	29,634
492,52	30,748
492,72	30,500
492,92	31,235
493,12	31,039
493,32	29,687
493,52	25,549
493,72	28,370
493,92	31,351
494,12	29,597
494,32	31,486
494,52	31,271
494,72	28,891
494,92	29,653
495,12	30,579
495,32	30,533
495,52	27,237
495,72	28,978
495,92	33,002
496,12	32,052
496,32	27,757
496,52	29,818
496,72	28,738
496,92	33,567
497,12	30,433
497,32	33,265
497,52	30,088
497,72	33,849
497,92	31,147
498,12	30,040
498,32	28,511
498,52	28,488
498,72	27,550
498,92	26,794
499,12	32,192
499,32	28,931
499,52	31,648
499,72	31,220
499,92	31,017
500,12	31,197
500,32	32,136
500,52	27,351
500,72	32,663
500,91	32,860
501,11	29,238
501,31	25,467
501,51	32,533
501,71	32,121
501,91	31,238
502,11	30,539
502,31	29,549
502,51	32,004
502,71	26,302
502,91	28,036
503,11	30,136
503,31	30,183
503,51	28,275
503,71	27,982
503,91	30,977
504,11	30,140
504,31	29,062
504,51	30,819
504,71	30,679
504,91	29,135
505,10	29,766
505,30	29,574
505,50	31,677
505,70	27,622
505,90	27,736
506,10	27,056
506,30	29,516
506,50	27,539
506,70	32,358
506,90	28,202
507,10	28,455
507,30	28,794
507,50	31,876
507,70	31,154
507,89	29,730
508,09	27,971
508,29	28,077
508,49	26,985
508,69	26,181
508,89	27,813
509,09	26,514
509,29	28,043
509,49	29,453
509,69	31,403
509,89	28,237
510,09	25,979
510,28	29,424
510,48	28,554
510,68	29,603
510,88	26,105
511,08	29,144
511,28	25,967
511,48	27,214
511,68	27,604
511,88	26,373
512,07	26,037
512,27	28,076
512,47	26,055
512,67	26,309
512,87	26,707
513,07	27,544
513,27	22,323
513,47	24,355
513,67	26,047
513,86	28,682
514,06	27,254
514,26	25,312
514,46	27,359
514,66	26,723
514,86	29,103
515,06	29,312
515,26	29,222
515,45	24,973
515,65	26,249
515,85	27,922
516,05	25,301
516,25	24,547
516,45	28,757
516,65	26,278
516,84	25,419
517,04	26,313
517,24	25,642
517,44	26,315
517,64	29,198
517,84	26,653
518,04	26,500
518,23	30,856
518,43	28,173
518,63	25,532
518,83	24,887
519,03	24,392
519,23	26,455
519,42	24,947
519,62	23,373
519,82	26,670
520,02	24,670
520,22	26,876
520,42	24,886
520,61	27,720
520,81	25,319
521,01	25,470
521,21	22,258
521,41	26,320
521,61	27,027
521,80	23,117
522,00	24,392
522,20	27,200
522,40	26,184
522,60	24,405
522,79	24,282
522,99	23,940
523,19	23,263
523,39	22,043
523,59	24,214
523,78	27,196
523,98	22,173
524,18	25,028
524,38	22,487
524,58	23,681
524,77	25,873
524,97	22,944
525,17	24,582
525,37	23,631
525,57	24,870
525,76	23,040
525,96	25,035
526,16	22,524
526,36	22,454
526,56	22,472
526,75	21,265
526,95	23,639
527,15	24,578
527,35	24,383
527,55	22,238
527,74	25,657
527,94	22,278
528,14	18,933
528,34	22,712
528,53	24,282
528,73	22,315
528,93	22,197
529,13	22,043
529,32	22,378
529,52	25,573
529,72	22,564
529,92	21,361
530,12	23,838
530,31	19,397
530,51	19,588
530,71	22,741
530,91	24,777
531,10	19,872
531,30	20,297
531,50	20,931
531,70	22,626
531,89	22,508
532,09	21,387
532,29	21,136
532,49	21,292
532,68	21,195
532,88	22,717
533,08	20,004
533,28	21,800
533,47	23,011
533,67	22,339
533,87	17,765
534,06	27,118
534,26	22,316
534,46	21,496
534,66	20,949
534,85	24,692
535,05	16,754
535,25	22,355
535,45	18,860
535,64	22,045
535,84	19,773
536,04	19,523
536,23	21,476
536,43	25,054
536,63	19,301
536,83	19,937
537,02	18,451
537,22	20,048
537,42	20,222
537,61	19,821
537,81	22,176
538,01	19,164
538,20	19,789
538,40	17,889
538,60	21,143
538,80	18,146
538,99	21,274
539,19	17,905
539,39	16,726
539,58	22,023
539,78	17,545
539,98	19,147
540,17	15,583
540,37	17,237
540,57	16,356
540,76	17,461
540,96	14,043
541,16	17,551
541,36	15,686
541,55	13,141
541,75	13,756
541,95	14,025
542,14	11,742
542,34	14,839
542,54	13,358
542,73	14,640
542,93	14,642
543,13	13,411
543,32	12,641
543,52	13,939
543,72	13,370
543,91	14,945
544,11	13,428
544,31	12,890
544,50	12,952
544,70	13,978
544,89	15,979
545,09	15,160
545,29	14,838
545,48	16,018
545,68	14,562
545,88	14,552
546,07	13,892
546,27	15,002
546,47	13,388
546,66	17,441
546,86	14,907
547,06	16,302
547,25	16,045
547,45	18,852
547,64	15,660
547,84	19,604
548,04	17,153
548,23	18,345
548,43	18,471
548,63	20,248
548,82	16,919
549,02	17,330
549,21	15,357
549,41	18,999
549,61	17,428
549,80	17,868
550,00	19,126
550,20	15,418
550,39	18,227
550,59	17,615
550,78	17,048
550,98	15,747
551,18	18,824
551,37	17,773
551,57	18,365
551,76	18,826
551,96	17,905
552,16	17,711
552,35	19,274
552,55	18,641
552,74	19,732
552,94	18,109
553,14	17,655
553,33	18,152
553,53	17,414
553,72	18,054
553,92	19,626
554,12	19,314
554,31	17,820
554,51	17,800
554,70	17,119
554,90	20,171
555,09	19,805
555,29	19,377
555,49	19,846
555,68	20,401
555,88	18,307
556,07	16,919
556,27	19,107
556,46	18,108
556,66	16,210
556,86	19,454
557,05	18,269
557,25	17,777
557,44	16,426
557,64	17,836
557,83	18,123
558,03	18,360
558,22	18,274
558,42	20,182
558,62	17,856
558,81	18,193
559,01	17,139
559,20	18,833
559,40	18,508
559,59	18,107
559,79	17,588
559,98	21,390
560,18	20,548
560,37	18,786
560,57	20,424
560,76	18,888
560,96	17,408
561,16	20,517
561,35	17,702
561,55	22,251
561,74	18,742
561,94	17,872
562,13	19,424
562,33	21,798
562,52	21,402
562,72	18,505
562,91	18,871
563,11	16,088
563,30	19,532
563,50	15,548
563,69	17,299
563,89	17,595
564,08	21,140
564,28	16,819
564,47	19,887
564,67	17,784
564,86	19,138
565,06	16,920
565,25	19,391
565,45	18,585
565,64	21,718
565,84	18,819
566,03	17,658
566,23	18,543
566,42	19,693
566,62	18,991
566,81	18,882
567,01	17,423
567,20	18,326
567,40	15,958
567,59	18,431
567,79	19,459
567,98	20,635
568,18	19,643
568,37	20,787
568,57	19,222
568,76	21,449
568,96	18,643
569,15	18,820
569,35	20,166
569,54	21,001
569,73	19,818
569,93	19,416
570,12	20,496
570,32	19,771
570,51	20,130
570,71	21,310
570,90	20,265
571,10	21,564
571,29	19,633
571,49	18,231
571,68	20,491
571,87	18,827
572,07	20,933
572,26	18,054
572,46	20,137
572,65	21,249
572,85	17,122
573,04	19,812
573,24	19,821
573,43	23,468
573,62	22,246
573,82	20,825
574,01	18,928
574,21	20,610
574,40	18,757
574,60	19,980
574,79	21,014
574,98	20,025
575,18	21,345
575,37	19,863
575,57	20,699
575,76	20,579
575,96	22,674
576,15	20,600
576,34	21,204
576,54	21,138
576,73	21,882
576,93	20,450
577,12	21,107
577,31	20,521
577,51	21,233
577,70	20,435
577,90	21,900
578,09	19,094
578,28	20,580
578,48	19,924
578,67	22,775
578,87	21,139
579,06	19,778
579,25	22,475
579,45	21,366
579,64	20,466
579,84	20,453
580,03	20,928
580,22	22,377
580,42	20,940
580,61	21,817
580,81	21,566
581,00	22,157
581,19	22,268
581,39	20,443
581,58	19,705
581,77	20,823
581,97	21,866
582,16	19,926
582,35	20,775
582,55	21,626
582,74	23,058
582,94	20,829
583,13	19,563
583,32	21,276
583,52	21,561
583,71	20,580
583,90	20,157
584,10	21,713
584,29	23,483
584,48	21,708
584,68	22,197
584,87	22,976
585,06	22,173
585,26	22,417
585,45	20,744
585,65	23,611
585,84	22,050
586,03	21,499
586,23	20,814
586,42	21,874
586,61	22,857
586,81	22,996
587,00	22,034
587,19	21,831
587,39	23,021
587,58	22,303
587,77	22,805
587,97	21,064
588,16	22,018
588,35	22,489
588,54	23,695
588,74	21,111
588,93	24,001
589,12	22,772
589,32	22,779
589,51	23,096
589,70	21,038
589,90	22,701
590,09	22,695
590,28	25,176
590,48	23,509
590,67	24,075
590,86	23,749
591,06	24,182
591,25	23,893
591,44	23,934
591,63	23,171
591,83	24,385
592,02	24,322
592,21	23,815
592,41	25,389
592,60	24,413
592,79	24,163
592,98	23,880
593,18	26,114
593,37	24,017
593,56	25,455
593,76	24,909
593,95	24,479
594,14	23,944
594,33	25,841
594,53	24,780
594,72	24,218
594,91	27,054
595,10	25,101
595,30	25,338
595,49	25,222
595,68	24,930
595,88	25,255
596,07	25,666
596,26	25,199
596,45	25,431
596,65	23,251
596,84	26,163
597,03	25,803
597,22	26,512
597,42	28,889
597,61	28,212
597,80	27,397
597,99	25,932
598,19	27,482
598,38	26,978
598,57	27,243
598,76	27,877
598,95	28,166
599,15	27,296
599,34	27,411
599,53	29,184
599,72	27,793
599,92	27,687
600,11	26,205
600,30	27,378
600,49	29,450
600,69	27,050
600,88	28,894
601,07	28,678
601,26	28,039
601,45	27,226
601,65	28,049
601,84	27,505
602,03	28,878
602,22	28,506
602,42	31,618
602,61	27,166
602,80	28,470
602,99	30,489
603,18	26,313
603,38	28,822
603,57	27,943
603,76	27,911
603,95	28,346
604,14	28,687
604,34	29,502
604,53	27,384
604,72	28,180
604,91	29,113
605,10	30,090
605,29	29,728
605,49	28,050
605,68	29,636
605,87	29,183
606,06	29,761
606,25	27,608
606,45	29,970
606,64	28,109
606,83	27,936
607,02	28,803
607,21	30,865
607,40	30,797
607,60	28,834
607,79	27,664
607,98	26,953
608,17	28,100
608,36	27,747
608,55	27,689
608,75	27,721
608,94	27,710
609,13	26,399
609,32	25,203
609,51	26,059
609,70	25,443
609,89	27,766
610,09	26,443
610,28	27,224
610,47	25,688
610,66	24,420
610,85	24,290
611,04	27,245
611,23	24,702
611,43	24,442
611,62	24,052
611,81	25,383
612,00	25,270
612,19	25,147
612,38	25,335
612,57	28,301
612,77	26,681
612,96	27,692
613,15	26,891
613,34	29,734
613,53	28,222
613,72	30,669
613,91	28,440
614,10	27,340
614,29	32,209
614,49	28,133
614,68	28,265
614,87	30,593
615,06	31,847
615,25	28,408
615,44	32,630
615,63	30,018
615,82	29,408
616,01	28,820
616,21	28,395
616,40	30,336
616,59	32,841
616,78	31,927
616,97	31,414
617,16	32,180
617,35	31,203
617,54	31,304
617,73	31,815
617,92	32,708
618,11	32,374
618,31	28,179
618,50	32,186
618,69	30,916
618,88	32,042
619,07	31,409
619,26	31,291
619,45	31,056
619,64	31,362
619,83	30,649
620,02	31,279
620,21	32,164
620,40	31,714
620,59	29,060
620,78	30,485
620,97	33,127
621,17	32,436
621,36	29,280
621,55	32,498
621,74	33,628
621,93	31,099
622,12	31,296
622,31	31,167
622,50	32,121
622,69	34,268
622,88	33,510
623,07	33,001
623,26	33,408
623,45	35,365
623,64	33,154
623,83	32,145
624,02	34,083
624,21	33,148
624,40	33,646
624,59	31,234
624,78	32,264
624,97	31,710
625,16	31,168
625,35	32,585
625,54	32,358
625,73	33,803
625,92	33,185
626,12	33,881
626,31	33,563
626,50	34,096
626,69	33,656
626,88	33,607
627,07	34,459
627,26	34,556
627,45	33,103
627,64	32,683
627,83	33,618
628,02	33,214
628,21	32,640
628,40	32,408
628,59	34,391
628,78	33,204
628,97	33,376
629,16	31,581
629,35	32,414
629,54	36,394
629,73	33,353
629,92	32,851
630,10	35,009
630,29	33,708
630,48	34,016
630,67	32,473
630,86	35,359
631,05	33,421
631,24	35,765
631,43	32,640
631,62	35,480
631,81	34,019
632,00	34,954
632,19	31,555
632,38	34,178
632,57	35,645
632,76	34,612
632,95	37,163
633,14	35,586
633,33	35,492
633,52	34,454
633,71	36,436
633,90	34,209
634,09	35,748
634,28	34,462
634,47	33,984
634,66	33,924
634,85	34,430
635,04	35,792
635,22	36,785
635,41	35,299
635,60	35,890
635,79	35,619
635,98	33,999
636,17	36,581
636,36	35,004
636,55	35,321
636,74	35,341
636,93	36,122
637,12	35,877
637,31	35,038
637,50	34,362
637,69	35,569
637,87	36,952
638,06	34,381
638,25	36,915
638,44	35,129
638,63	34,268
638,82	35,491
639,01	36,655
639,20	36,045
639,39	36,692
639,58	33,261
639,77	36,982
639,95	33,305
640,14	35,326
640,33	34,000
640,52	35,488
640,71	37,376
640,90	36,200
641,09	36,100
641,28	35,559
641,47	37,275
641,66	36,853
641,84	36,661
642,03	34,724
642,22	34,445
642,41	37,918
642,60	36,942
642,79	36,987
642,98	38,033
643,17	35,018
643,35	36,840
643,54	35,802
643,73	36,810
643,92	34,816
644,11	35,709
644,30	35,611
644,49	38,078
644,67	36,543
644,86	34,526
645,05	37,863
645,24	36,685
645,43	37,429
645,62	34,819
645,81	36,328
645,99	37,218
646,18	37,694
646,37	36,887
646,56	38,308
646,75	37,029
646,94	38,490
647,13	37,371
647,31	36,264
647,50	36,138
647,69	38,731
647,88	38,307
648,07	38,355
648,26	39,290
648,44	35,360
648,63	37,338
648,82	36,686
649,01	37,357
649,20	34,805
649,38	37,625
649,57	36,707
649,76	36,459
649,95	36,182
650,14	36,060
650,33	35,639
650,51	36,738
650,70	38,049
650,89	36,728
651,08	36,014
651,27	38,104
651,45	37,188
651,64	36,832
651,83	37,708
652,02	35,231
652,21	38,629
652,39	37,438
652,58	37,828
652,77	36,201
652,96	38,573
653,15	38,349
653,33	39,199
653,52	38,496
653,71	40,044
653,90	38,602
654,09	39,218
654,27	39,189
654,46	40,841
654,65	39,018
654,84	39,153
655,02	40,957
655,21	40,545
655,40	41,089
655,59	39,383
655,77	41,418
655,96	40,949
656,15	40,088
656,34	40,841
656,53	40,000
656,71	39,445
656,90	40,160
657,09	40,448
657,28	41,167
657,46	38,737
657,65	39,774
657,84	38,007
658,03	38,787
658,21	38,022
658,40	39,651
658,59	38,297
658,78	39,488
658,96	37,071
659,15	36,498
659,34	36,897
659,52	37,015
659,71	37,885
659,90	35,348
660,09	38,008
660,27	37,119
660,46	38,782
660,65	37,719
660,84	36,957
661,02	37,121
661,21	36,779
661,40	37,876
661,58	37,820
661,77	38,469
661,96	35,326
662,15	37,591
662,33	36,455
662,52	37,883
662,71	37,156
662,89	38,086
663,08	35,592
663,27	35,649
663,45	37,997
663,64	37,806
663,83	36,826
664,02	36,571
664,20	39,107
664,39	36,456
664,58	37,765
664,76	37,998
664,95	38,991
665,14	37,967
665,32	35,267
665,51	38,321
665,70	37,627
665,88	38,344
666,07	38,264
666,26	38,673
666,44	38,041
666,63	36,087
666,82	37,382
667,00	39,908
667,19	37,262
667,38	37,450
667,56	38,312
667,75	36,601
667,94	38,625
668,12	36,373
668,31	37,410
668,50	38,332
668,68	36,154
668,87	36,210
669,06	37,634
669,24	38,799
669,43	35,989
669,62	36,528
669,80	35,011
669,99	37,574
670,18	39,101
670,36	36,327
670,55	37,478
670,74	38,490
670,92	36,642
671,11	37,890
671,29	36,090
671,48	37,392
671,67	38,591
671,85	37,392
672,04	36,606
672,23	36,695
672,41	37,165
672,60	36,785
672,78	35,951
672,97	36,878
673,16	38,356
673,34	36,451
673,53	36,564
673,71	38,990
673,90	37,934
674,09	38,461
674,27	34,886
674,46	36,607
674,64	38,044
674,83	35,813
675,02	35,745
675,20	37,921
675,39	37,075
675,57	37,990
675,76	37,116
675,95	37,500
676,13	38,190
676,32	37,633
676,50	37,361
676,69	34,813
676,88	36,169
677,06	37,234
677,25	37,016
677,43	41,271
677,62	37,103
677,80	37,650
677,99	38,507
678,18	36,302
678,36	39,779
678,55	36,103
678,73	37,971
678,92	37,863
679,10	38,888
679,29	36,740
679,48	38,174
679,66	36,500
679,85	36,977
680,03	37,802
680,22	36,993
680,40	36,955
680,59	36,673
680,77	36,953
680,96	39,577
681,15	37,578
681,33	38,109
681,52	37,823
681,70	38,209
681,89	39,095
682,07	38,588
682,26	37,035
682,44	38,286
682,63	37,072
682,81	37,273
683,00	37,386
683,18	36,363
683,37	40,457
683,55	37,385
683,74	37,984
683,92	39,733
684,11	39,251
684,29	38,895
684,48	34,975
684,67	38,389
684,85	38,065
685,04	37,330
685,22	38,921
685,41	37,524
685,59	38,311
685,78	37,633
685,96	36,400
686,15	37,395
686,33	37,090
686,52	38,886
686,70	37,346
686,89	37,343
687,07	38,186
687,26	39,555
687,44	37,925
687,62	36,957
687,81	37,522
687,99	37,264
688,18	38,932
688,36	36,871
688,55	37,803
688,73	37,741
688,92	36,152
689,10	37,216
689,29	38,864
689,47	38,393
689,66	38,023
689,84	36,546
690,03	39,751
690,21	39,895
690,40	36,605
690,58	36,934
690,76	35,406
690,95	38,746
691,13	37,611
691,32	38,806
691,50	39,233
691,69	37,557
691,87	38,099
692,06	36,144
692,24	37,701
692,43	38,425
692,61	35,833
692,79	37,827
692,98	36,946
693,16	39,068
693,35	36,912
693,53	38,606
693,72	39,158
693,90	38,901
694,08	38,091
694,27	37,021
694,45	40,753
694,64	39,097
694,82	37,543
695,01	37,809
695,19	38,685
695,37	37,734
695,56	38,700
695,74	37,038
695,93	38,059
696,11	37,698
696,29	38,522
696,48	38,526
696,66	38,495
696,85	37,644
697,03	36,884
697,21	37,290
697,40	38,537
697,58	38,047
697,77	38,033
697,95	38,129
698,13	39,485
698,32	37,904
698,50	38,507
698,69	37,812
698,87	39,451
699,05	37,277
699,24	36,806
699,42	38,344
699,60	35,199
699,79	38,289
699,97	37,494
700,16	36,443
700,34	39,365
700,52	37,975
700,71	37,024
700,89	36,628
701,07	37,159
701,26	39,627
701,44	37,494
701,63	36,691
701,81	38,534
701,99	38,649
702,18	35,743
702,36	37,800
702,54	36,996
702,73	37,314
702,91	38,031
703,09	37,724
703,28	36,718
703,46	38,255
703,64	38,565
703,83	38,867
704,01	39,300
704,19	36,447
704,38	37,432
704,56	36,313
704,74	39,154
704,93	37,291
705,11	38,780
705,29	37,302
705,48	39,837
705,66	39,318
705,84	37,697
706,03	36,488
706,21	37,794
706,39	37,167
706,58	38,704
706,76	37,295
706,94	38,026
707,12	38,708
707,31	37,258
707,49	36,559
707,67	37,679
707,86	38,557
708,04	39,055
708,22	37,357
708,41	37,910
708,59	38,600
708,77	37,617
708,95	40,068
709,14	41,468
709,32	39,645
709,50	37,353
709,69	38,782
709,87	37,344
710,05	38,586
710,23	36,567
710,42	36,203
710,60	37,912
710,78	38,759
710,97	38,809
711,15	36,740
711,33	39,091
711,51	37,419
711,70	37,613
711,88	37,972
712,06	39,670
712,24	38,554
712,43	35,703
712,61	37,470
712,79	36,895
712,97	36,518
713,16	38,274
713,34	36,204
713,52	38,933
713,70	38,505
713,89	36,203
714,07	37,979
714,25	37,659
714,43	37,605
714,62	36,901
714,80	37,104
714,98	36,171
715,16	38,470
715,35	37,668
715,53	37,391
715,71	39,860
715,89	37,916
716,07	38,032
716,26	40,711
716,44	39,921
716,62	38,453
716,80	37,903
716,99	37,414
717,17	38,766
717,35	38,487
717,53	38,492
717,71	36,758
717,90	38,763
718,08	37,782
718,26	35,168
718,44	38,387
718,62	39,388
718,81	37,782
718,99	37,859
719,17	37,698
719,35	38,852
719,53	37,462
719,72	36,508
719,90	38,532
720,08	37,178
720,26	39,917
720,44	36,824
720,62	37,061
720,81	38,688
720,99	41,443
721,17	38,291
721,35	38,771
721,53	38,599
721,72	40,608
721,90	38,777
722,08	38,900
722,26	40,735
722,44	38,184
722,62	38,040
722,81	37,708
722,99	39,143
723,17	37,801
723,35	37,615
723,53	36,569
723,71	39,336
723,89	39,700
724,08	39,869
724,26	38,064
724,44	38,087
724,62	37,133
724,80	36,623
724,98	39,964
725,16	40,304
725,35	38,758
725,53	36,667
725,71	37,145
725,89	38,360
726,07	39,072
726,25	40,854
726,43	37,342
726,61	39,358
726,80	39,360
726,98	37,911
727,16	37,819
727,34	37,916
727,52	38,538
727,70	36,986
727,88	38,280
728,06	36,345
728,25	38,962
728,43	38,772
728,61	38,640
728,79	38,949
728,97	38,109
729,15	37,336
729,33	38,824
729,51	38,932
729,69	38,482
729,87	37,597
730,06	38,724
730,24	36,968
730,42	40,315
730,60	38,891
730,78	37,791
730,96	37,483
731,14	37,350
731,32	37,516
731,50	35,449
731,68	38,718
731,86	37,548
732,04	38,155
732,22	37,565
732,41	40,782
732,59	39,872
732,77	39,638
732,95	39,269
733,13	39,235
733,31	38,928
733,49	38,160
733,67	40,715
733,85	39,895
734,03	39,887
734,21	38,521
734,39	38,451
734,57	40,230
734,75	39,121
734,93	37,712
735,11	37,398
735,29	36,014
735,47	39,949
735,65	37,750
735,84	37,836
736,02	39,303
736,20	40,567
736,38	38,798
736,56	38,581
736,74	38,540
736,92	37,350
737,10	38,016
737,28	39,237
737,46	39,100
737,64	38,370
737,82	37,976
738,00	40,215
738,18	38,758
738,36	39,303
738,54	37,942
738,72	35,714
738,90	37,897
739,08	39,265
739,26	36,291
739,44	38,596
739,62	39,426
739,80	40,031
739,98	40,041
740,16	38,266
740,34	38,504
740,52	38,996
740,70	40,781
740,88	35,784
741,06	39,074
741,24	39,109
741,42	39,639
741,60	36,212
741,78	39,935
741,96	37,094
742,14	38,075
742,32	37,861
742,50	37,800
742,68	38,227
742,86	38,912
743,04	37,742
743,21	38,385
743,39	38,939
743,57	38,491
743,75	37,142
743,93	37,260
744,11	36,597
744,29	36,171
744,47	40,181
744,65	39,379
744,83	37,298
745,01	37,151
745,19	39,257
745,37	39,504
745,55	38,940
745,73	38,484
745,91	36,700
746,09	37,784
746,27	36,695
746,45	35,800
746,62	36,975
746,80	36,458
746,98	37,584
747,16	37,478
747,34	37,621
747,52	37,361
747,70	39,400
747,88	38,810
748,06	37,895
748,24	38,576
748,42	39,224
748,60	38,088
748,78	37,082
748,95	39,873
749,13	41,754
749,31	36,269
749,49	37,452
749,67	37,184
749,85	38,662
750,03	37,614
750,21	37,086
750,39	39,534
750,57	37,628
750,74	37,143
750,92	37,362
751,10	40,444
751,28	36,541
751,46	38,680
751,64	39,267
751,82	37,043
752,00	40,071
752,17	38,251
752,35	36,665
752,53	38,268
752,71	38,614
752,89	39,762
753,07	38,926
753,25	39,446
753,43	37,103
753,60	39,556
753,78	38,991
753,96	40,279
754,14	38,020
754,32	37,559
754,50	40,850
754,68	39,447
754,85	38,660
755,03	38,637
755,21	38,056
755,39	40,294
755,57	38,253
755,75	37,233
755,92	38,472
756,10	36,878
756,28	40,589
756,46	37,423
756,64	38,806
756,82	38,505
756,99	38,850
757,17	38,722
757,35	37,077
757,53	41,479
757,71	40,973
757,89	36,606
758,06	39,531
758,24	39,573
758,42	39,581
758,60	37,273
758,78	36,830
758,95	39,576
759,13	40,216
759,31	39,288
759,49	36,540
759,67	38,650
759,84	38,216
760,02	37,882
760,20	37,603
760,38	37,628
760,56	37,280
760,73	39,244
760,91	41,220
761,09	39,955
761,27	36,639
761,45	38,260
761,62	38,765
761,80	37,640
761,98	41,014
762,16	38,775
762,33	38,331
762,51	38,917
762,69	38,394
762,87	38,163
763,05	36,964
763,22	37,636
763,40	37,467
763,58	36,111
763,76	38,153
763,93	39,495
764,11	37,890
764,29	38,163
764,47	40,078
764,64	36,465
764,82	41,203
765,00	35,941
765,18	36,501
765,35	39,269
765,53	37,826
765,71	38,937
765,89	36,863
766,06	37,382
766,24	39,849
766,42	38,344
766,60	36,120
766,77	38,199
766,95	39,890
767,13	38,625
767,30	38,720
767,48	38,346
767,66	35,600
767,84	35,623
768,01	39,015
768,19	39,191
768,37	37,698
768,54	36,293
768,72	40,811
768,90	39,200
769,08	38,468
769,25	37,769
769,43	37,073
769,61	37,332
769,78	40,011
769,96	39,266
770,14	38,734
770,31	39,627
770,49	38,339
770,67	40,257
770,85	37,842
771,02	37,172
771,20	38,951
771,38	39,028
771,55	36,334
771,73	37,820
771,91	38,324
772,08	41,044
772,26	38,103
772,44	38,146
772,61	36,504
772,79	38,133
772,97	37,375
773,14	36,665
773,32	40,371
773,50	40,690
773,67	37,616
773,85	39,972
774,03	35,594
774,20	38,157
774,38	39,247
774,56	38,274
774,73	38,468
774,91	35,294
775,09	39,532
775,26	39,043
775,44	37,459
775,61	37,256
775,79	37,744
775,97	38,387
776,14	38,798
776,32	37,129
776,50	38,782
776,67	39,359
776,85	37,404
777,03	36,804
777,20	39,565
777,38	38,679
777,55	37,730
777,73	35,393
777,91	37,075
778,08	40,163
778,26	37,904
778,43	38,617
778,61	36,220
778,79	37,624
778,96	35,922
779,14	36,131
779,32	38,408
779,49	40,237
779,67	39,240
779,84	36,494
780,02	38,585
780,20	35,661
780,37	39,065
780,55	33,286
780,72	40,359
780,90	40,543
781,07	38,064
781,25	39,570
781,43	40,319
781,60	38,665
781,78	37,593
781,95	38,639
782,13	38,448
782,30	39,511
782,48	39,447
782,66	37,777
782,83	36,541
783,01	40,522
783,18	38,698
783,36	39,475
783,53	39,883
783,71	39,031
783,89	37,725
784,06	39,620
784,24	37,725
784,41	40,258
784,59	36,855
784,76	39,275
784,94	37,291
785,11	38,720
785,29	38,764
785,46	41,589
785,64	38,598
785,82	39,355
785,99	39,365
786,17	38,286
786,34	37,353
786,52	40,334
786,69	43,850
786,87	37,359
787,04	39,344
787,22	35,520
787,39	42,653
787,57	40,160
787,74	38,455
787,92	40,311
788,09	39,141
788,27	37,446
788,44	36,390
788,62	38,216
788,79	40,210
788,97	40,352
789,14	38,097
789,32	41,236
789,49	38,849
789,67	38,086
789,84	41,006
790,02	39,558
790,19	37,606
790,37	40,041
790,54	41,475
790,72	43,277
790,89	40,509
791,07	40,457
791,24	37,294
791,42	39,039
791,59	40,257
791,77	38,275
791,94	38,851
792,12	38,878
792,29	40,408
792,47	39,706
792,64	39,460
792,81	38,273
792,99	38,150
793,16	39,308
793,34	41,993
793,51	42,122
793,69	38,821
793,86	37,189
794,04	40,046
794,21	41,862
794,39	38,310
794,56	39,336
794,73	40,928
794,91	39,776
795,08	40,320
795,26	40,608
795,43	39,646
795,61	42,864
795,78	39,704
795,95	39,331
796,13	40,061
796,30	41,250
796,48	37,309
796,65	38,744
796,83	41,893
797,00	42,849
797,17	40,763
797,35	38,484
797,52	40,622
797,70	40,687
797,87	40,069
798,04	38,866
798,22	41,353
798,39	38,278
798,57	41,671
798,74	41,605
798,91	41,097
799,09	38,060
799,26	43,364
799,44	39,672
799,61	39,004
799,78	43,679
799,96	38,910
800,13	37,726
800,31	40,726
800,48	40,883
800,65	39,745
800,83	36,760
801,00	38,393
801,17	37,620
801,35	40,341
801,52	40,227
801,70	42,569
801,87	39,209
802,04	43,246
802,22	41,104
802,39	39,739
802,56	45,394
802,74	42,193
802,91	36,636
803,08	39,543
803,26	36,938
803,43	43,298
803,61	40,945
803,78	41,570
803,95	40,851
804,13	40,511
804,30	40,971
804,47	44,345
804,65	40,367
804,82	38,111
804,99	42,537
805,17	39,377
805,34	45,949
805,51	43,836
805,69	40,190
805,86	36,830
806,03	43,354
806,21	39,320
806,38	42,002
806,55	41,222
806,72	40,078
806,90	42,359
807,07	37,497
807,24	40,179
807,42	38,664
807,59	40,422
807,76	35,028
807,94	40,169
808,11	42,638
808,28	45,043
808,45	37,612
808,63	41,649
808,80	44,494
808,97	42,383
809,15	37,232
809,32	38,950
809,49	40,664
809,67	42,329
809,84	40,477
810,01	38,682
810,18	46,957
810,36	36,970
810,53	43,914
810,70	40,925
810,87	42,235
811,05	39,767
811,22	41,663
811,39	39,363
811,57	45,211
811,74	45,137
811,91	39,200
812,08	40,364
812,26	43,071
812,43	38,781
812,60	40,944
812,77	36,202
812,95	44,816
813,12	42,519
813,29	38,177
813,46	43,536
813,64	43,826
813,81	36,207
813,98	39,848
814,15	41,532
814,32	46,217
814,50	40,658
814,67	39,414
814,84	42,097
815,01	43,501
815,19	37,196
815,36	36,590
815,53	41,804
815,70	35,708
815,87	40,161
816,05	37,321
816,22	44,113
816,39	45,701
816,56	45,847
816,74	41,804
816,91	40,727
817,08	42,491
817,25	43,904
817,42	43,527
817,60	42,295
817,77	37,178
817,94	46,087
818,11	43,062
818,28	41,385
818,45	40,017
818,63	41,702
818,80	41,922
818,97	40,806
819,14	46,725
819,31	46,645
819,49	44,018
819,66	40,540
819,83	43,308
820,00	46,379
820,17	40,581
820,34	38,730
820,52	44,419
820,69	39,067
820,86	39,805
821,03	41,803
821,20	45,189
821,37	41,090
821,55	39,700
821,72	44,084
821,89	41,460
822,06	45,737
822,23	39,937
822,40	41,502
822,57	39,941
822,75	44,887
822,92	38,369
823,09	43,186
823,26	43,275
823,43	46,828
823,60	37,379
823,77	48,420
823,94	51,082
824,12	41,239
824,29	39,647
824,46	40,553
824,63	49,015
824,80	45,297
824,97	38,548
825,14	43,536
825,31	42,479
825,49	46,343
825,66	42,965
825,83	36,659
826,00	43,885
826,17	53,179
826,34	40,426
826,51	36,207
826,68	38,345
826,85	43,125
827,02	44,134
827,20	42,082
827,37	44,153
827,54	45,248
827,71	39,319
827,88	43,733
828,05	47,281
828,22	45,857
828,39	44,959
828,56	48,905
828,73	44,754
828,90	44,247
829,07	40,676
829,25	40,444
829,42	45,977
829,59	39,166
829,76	41,045
829,93	34,446
830,10	42,046
830,27	43,572
830,44	45,290
830,61	43,012
830,78	54,041
830,95	38,427
831,12	39,184
831,29	42,264
831,46	42,566
831,63	43,414
831,80	41,111
831,97	38,735
832,14	47,924
832,31	54,377
832,48	38,833
832,65	47,123
832,83	42,153
833,00	44,068
833,17	38,352
833,34	44,168
833,51	41,489
833,68	48,900
833,85	46,079
834,02	39,242
834,19	46,554
834,36	48,601
834,53	39,384
834,70	40,340
834,87	47,944
835,04	44,680
835,21	45,646
835,38	39,736
835,55	41,316
835,72	52,106
835,89	40,798
836,06	42,292
836,23	53,254
836,40	38,630
836,57	41,706
836,74	42,588
836,91	44,629
837,08	54,766
837,25	46,966
837,42	35,789
837,59	45,727
837,76	42,965
837,93	39,861
838,09	43,076
838,26	41,957
838,43	51,114
838,60	43,233
838,77	43,224
838,94	41,660
839,11	46,994
839,28	39,790
839,45	33,667
839,62	50,361
839,79	38,743
839,96	41,954
840,13	42,402
840,30	42,680
840,47	39,027
840,64	35,821
840,81	46,692
840,98	32,135
841,15	49,144
841,32	39,647
841,48	46,550
841,65	49,564
841,82	47,985
841,99	49,539
842,16	41,096
842,33	55,318
842,50	45,199
842,67	44,485
842,84	50,995
843,01	43,980
843,18	51,859
843,35	40,692
843,52	36,422
843,68	43,212
843,85	52,395
844,02	41,902
844,19	37,368
844,36	54,134
844,53	52,789
844,70	36,871
844,87	57,568
845,04	47,448
845,21	40,338
845,37	44,666
845,54	36,570
845,71	40,130
845,88	65,199
846,05	38,596
846,22	42,654
846,39	45,656
846,56	45,170
846,72	40,785
846,89	43,484
847,06	60,435
847,23	52,285
847,40	45,653
847,57	31,386
847,74	50,965
847,90	51,385
848,07	44,404
848,24	44,391
848,41	42,034
848,58	57,374
848,75	47,049
848,92	43,506
849,08	48,126
849,25	50,222
849,42	38,537
849,59	54,012
849,76	40,748
849,93	56,359
850,09	50,978
850,26	34,105
850,43	52,153
850,60	52,302
850,77	41,588
850,94	42,406
851,10	57,750
851,27	43,265
851,44	42,385
851,61	44,564
851,78	51,485
851,95	51,061
852,11	39,128
852,28	49,443
852,45	43,197
852,62	50,042
852,79	49,893
852,95	40,580
853,12	60,313
853,29	35,942
853,46	45,750
853,63	43,368
853,79	41,523
853,96	39,849
854,13	58,335
854,30	45,119
854,46	53,189
854,63	54,340
854,80	46,245
854,97	42,744
855,14	52,396
855,30	53,117
855,47	44,685
855,64	45,064
855,81	52,962
855,97	60,444
856,14	46,283
856,31	49,506
856,48	56,723
856,65	59,010
856,81	48,097
856,98	35,307
857,15	47,551
857,32	56,363
857,48	42,613
857,65	59,907
857,82	54,739
857,99	62,340
858,15	55,139
858,32	51,367
858,49	56,734
858,65	55,149
858,82	49,471
858,99	36,608
859,16	48,586
859,32	63,006
859,49	35,882
859,66	49,990
859,83	54,726
859,99	49,026
860,16	48,223
860,33	48,563
860,49	48,676
860,66	68,684
860,83	47,101
861,00	42,353
861,16	61,296
861,33	61,647
861,50	36,556
861,66	38,036
861,83	55,277
862,00	48,446
862,16	54,804
862,33	45,251
862,50	83,440
862,67	65,733
862,83	44,603
863,00	55,180
863,17	69,161
863,33	51,584
863,50	31,809
863,67	44,353
863,83	52,010
864,00	66,947
864,17	22,833
864,33	49,842
864,50	56,464
864,67	54,007
864,83	46,658
865,00	41,966
865,17	46,383
865,33	63,391
865,50	39,270
865,67	50,682
865,83	50,397
866,00	66,283
866,17	60,258
866,33	53,704
866,50	75,664
866,66	67,331
866,83	53,082
867,00	74,199
867,16	55,741
867,33	79,654
867,50	17,668
867,66	69,001
867,83	74,567
868,00	65,971
868,16	40,949
868,33	42,306
868,49	48,864
868,66	78,289
868,83	47,408
868,99	53,994
869,16	78,466
869,32	64,932
869,49	53,083
869,66	25,507
869,82	75,644
869,99	78,549
870,15	40,484
870,32	71,401
870,49	66,744
870,65	91,106
870,82	51,847
870,98	59,957
871,15	73,380
871,32	56,803
871,48	1,857
871,65	47,147
871,81	57,367
871,98	42,795
872,15	44,820
872,31	33,667
872,48	90,969
872,64	76,496
872,81	32,961
872,97	36,694
873,14	61,259
873,31	55,786
873,47	65,096
873,64	37,921
873,80	69,154
873,97	69,685
874,13	22,983
874,30	44,653
874,46	82,309
874,63	41,875
874,80	51,498
874,96	51,157
875,13	102,509
875,29	63,956
875,46	66,185
875,62	47,792
875,79	72,346
875,95	52,335
876,12	29,064
876,28	25,843
876,45	82,577
876,61	40,360
876,78	56,138
876,94	48,076
877,11	86,417
877,27	91,167
877,44	58,294
877,60	40,924
877,77	93,649
877,94	76,157
878,10	33,871
878,27	86,629
878,43	80,400
878,60	54,510
878,76	84,348
878,93	60,792
879,09	52,797
879,26	89,061
879,42	48,183
879,58	58,601
879,75	103,605
879,91	104,433
880,08	-19,602
880,24	67,498
880,41	75,768
880,57	44,389
880,74	31,833
880,90	49,952
881,07	60,013
881,23	98,613
881,40	63,742
881,56	89,548
881,73	103,314
881,89	99,788
882,06	14,629
882,22	154,724
882,38	163,310
882,55	59,828
882,71	29,727
882,88	71,571
883,04	157,112
883,21	80,040
883,37	81,636
883,54	62,063
883,70	106,636
883,86	101,923
884,03	83,784
884,19	50,734
884,36	-27,816
884,52	70,566
884,69	72,298
884,85	42,467
885,01	242,620
885,18	133,535
885,34	104,707
885,51	-7,343
885,67	63,202
>>>>> Data<<<<< Espectral Procesado Extremo
