Fichero De Datos De SpectraSuite
++++++++++++++++++++++++++++++++++++
Fecha: Wed Apr 22 11:03:13 CEST 2009
Usuario: evoflor
Presente Oscuro Del Espectro: Sí
La Referencia de Presente Del Espectro De: Sí
Muestreados de los componentes de Número de espectros: 1
Espectrómetros: USB4F02353
Tiempo de integración (usec): 500000 (USB4F02353)
Promedio de Espectros Hechos un: 5 (USB4F02353)
El Alisar Del Furgón: 0 (USB4F02353)
Párrafo de de Corregir del la del del de Eléctrica del obscuridad: Sí (USB4F02353)
Estrobo/Lámpara Permitido: No (USB4F02353)
Correct for Detector Non-linearity: No (USB4F02353)
Párrafo de de Corregir del la del del de Externa del luz: No (USB4F02353)
Procesado del espectro de Número de pixeles en: 3648
>>>>> Comienza Data<<<<< Espectral Procesado Del EL
177,79	200,859
178,00	200,859
178,22	200,859
178,44	1720,165
178,66	-47,573
178,88	-50,049
179,09	-279,851
179,31	272,461
179,53	479,458
179,75	263,148
179,96	660,043
180,18	-38,969
180,40	240,971
180,62	372,586
180,83	15,145
181,05	-1284,939
181,27	-93665,000
181,49	83,989
181,70	280,635
181,92	297,284
182,14	309,232
182,36	189,168
182,58	-369,650
182,79	735,558
183,01	75,848
183,23	160,334
183,45	-207,892
183,66	-75,951
183,88	296,853
184,10	-1784,818
184,32	144,963
184,53	217,290
184,75	-30,707
184,97	35,910
185,18	-96,551
185,40	73,245
185,62	89,148
185,84	165,207
186,05	126,017
186,27	-147,676
186,49	2494,808
186,71	8,688
186,92	66,463
187,14	-76,607
187,36	123,182
187,58	79,963
187,79	-95,843
188,01	228,230
188,23	-289,105
188,45	114,204
188,66	249,397
188,88	-492,091
189,10	-756,650
189,31	-215,128
189,53	-44,224
189,75	176,057
189,97	90,250
190,18	-127,189
190,40	175,088
190,62	-142,985
190,83	-211,994
191,05	130,310
191,27	416,757
191,49	269,715
191,70	-156,082
191,92	106,229
192,14	-23,237
192,35	573,117
192,57	3319,000
192,79	19,411
193,01	220,352
193,22	93,076
193,44	-184,411
193,66	105,388
193,87	148,533
194,09	74,358
194,31	185,402
194,53	403,252
194,74	156,879
194,96	44,968
195,18	173,549
195,39	-242,388
195,61	-85,106
195,83	-213,402
196,04	146,248
196,26	-22,940
196,48	-9,059
196,70	282,833
196,91	37,481
197,13	184,722
197,35	145,809
197,56	451,594
197,78	806,455
198,00	837,517
198,21	201,286
198,43	-827,122
198,65	109,734
198,86	408,147
199,08	121,197
199,30	73,006
199,51	-343,208
199,73	204,230
199,95	307,587
200,16	387,942
200,38	303,256
200,60	63,003
200,81	156,242
201,03	41,753
201,25	-1584,650
201,46	88,746
201,68	65,377
201,90	1924,205
202,11	-584,218
202,33	61,517
202,55	473,312
202,76	33,907
202,98	40,993
203,20	138,149
203,41	-350,868
203,63	73,936
203,85	-101765,000
204,06	-58,318
204,28	-2,325
204,50	109,820
204,71	197,288
204,93	-921,080
205,15	328,208
205,36	-179,092
205,58	100,317
205,80	-175,608
206,01	29,087
206,23	112,958
206,45	237,359
206,66	140,910
206,88	-19,773
207,10	298,784
207,31	269,490
207,53	154,471
207,75	0,078
207,96	954,216
208,18	-113,763
208,39	74,386
208,61	3781,857
208,83	-267,316
209,04	50,246
209,26	-211,820
209,48	179,056
209,69	178,653
209,91	635,693
210,13	31,405
210,34	-58,680
210,56	107,070
210,77	-1538,307
210,99	123,401
211,21	4556,765
211,42	-78,927
211,64	-5,991
211,86	107,635
212,07	101,539
212,29	220,097
212,50	99,213
212,72	-75,904
212,94	126,151
213,15	161,317
213,37	65,194
213,58	-99,922
213,80	-1705,893
214,02	6356,765
214,23	143,002
214,45	339,557
214,67	-1976,402
214,88	14,883
215,10	-288,495
215,31	-58,810
215,53	39,011
215,75	40,809
215,96	1587,981
216,18	-708,944
216,39	181,592
216,61	255,600
216,83	201,183
217,04	1608,596
217,26	29,137
217,47	80,692
217,69	231,329
217,91	-62,796
218,12	-75665,000
218,34	64,065
218,55	143,408
218,77	64,621
218,99	161,488
219,20	-127,627
219,42	267,630
219,63	24,808
219,85	32,365
220,06	-86,288
220,28	88,280
220,50	135,480
220,71	82,182
220,93	2412,547
221,14	-945,650
221,36	115,172
221,58	-65,573
221,79	72,070
222,01	954,871
222,22	385,296
222,44	-1101,517
222,65	-22,284
222,87	-43,601
223,09	156,675
223,30	21,950
223,52	89,624
223,73	117,320
223,95	-29,063
224,16	169,000
224,38	317,927
224,60	51,139
224,81	154,675
225,03	61,525
225,24	209,612
225,46	-41,752
225,67	-6,948
225,89	41,315
226,10	268,569
226,32	-143,480
226,54	0,789
226,75	15,556
226,97	80,358
227,18	74,078
227,40	-14,444
227,61	26,023
227,83	57,304
228,04	95,656
228,26	35,995
228,47	65,431
228,69	135,024
228,91	167,195
229,12	-1,245
229,34	54,919
229,55	37,253
229,77	30,575
229,98	7,806
230,20	59,850
230,41	-5,913
230,63	13,730
230,84	-7,704
231,06	-2,783
231,27	24,669
231,49	50,960
231,71	-18,929
231,92	11,133
232,14	34,356
232,35	80,876
232,57	85,871
232,78	8,383
233,00	61,784
233,21	40,596
233,43	17,959
233,64	15,733
233,86	29,501
234,07	11,947
234,29	17,148
234,50	17,311
234,72	27,624
234,93	-13,130
235,15	18,857
235,36	25,513
235,58	22,720
235,79	34,707
236,01	21,069
236,22	13,912
236,44	43,410
236,65	4,275
236,87	4,178
237,08	3,439
237,30	-9,547
237,51	26,566
237,73	-0,537
237,94	6,553
238,16	15,863
238,37	9,933
238,59	8,479
238,80	8,046
239,02	5,610
239,23	13,514
239,45	-12,203
239,66	16,556
239,88	19,287
240,09	20,878
240,31	-6,610
240,52	-6,795
240,74	4,008
240,95	-1,039
241,17	5,685
241,38	8,687
241,60	13,955
241,81	19,535
242,03	15,022
242,24	10,152
242,46	25,658
242,67	2,439
242,89	10,573
243,10	14,883
243,32	17,491
243,53	11,501
243,75	7,427
243,96	8,253
244,18	3,790
244,39	11,818
244,60	12,751
244,82	5,743
245,03	17,543
245,25	8,586
245,46	16,296
245,68	4,303
245,89	15,744
246,11	2,288
246,32	9,813
246,54	4,843
246,75	10,222
246,97	2,811
247,18	16,037
247,39	4,932
247,61	6,527
247,82	0,059
248,04	7,115
248,25	2,315
248,47	7,032
248,68	11,620
248,90	3,213
249,11	11,039
249,33	13,390
249,54	6,254
249,75	9,752
249,97	3,722
250,18	9,297
250,40	13,729
250,61	-6,221
250,83	5,049
251,04	-0,284
251,25	13,036
251,47	3,475
251,68	6,281
251,90	10,004
252,11	3,072
252,33	3,086
252,54	6,040
252,76	4,750
252,97	5,099
253,18	3,745
253,40	2,296
253,61	3,567
253,83	11,048
254,04	9,398
254,25	5,974
254,47	2,874
254,68	5,785
254,90	3,776
255,11	5,260
255,33	4,844
255,54	4,274
255,75	2,464
255,97	4,565
256,18	3,834
256,40	8,655
256,61	5,196
256,82	-2,426
257,04	10,752
257,25	-0,560
257,47	8,316
257,68	5,134
257,89	8,601
258,11	9,146
258,32	1,048
258,54	7,167
258,75	12,009
258,96	6,588
259,18	9,868
259,39	0,733
259,61	7,853
259,82	5,299
260,03	5,631
260,25	3,038
260,46	5,951
260,68	6,759
260,89	4,883
261,10	7,777
261,32	6,374
261,53	3,477
261,75	4,877
261,96	1,833
262,17	11,227
262,39	9,888
262,60	0,450
262,81	0,086
263,03	7,610
263,24	5,167
263,46	-1,965
263,67	-0,227
263,88	3,845
264,10	7,019
264,31	0,542
264,52	3,069
264,74	7,869
264,95	6,718
265,17	4,705
265,38	4,655
265,59	7,557
265,81	7,232
266,02	2,711
266,23	-0,112
266,45	10,177
266,66	7,717
266,87	7,468
267,09	1,992
267,30	6,006
267,52	7,135
267,73	-0,300
267,94	7,661
268,16	5,413
268,37	6,010
268,58	6,348
268,80	4,370
269,01	5,512
269,22	5,928
269,44	6,185
269,65	3,221
269,86	3,881
270,08	7,914
270,29	0,230
270,50	5,335
270,72	7,564
270,93	2,498
271,14	2,559
271,36	2,094
271,57	1,662
271,78	5,925
272,00	6,989
272,21	2,802
272,42	6,430
272,64	7,779
272,85	-0,034
273,06	4,313
273,28	6,489
273,49	4,847
273,70	7,987
273,92	5,240
274,13	9,683
274,34	8,632
274,56	3,991
274,77	-1,528
274,98	6,494
275,20	7,454
275,41	9,012
275,62	4,208
275,84	5,090
276,05	8,984
276,26	4,587
276,47	0,003
276,69	6,989
276,90	4,850
277,11	1,707
277,33	2,639
277,54	6,825
277,75	5,774
277,97	4,840
278,18	6,385
278,39	5,484
278,61	4,542
278,82	7,435
279,03	5,811
279,24	6,359
279,46	4,258
279,67	6,794
279,88	6,631
280,10	3,736
280,31	1,362
280,52	7,967
280,73	3,002
280,95	5,197
281,16	4,640
281,37	6,261
281,59	7,210
281,80	5,390
282,01	5,662
282,22	4,644
282,44	-0,536
282,65	8,803
282,86	10,419
283,08	3,166
283,29	3,723
283,50	5,528
283,71	7,123
283,93	6,620
284,14	6,789
284,35	1,452
284,56	4,481
284,78	1,868
284,99	4,408
285,20	6,856
285,42	5,776
285,63	2,758
285,84	0,587
286,05	2,345
286,27	3,693
286,48	3,601
286,69	3,422
286,90	5,813
287,12	2,754
287,33	3,171
287,54	4,311
287,75	4,902
287,97	5,142
288,18	6,906
288,39	4,083
288,60	6,043
288,82	5,923
289,03	2,583
289,24	4,176
289,45	5,549
289,67	4,442
289,88	2,558
290,09	4,764
290,30	5,690
290,52	3,442
290,73	2,398
290,94	2,805
291,15	5,766
291,37	5,788
291,58	4,619
291,79	4,379
292,00	3,759
292,21	4,533
292,43	2,704
292,64	0,469
292,85	3,939
293,06	6,852
293,28	3,577
293,49	1,216
293,70	5,981
293,91	2,742
294,12	4,625
294,34	4,521
294,55	3,373
294,76	4,214
294,97	9,110
295,19	3,840
295,40	4,830
295,61	3,233
295,82	2,450
296,03	5,181
296,25	4,775
296,46	1,945
296,67	1,211
296,88	1,217
297,09	6,071
297,31	3,380
297,52	2,804
297,73	1,327
297,94	5,473
298,15	5,047
298,37	3,281
298,58	4,784
298,79	3,825
299,00	2,145
299,21	0,456
299,43	2,068
299,64	6,879
299,85	5,170
300,06	2,808
300,27	2,351
300,49	6,296
300,70	4,739
300,91	3,629
301,12	2,090
301,33	6,302
301,54	2,409
301,76	5,616
301,97	3,493
302,18	1,395
302,39	7,023
302,60	5,244
302,82	5,920
303,03	6,579
303,24	5,870
303,45	4,521
303,66	5,215
303,87	3,180
304,09	5,814
304,30	1,679
304,51	2,115
304,72	3,518
304,93	5,064
305,14	5,245
305,36	2,710
305,57	2,647
305,78	4,837
305,99	3,410
306,20	2,709
306,41	1,686
306,62	3,758
306,84	3,023
307,05	0,344
307,26	5,305
307,47	7,392
307,68	4,569
307,89	2,957
308,11	5,331
308,32	1,431
308,53	3,426
308,74	3,547
308,95	3,437
309,16	3,997
309,37	8,428
309,59	4,987
309,80	4,480
310,01	6,418
310,22	6,194
310,43	1,557
310,64	6,280
310,85	4,990
311,06	2,771
311,28	5,350
311,49	1,551
311,70	7,425
311,91	2,070
312,12	3,153
312,33	2,679
312,54	4,392
312,75	3,333
312,97	1,931
313,18	5,376
313,39	2,144
313,60	3,600
313,81	5,285
314,02	6,625
314,23	3,905
314,44	0,556
314,65	3,676
314,87	3,613
315,08	2,946
315,29	5,266
315,50	5,564
315,71	5,159
315,92	6,183
316,13	4,961
316,34	4,058
316,55	4,596
316,77	3,862
316,98	0,996
317,19	4,569
317,40	5,557
317,61	5,396
317,82	3,596
318,03	4,022
318,24	2,933
318,45	5,182
318,66	1,703
318,87	0,661
319,09	5,339
319,30	4,021
319,51	6,023
319,72	7,803
319,93	8,506
320,14	8,045
320,35	4,898
320,56	5,563
320,77	3,408
320,98	11,348
321,19	5,123
321,40	3,702
321,62	4,616
321,83	3,890
322,04	3,674
322,25	5,908
322,46	8,481
322,67	4,435
322,88	5,134
323,09	5,302
323,30	6,483
323,51	5,482
323,72	6,178
323,93	3,368
324,14	5,433
324,35	2,505
324,56	1,696
324,77	2,938
324,99	4,141
325,20	0,280
325,41	5,080
325,62	3,341
325,83	1,265
326,04	4,378
326,25	5,888
326,46	2,187
326,67	3,260
326,88	5,992
327,09	1,511
327,30	4,812
327,51	3,663
327,72	3,164
327,93	5,041
328,14	1,031
328,35	3,328
328,56	5,630
328,77	5,001
328,98	5,831
329,19	5,684
329,40	7,029
329,61	3,481
329,82	0,776
330,04	4,351
330,25	3,129
330,46	5,786
330,67	2,822
330,88	3,446
331,09	2,650
331,30	2,946
331,51	5,296
331,72	5,352
331,93	4,382
332,14	5,093
332,35	3,130
332,56	2,557
332,77	4,946
332,98	1,315
333,19	3,077
333,40	4,550
333,61	1,923
333,82	6,753
334,03	4,486
334,24	5,107
334,45	3,514
334,66	5,592
334,87	7,187
335,08	1,115
335,29	0,320
335,50	2,679
335,71	1,575
335,92	6,563
336,13	5,318
336,34	1,854
336,55	6,312
336,76	6,954
336,97	7,528
337,18	1,004
337,39	2,876
337,60	2,220
337,81	5,294
338,02	3,452
338,23	5,281
338,44	4,020
338,65	5,164
338,86	6,354
339,07	3,249
339,28	4,271
339,49	4,028
339,70	2,576
339,91	5,436
340,11	8,221
340,32	3,014
340,53	3,914
340,74	0,456
340,95	0,193
341,16	5,582
341,37	3,072
341,58	1,607
341,79	5,413
342,00	4,237
342,21	4,277
342,42	5,390
342,63	4,798
342,84	1,163
343,05	4,720
343,26	5,018
343,47	2,882
343,68	0,030
343,89	3,949
344,10	4,025
344,31	5,638
344,52	5,350
344,73	3,938
344,94	4,246
345,14	5,185
345,35	4,368
345,56	3,151
345,77	5,614
345,98	4,200
346,19	4,616
346,40	4,184
346,61	1,869
346,82	3,128
347,03	3,859
347,24	9,088
347,45	4,371
347,66	6,216
347,87	4,331
348,08	3,823
348,28	0,858
348,49	6,166
348,70	7,962
348,91	7,098
349,12	3,510
349,33	14,292
349,54	4,394
349,75	3,667
349,96	4,235
350,17	4,976
350,38	2,048
350,59	5,941
350,80	3,944
351,00	6,252
351,21	9,037
351,42	5,911
351,63	2,396
351,84	6,118
352,05	6,001
352,26	3,112
352,47	3,885
352,68	5,015
352,89	5,298
353,09	5,504
353,30	3,012
353,51	2,549
353,72	6,637
353,93	6,168
354,14	-0,121
354,35	4,419
354,56	8,027
354,77	5,820
354,98	1,318
355,18	6,026
355,39	9,523
355,60	3,264
355,81	4,285
356,02	5,147
356,23	1,769
356,44	4,140
356,65	3,232
356,85	9,622
357,06	5,273
357,27	7,708
357,48	3,630
357,69	5,072
357,90	5,676
358,11	2,179
358,32	3,761
358,52	5,109
358,73	3,754
358,94	5,957
359,15	4,846
359,36	4,784
359,57	5,737
359,78	2,893
359,98	2,614
360,19	3,406
360,40	4,144
360,61	5,751
360,82	3,889
361,03	6,565
361,24	5,504
361,44	2,664
361,65	4,907
361,86	3,134
362,07	5,720
362,28	3,605
362,49	3,957
362,70	4,149
362,90	4,941
363,11	1,663
363,32	2,159
363,53	4,137
363,74	7,722
363,95	6,715
364,15	4,098
364,36	7,542
364,57	6,121
364,78	4,252
364,99	3,196
365,20	5,958
365,40	7,414
365,61	2,981
365,82	5,373
366,03	4,781
366,24	5,670
366,45	3,019
366,65	3,943
366,86	0,611
367,07	4,096
367,28	5,230
367,49	5,555
367,69	7,360
367,90	4,371
368,11	3,726
368,32	4,093
368,53	3,937
368,73	7,156
368,94	4,623
369,15	2,960
369,36	6,769
369,57	4,181
369,78	3,874
369,98	3,076
370,19	9,847
370,40	4,385
370,61	6,217
370,82	2,008
371,02	4,943
371,23	9,067
371,44	1,991
371,65	4,373
371,85	3,179
372,06	3,565
372,27	4,128
372,48	3,564
372,69	3,193
372,89	2,707
373,10	4,969
373,31	1,621
373,52	6,585
373,73	6,723
373,93	5,256
374,14	3,228
374,35	9,038
374,56	7,486
374,76	4,475
374,97	1,286
375,18	6,476
375,39	3,004
375,60	5,415
375,80	5,568
376,01	2,128
376,22	4,181
376,43	3,279
376,63	1,523
376,84	3,503
377,05	4,251
377,26	6,015
377,46	1,672
377,67	3,851
377,88	5,791
378,09	6,107
378,29	-0,193
378,50	6,616
378,71	5,341
378,92	5,283
379,12	5,423
379,33	3,953
379,54	7,942
379,75	4,802
379,95	2,053
380,16	7,749
380,37	4,608
380,58	5,903
380,78	9,221
380,99	2,541
381,20	3,611
381,41	4,995
381,61	7,414
381,82	4,207
382,03	1,768
382,24	5,738
382,44	2,188
382,65	1,717
382,86	3,715
383,06	2,455
383,27	4,597
383,48	1,233
383,69	9,869
383,89	4,274
384,10	6,223
384,31	3,358
384,51	3,494
384,72	7,653
384,93	4,508
385,14	5,816
385,34	5,296
385,55	5,240
385,76	1,605
385,96	6,532
386,17	7,197
386,38	5,849
386,59	8,339
386,79	5,906
387,00	9,242
387,21	7,980
387,41	6,678
387,62	3,574
387,83	6,781
388,03	3,042
388,24	1,901
388,45	5,828
388,66	5,752
388,86	4,164
389,07	3,928
389,28	6,506
389,48	6,259
389,69	4,937
389,90	3,215
390,10	6,686
390,31	6,638
390,52	-0,761
390,72	0,883
390,93	6,996
391,14	2,923
391,34	6,377
391,55	4,992
391,76	5,906
391,96	1,321
392,17	2,880
392,38	5,907
392,58	5,995
392,79	5,250
393,00	4,442
393,20	1,812
393,41	3,358
393,62	7,143
393,82	5,811
394,03	4,876
394,24	4,318
394,44	7,365
394,65	4,572
394,86	2,677
395,06	5,735
395,27	1,316
395,48	2,734
395,68	6,076
395,89	5,487
396,10	5,462
396,30	0,952
396,51	4,912
396,72	10,174
396,92	3,208
397,13	5,067
397,34	1,968
397,54	7,234
397,75	5,667
397,95	4,924
398,16	4,041
398,37	2,008
398,57	7,043
398,78	6,701
398,99	7,380
399,19	5,083
399,40	1,850
399,60	2,870
399,81	3,742
400,02	3,102
400,22	7,343
400,43	4,584
400,64	5,562
400,84	3,183
401,05	5,899
401,25	7,974
401,46	2,919
401,67	5,617
401,87	2,857
402,08	-1,554
402,29	3,340
402,49	6,181
402,70	8,762
402,90	-0,030
403,11	2,696
403,32	5,480
403,52	5,458
403,73	6,990
403,93	7,963
404,14	6,764
404,35	4,790
404,55	0,937
404,76	1,579
404,96	2,565
405,17	4,196
405,38	7,716
405,58	3,250
405,79	6,381
405,99	4,828
406,20	4,074
406,40	-0,071
406,61	5,985
406,82	1,201
407,02	8,391
407,23	4,564
407,43	5,521
407,64	2,427
407,85	7,180
408,05	-1,789
408,26	10,899
408,46	5,737
408,67	0,205
408,87	3,673
409,08	4,687
409,29	6,058
409,49	6,893
409,70	5,011
409,90	3,590
410,11	5,726
410,31	8,039
410,52	3,526
410,72	3,922
410,93	7,141
411,14	2,153
411,34	1,544
411,55	8,679
411,75	8,999
411,96	6,891
412,16	3,626
412,37	3,719
412,57	7,741
412,78	5,318
412,99	5,342
413,19	6,427
413,40	5,794
413,60	2,701
413,81	4,050
414,01	6,869
414,22	0,258
414,42	2,265
414,63	0,305
414,83	6,323
415,04	7,136
415,24	5,955
415,45	3,652
415,65	4,221
415,86	5,700
416,07	1,970
416,27	4,608
416,48	5,871
416,68	6,159
416,89	4,438
417,09	1,857
417,30	6,599
417,50	4,220
417,71	6,755
417,91	9,783
418,12	1,378
418,32	2,538
418,53	5,171
418,73	6,173
418,94	7,623
419,14	4,622
419,35	0,365
419,55	2,111
419,76	3,689
419,96	1,820
420,17	3,143
420,37	4,682
420,58	8,901
420,78	5,168
420,99	5,246
421,19	4,266
421,40	4,815
421,60	5,147
421,81	4,467
422,01	4,213
422,22	4,304
422,42	2,128
422,63	4,988
422,83	1,955
423,04	9,244
423,24	7,426
423,45	-0,215
423,65	5,349
423,86	8,125
424,06	6,187
424,27	2,165
424,47	3,098
424,67	1,848
424,88	4,642
425,08	3,780
425,29	7,726
425,49	3,997
425,70	2,203
425,90	6,764
426,11	6,964
426,31	3,570
426,52	4,117
426,72	1,814
426,93	3,894
427,13	5,675
427,33	4,996
427,54	9,936
427,74	6,796
427,95	9,937
428,15	4,992
428,36	5,011
428,56	5,584
428,77	7,127
428,97	3,281
429,18	3,569
429,38	2,438
429,58	6,756
429,79	6,144
429,99	4,289
430,20	-0,377
430,40	8,642
430,61	-1,088
430,81	1,977
431,01	6,809
431,22	6,019
431,42	5,801
431,63	2,898
431,83	3,273
432,04	4,243
432,24	12,327
432,44	2,265
432,65	4,685
432,85	6,031
433,06	4,223
433,26	4,259
433,47	1,395
433,67	6,281
433,87	4,869
434,08	2,294
434,28	7,004
434,49	3,112
434,69	7,843
434,89	2,265
435,10	3,145
435,30	3,442
435,51	1,416
435,71	2,640
435,91	4,285
436,12	7,478
436,32	7,125
436,53	2,683
436,73	1,351
436,93	5,255
437,14	3,075
437,34	4,455
437,55	2,807
437,75	4,208
437,95	4,328
438,16	6,876
438,36	5,107
438,57	3,720
438,77	3,843
438,97	4,578
439,18	7,569
439,38	2,518
439,58	2,326
439,79	1,683
439,99	3,764
440,20	10,219
440,40	6,332
440,60	2,950
440,81	4,376
441,01	2,386
441,21	3,428
441,42	7,479
441,62	4,481
441,83	5,192
442,03	2,454
442,23	4,581
442,44	2,646
442,64	2,976
442,84	1,501
443,05	5,137
443,25	3,294
443,45	4,803
443,66	6,220
443,86	3,806
444,06	2,050
444,27	0,393
444,47	3,187
444,67	-2,871
444,88	4,422
445,08	6,506
445,28	3,369
445,49	2,171
445,69	2,271
445,90	5,672
446,10	7,284
446,30	6,849
446,51	4,307
446,71	7,929
446,91	7,393
447,12	9,546
447,32	1,733
447,52	3,053
447,72	6,341
447,93	5,321
448,13	-3,317
448,33	9,590
448,54	2,828
448,74	2,467
448,94	9,348
449,15	9,905
449,35	0,271
449,55	4,073
449,76	7,915
449,96	7,096
450,16	9,747
450,37	-0,037
450,57	7,787
450,77	0,162
450,98	8,074
451,18	6,093
451,38	4,346
451,58	3,015
451,79	6,239
451,99	8,295
452,19	4,808
452,40	2,974
452,60	3,394
452,80	6,204
453,00	4,344
453,21	8,634
453,41	8,804
453,61	3,466
453,82	5,978
454,02	0,326
454,22	5,874
454,42	8,499
454,63	-2,130
454,83	5,381
455,03	8,877
455,24	6,241
455,44	4,064
455,64	4,559
455,84	3,285
456,05	0,879
456,25	4,289
456,45	6,165
456,65	2,508
456,86	5,531
457,06	7,154
457,26	10,020
457,47	8,795
457,67	6,416
457,87	2,758
458,07	4,393
458,28	7,194
458,48	6,016
458,68	3,511
458,88	6,635
459,09	7,454
459,29	9,377
459,49	6,052
459,69	8,730
459,90	6,098
460,10	-0,538
460,30	5,164
460,50	2,741
460,71	9,154
460,91	3,301
461,11	5,305
461,31	2,645
461,52	7,757
461,72	2,797
461,92	5,323
462,12	15,379
462,32	-1,888
462,53	5,930
462,73	2,617
462,93	4,665
463,13	6,207
463,34	3,704
463,54	5,599
463,74	7,508
463,94	4,199
464,14	7,614
464,35	4,794
464,55	7,526
464,75	11,293
464,95	8,416
465,16	1,389
465,36	6,620
465,56	5,809
465,76	3,733
465,96	3,971
466,17	4,999
466,37	4,822
466,57	10,114
466,77	6,189
466,97	3,668
467,18	9,361
467,38	4,820
467,58	5,451
467,78	11,964
467,98	6,440
468,19	3,393
468,39	10,075
468,59	10,162
468,79	7,733
468,99	4,315
469,19	7,409
469,40	8,434
469,60	-0,075
469,80	2,124
470,00	11,339
470,20	10,434
470,41	6,882
470,61	8,570
470,81	9,762
471,01	4,805
471,21	7,502
471,41	4,174
471,62	2,214
471,82	4,289
472,02	5,270
472,22	8,450
472,42	6,827
472,62	10,774
472,83	6,867
473,03	11,103
473,23	9,000
473,43	11,084
473,63	7,226
473,83	11,457
474,03	5,628
474,24	13,914
474,44	6,569
474,64	9,698
474,84	6,841
475,04	10,638
475,24	11,018
475,45	7,746
475,65	6,826
475,85	11,788
476,05	7,446
476,25	7,326
476,45	10,193
476,65	12,082
476,85	14,319
477,06	10,718
477,26	7,586
477,46	11,990
477,66	9,403
477,86	12,383
478,06	10,400
478,26	13,766
478,46	7,272
478,67	11,055
478,87	10,261
479,07	10,584
479,27	10,122
479,47	13,207
479,67	6,115
479,87	12,102
480,07	15,610
480,28	9,264
480,48	13,547
480,68	14,994
480,88	15,633
481,08	11,423
481,28	13,948
481,48	14,332
481,68	12,246
481,88	10,078
482,08	13,097
482,29	15,093
482,49	12,464
482,69	12,855
482,89	14,373
483,09	17,242
483,29	14,847
483,49	12,783
483,69	17,387
483,89	15,223
484,09	12,789
484,29	11,134
484,50	14,717
484,70	14,406
484,90	14,897
485,10	14,197
485,30	17,195
485,50	17,114
485,70	15,557
485,90	14,374
486,10	10,070
486,30	14,325
486,50	13,744
486,70	14,882
486,90	16,443
487,10	17,995
487,30	15,932
487,51	17,775
487,71	16,451
487,91	16,514
488,11	18,854
488,31	14,284
488,51	19,673
488,71	15,641
488,91	18,304
489,11	15,049
489,31	17,998
489,51	21,088
489,71	18,234
489,91	17,663
490,11	15,608
490,31	20,798
490,51	21,354
490,71	19,046
490,91	19,086
491,11	22,378
491,31	23,352
491,51	17,153
491,72	18,465
491,92	20,464
492,12	24,209
492,32	23,269
492,52	23,502
492,72	21,877
492,92	22,168
493,12	25,667
493,32	22,137
493,52	20,577
493,72	22,022
493,92	22,199
494,12	23,752
494,32	25,357
494,52	21,556
494,72	21,761
494,92	24,180
495,12	25,704
495,32	26,289
495,52	23,959
495,72	26,574
495,92	27,600
496,12	29,847
496,32	24,241
496,52	24,546
496,72	25,092
496,92	26,732
497,12	22,591
497,32	26,649
497,52	28,435
497,72	29,169
497,92	29,552
498,12	26,486
498,32	26,247
498,52	28,794
498,72	26,582
498,92	25,544
499,12	29,820
499,32	26,376
499,52	27,118
499,72	30,971
499,92	29,697
500,12	28,657
500,32	31,851
500,52	28,752
500,72	35,108
500,91	30,725
501,11	29,437
501,31	28,142
501,51	32,801
501,71	33,699
501,91	33,336
502,11	30,323
502,31	31,387
502,51	33,581
502,71	32,800
502,91	32,837
503,11	31,491
503,31	32,633
503,51	32,525
503,71	30,640
503,91	34,339
504,11	34,604
504,31	36,290
504,51	35,547
504,71	34,634
504,91	35,028
505,10	34,950
505,30	33,320
505,50	34,383
505,70	33,601
505,90	35,527
506,10	33,562
506,30	34,717
506,50	37,628
506,70	37,589
506,90	33,115
507,10	36,544
507,30	37,031
507,50	37,371
507,70	38,356
507,89	37,904
508,09	35,523
508,29	34,981
508,49	37,459
508,69	37,312
508,89	36,652
509,09	37,238
509,29	38,101
509,49	39,268
509,69	42,637
509,89	37,430
510,09	36,327
510,28	36,961
510,48	38,323
510,68	36,032
510,88	35,300
511,08	37,138
511,28	38,230
511,48	37,057
511,68	38,212
511,88	37,763
512,07	40,215
512,27	41,297
512,47	40,300
512,67	38,140
512,87	38,381
513,07	40,825
513,27	38,531
513,47	39,029
513,67	38,727
513,86	42,610
514,06	39,377
514,26	38,403
514,46	42,668
514,66	39,861
514,86	42,871
515,06	41,841
515,26	41,749
515,45	40,921
515,65	37,996
515,85	41,648
516,05	42,894
516,25	40,764
516,45	41,734
516,65	37,759
516,84	44,084
517,04	44,529
517,24	41,880
517,44	43,475
517,64	45,038
517,84	42,415
518,04	44,016
518,23	42,578
518,43	44,907
518,63	40,459
518,83	40,711
519,03	43,168
519,23	42,660
519,42	41,918
519,62	40,982
519,82	43,137
520,02	40,951
520,22	41,086
520,42	43,209
520,61	46,039
520,81	45,896
521,01	45,024
521,21	40,262
521,41	41,051
521,61	43,715
521,80	42,420
522,00	43,577
522,20	43,628
522,40	47,136
522,60	43,652
522,79	40,963
522,99	45,776
523,19	43,040
523,39	47,750
523,59	43,112
523,78	45,999
523,98	44,355
524,18	47,004
524,38	42,732
524,58	46,103
524,77	46,415
524,97	41,863
525,17	45,655
525,37	45,482
525,57	47,173
525,76	44,155
525,96	45,406
526,16	41,447
526,36	44,077
526,56	44,563
526,75	43,272
526,95	47,236
527,15	43,268
527,35	46,392
527,55	46,328
527,74	44,754
527,94	43,106
528,14	43,601
528,34	45,647
528,53	43,656
528,73	44,539
528,93	46,443
529,13	47,170
529,32	44,940
529,52	47,430
529,72	43,347
529,92	43,878
530,12	44,354
530,31	43,880
530,51	46,752
530,71	48,306
530,91	45,633
531,10	40,226
531,30	43,622
531,50	43,529
531,70	47,062
531,89	45,444
532,09	45,362
532,29	44,275
532,49	45,548
532,68	43,295
532,88	43,805
533,08	43,557
533,28	46,237
533,47	46,031
533,67	48,393
533,87	44,976
534,06	49,427
534,26	47,960
534,46	43,329
534,66	45,667
534,85	45,616
535,05	43,550
535,25	44,578
535,45	46,632
535,64	47,296
535,84	45,974
536,04	43,207
536,23	44,455
536,43	44,886
536,63	45,956
536,83	43,278
537,02	41,880
537,22	45,920
537,42	43,352
537,61	42,857
537,81	44,254
538,01	42,785
538,20	42,725
538,40	42,899
538,60	41,959
538,80	40,953
538,99	39,447
539,19	41,613
539,39	40,091
539,58	40,377
539,78	37,869
539,98	40,104
540,17	37,551
540,37	39,420
540,57	35,752
540,76	34,791
540,96	35,487
541,16	35,971
541,36	34,038
541,55	30,790
541,75	31,126
541,95	32,171
542,14	31,849
542,34	32,016
542,54	30,680
542,73	32,533
542,93	33,400
543,13	32,414
543,32	30,537
543,52	32,468
543,72	30,334
543,91	31,270
544,11	31,083
544,31	32,289
544,50	30,997
544,70	33,551
544,89	33,537
545,09	34,206
545,29	32,650
545,48	33,790
545,68	32,424
545,88	33,721
546,07	33,767
546,27	33,803
546,47	35,013
546,66	37,025
546,86	38,061
547,06	36,194
547,25	39,029
547,45	39,842
547,64	38,480
547,84	41,524
548,04	41,533
548,23	42,671
548,43	40,141
548,63	42,325
548,82	42,495
549,02	41,225
549,21	42,896
549,41	43,675
549,61	42,944
549,80	43,463
550,00	43,826
550,20	41,357
550,39	44,722
550,59	42,008
550,78	45,377
550,98	42,628
551,18	44,416
551,37	45,755
551,57	44,364
551,76	43,143
551,96	44,973
552,16	43,099
552,35	45,776
552,55	46,767
552,74	43,195
552,94	46,687
553,14	45,159
553,33	44,363
553,53	45,472
553,72	45,744
553,92	47,977
554,12	44,324
554,31	46,792
554,51	46,201
554,70	46,346
554,90	45,813
555,09	48,701
555,29	46,594
555,49	47,838
555,68	48,683
555,88	47,174
556,07	47,174
556,27	48,539
556,46	46,779
556,66	45,904
556,86	50,387
557,05	45,594
557,25	46,484
557,44	47,934
557,64	46,916
557,83	47,020
558,03	45,383
558,22	46,588
558,42	47,592
558,62	48,835
558,81	46,239
559,01	47,477
559,20	47,581
559,40	47,646
559,59	45,483
559,79	46,269
559,98	47,842
560,18	47,936
560,37	49,839
560,57	50,181
560,76	45,876
560,96	48,492
561,16	47,571
561,35	46,199
561,55	51,564
561,74	47,190
561,94	48,346
562,13	47,722
562,33	49,422
562,52	48,616
562,72	45,020
562,91	44,843
563,11	48,285
563,30	49,796
563,50	45,146
563,69	45,916
563,89	47,320
564,08	47,541
564,28	45,428
564,47	45,564
564,67	46,466
564,86	45,319
565,06	46,819
565,25	46,490
565,45	47,956
565,64	51,183
565,84	49,926
566,03	46,893
566,23	50,701
566,42	48,632
566,62	47,539
566,81	47,495
567,01	48,143
567,20	48,400
567,40	47,051
567,59	46,682
567,79	49,697
567,98	49,307
568,18	47,929
568,37	49,415
568,57	47,671
568,76	48,809
568,96	46,730
569,15	47,325
569,35	48,508
569,54	49,198
569,73	50,464
569,93	46,598
570,12	47,940
570,32	49,617
570,51	47,982
570,71	47,240
570,90	48,654
571,10	47,419
571,29	46,247
571,49	47,052
571,68	46,763
571,87	48,636
572,07	48,580
572,26	46,526
572,46	48,129
572,65	49,717
572,85	45,760
573,04	48,242
573,24	46,754
573,43	48,633
573,62	48,245
573,82	46,406
574,01	46,328
574,21	48,171
574,40	46,368
574,60	46,353
574,79	49,075
574,98	47,487
575,18	48,524
575,37	45,204
575,57	47,558
575,76	46,891
575,96	46,232
576,15	46,965
576,34	47,374
576,54	48,356
576,73	46,563
576,93	46,970
577,12	47,173
577,31	47,579
577,51	45,702
577,70	46,291
577,90	47,222
578,09	46,386
578,28	46,362
578,48	46,422
578,67	47,819
578,87	45,923
579,06	45,261
579,25	45,077
579,45	45,758
579,64	46,061
579,84	46,530
580,03	43,544
580,22	46,038
580,42	45,315
580,61	47,219
580,81	45,630
581,00	46,497
581,19	45,774
581,39	45,706
581,58	45,538
581,77	45,867
581,97	48,007
582,16	43,788
582,35	44,938
582,55	45,352
582,74	47,319
582,94	47,239
583,13	44,350
583,32	45,473
583,52	46,735
583,71	46,984
583,90	46,774
584,10	45,932
584,29	46,945
584,48	44,355
584,68	46,991
584,87	47,072
585,06	46,183
585,26	46,173
585,45	44,119
585,65	47,046
585,84	44,014
586,03	45,426
586,23	45,439
586,42	44,239
586,61	47,424
586,81	45,216
587,00	46,308
587,19	44,693
587,39	45,294
587,58	46,832
587,77	45,951
587,97	45,687
588,16	46,753
588,35	45,332
588,54	44,971
588,74	43,852
588,93	47,532
589,12	45,886
589,32	46,104
589,51	47,032
589,70	45,607
589,90	45,279
590,09	46,665
590,28	49,505
590,48	44,549
590,67	45,815
590,86	46,092
591,06	46,590
591,25	47,695
591,44	46,352
591,63	43,925
591,83	47,396
592,02	45,589
592,21	46,345
592,41	44,372
592,60	47,011
592,79	47,424
592,98	47,297
593,18	45,501
593,37	47,466
593,56	46,656
593,76	47,403
593,95	46,008
594,14	46,703
594,33	49,440
594,53	48,259
594,72	46,171
594,91	50,082
595,10	48,339
595,30	47,649
595,49	46,956
595,68	50,488
595,88	48,364
596,07	49,052
596,26	47,967
596,45	48,085
596,65	42,859
596,84	47,550
597,03	48,433
597,22	49,038
597,42	50,130
597,61	48,007
597,80	47,139
597,99	46,165
598,19	48,701
598,38	47,171
598,57	46,598
598,76	48,675
598,95	47,877
599,15	47,353
599,34	47,855
599,53	47,693
599,72	48,919
599,92	48,796
600,11	47,363
600,30	48,879
600,49	47,685
600,69	46,506
600,88	49,053
601,07	48,830
601,26	47,179
601,45	47,542
601,65	48,039
601,84	48,983
602,03	48,639
602,22	49,740
602,42	49,732
602,61	47,960
602,80	48,227
602,99	49,019
603,18	47,895
603,38	48,993
603,57	48,136
603,76	47,263
603,95	48,204
604,14	49,026
604,34	48,827
604,53	48,518
604,72	47,244
604,91	47,427
605,10	46,471
605,29	47,267
605,49	45,080
605,68	47,826
605,87	48,404
606,06	47,815
606,25	46,525
606,45	49,107
606,64	48,213
606,83	46,949
607,02	47,176
607,21	48,012
607,40	46,739
607,60	44,546
607,79	45,204
607,98	43,451
608,17	43,990
608,36	44,217
608,55	43,442
608,75	42,967
608,94	42,674
609,13	38,940
609,32	39,139
609,51	39,960
609,70	39,272
609,89	40,327
610,09	39,244
610,28	40,100
610,47	38,633
610,66	37,737
610,85	37,348
611,04	38,533
611,23	38,121
611,43	38,232
611,62	37,619
611,81	37,356
612,00	38,536
612,19	37,047
612,38	39,637
612,57	40,743
612,77	39,482
612,96	39,854
613,15	39,426
613,34	42,402
613,53	41,735
613,72	43,692
613,91	42,569
614,10	43,510
614,29	43,081
614,49	42,219
614,68	43,191
614,87	44,338
615,06	46,235
615,25	43,416
615,44	47,295
615,63	43,748
615,82	44,433
616,01	43,822
616,21	46,496
616,40	46,241
616,59	47,796
616,78	46,194
616,97	46,708
617,16	46,819
617,35	46,494
617,54	46,325
617,73	47,135
617,92	44,998
618,11	47,791
618,31	44,895
618,50	47,595
618,69	47,238
618,88	47,871
619,07	46,180
619,26	44,462
619,45	46,015
619,64	45,997
619,83	46,207
620,02	45,627
620,21	48,232
620,40	46,733
620,59	44,937
620,78	45,073
620,97	45,437
621,17	48,320
621,36	46,872
621,55	46,072
621,74	45,976
621,93	46,858
622,12	45,945
622,31	45,931
622,50	45,811
622,69	47,822
622,88	45,803
623,07	48,423
623,26	48,560
623,45	48,398
623,64	44,953
623,83	46,177
624,02	48,675
624,21	47,260
624,40	48,175
624,59	45,293
624,78	45,952
624,97	49,639
625,16	45,597
625,35	44,455
625,54	45,258
625,73	46,528
625,92	46,159
626,12	47,778
626,31	48,187
626,50	48,310
626,69	48,793
626,88	45,753
627,07	47,596
627,26	47,944
627,45	46,737
627,64	46,973
627,83	46,154
628,02	46,256
628,21	44,598
628,40	46,601
628,59	47,759
628,78	45,569
628,97	46,189
629,16	44,168
629,35	45,269
629,54	48,697
629,73	46,020
629,92	44,532
630,10	47,419
630,29	48,180
630,48	45,905
630,67	45,069
630,86	47,530
631,05	48,481
631,24	47,988
631,43	45,305
631,62	46,519
631,81	46,969
632,00	46,240
632,19	46,925
632,38	48,491
632,57	49,563
632,76	47,050
632,95	47,880
633,14	47,709
633,33	48,723
633,52	47,549
633,71	48,746
633,90	47,675
634,09	47,055
634,28	48,333
634,47	46,929
634,66	49,125
634,85	47,280
635,04	49,200
635,22	47,001
635,41	48,044
635,60	49,606
635,79	47,623
635,98	47,307
636,17	46,651
636,36	48,184
636,55	46,314
636,74	46,386
636,93	47,678
637,12	48,593
637,31	47,975
637,50	46,168
637,69	49,179
637,87	49,797
638,06	47,125
638,25	47,784
638,44	47,686
638,63	46,875
638,82	48,105
639,01	48,621
639,20	47,586
639,39	47,968
639,58	48,239
639,77	50,105
639,95	48,704
640,14	47,782
640,33	46,650
640,52	49,159
640,71	49,055
640,90	47,463
641,09	49,497
641,28	48,026
641,47	47,128
641,66	48,732
641,84	47,910
642,03	47,067
642,22	48,971
642,41	51,229
642,60	47,632
642,79	47,985
642,98	48,494
643,17	47,491
643,35	46,984
643,54	48,501
643,73	48,214
643,92	48,277
644,11	47,905
644,30	48,788
644,49	49,504
644,67	48,654
644,86	47,404
645,05	52,376
645,24	47,016
645,43	47,521
645,62	49,460
645,81	49,699
645,99	48,922
646,18	49,264
646,37	49,331
646,56	48,222
646,75	50,236
646,94	49,056
647,13	46,367
647,31	45,954
647,50	47,971
647,69	50,672
647,88	49,216
648,07	47,060
648,26	50,639
648,44	47,385
648,63	48,300
648,82	48,244
649,01	48,540
649,20	47,097
649,38	48,122
649,57	48,572
649,76	48,012
649,95	49,267
650,14	48,384
650,33	47,060
650,51	48,110
650,70	49,320
650,89	47,959
651,08	47,514
651,27	48,546
651,45	47,111
651,64	46,808
651,83	49,386
652,02	46,865
652,21	48,432
652,39	48,701
652,58	50,158
652,77	47,871
652,96	49,564
653,15	47,720
653,33	48,097
653,52	48,480
653,71	48,916
653,90	48,705
654,09	48,561
654,27	48,381
654,46	49,129
654,65	48,394
654,84	48,809
655,02	49,560
655,21	48,215
655,40	50,416
655,59	48,103
655,77	49,088
655,96	48,716
656,15	48,405
656,34	49,258
656,53	48,274
656,71	48,535
656,90	48,648
657,09	48,095
657,28	48,417
657,46	47,516
657,65	49,832
657,84	48,106
658,03	49,269
658,21	49,205
658,40	48,645
658,59	49,432
658,78	49,681
658,96	47,533
659,15	48,668
659,34	50,854
659,52	49,854
659,71	48,696
659,90	47,952
660,09	49,952
660,27	48,001
660,46	48,611
660,65	48,382
660,84	48,255
661,02	48,492
661,21	46,903
661,40	48,245
661,58	48,076
661,77	47,686
661,96	46,479
662,15	46,833
662,33	47,511
662,52	47,421
662,71	48,436
662,89	46,539
663,08	46,414
663,27	47,708
663,45	48,243
663,64	49,500
663,83	46,690
664,02	48,732
664,20	48,753
664,39	46,851
664,58	48,043
664,76	48,883
664,95	49,221
665,14	47,975
665,32	46,655
665,51	47,673
665,70	47,743
665,88	49,301
666,07	49,268
666,26	50,057
666,44	48,355
666,63	47,503
666,82	46,942
667,00	48,421
667,19	46,572
667,38	48,375
667,56	48,470
667,75	49,222
667,94	48,345
668,12	48,924
668,31	48,560
668,50	47,212
668,68	47,491
668,87	48,096
669,06	49,640
669,24	48,364
669,43	49,289
669,62	46,634
669,80	46,382
669,99	48,752
670,18	47,021
670,36	47,217
670,55	48,419
670,74	49,361
670,92	47,769
671,11	48,559
671,29	47,556
671,48	47,515
671,67	47,572
671,85	49,045
672,04	47,217
672,23	47,216
672,41	47,035
672,60	47,816
672,78	47,774
672,97	47,933
673,16	46,832
673,34	47,799
673,53	47,508
673,71	48,067
673,90	49,684
674,09	49,114
674,27	46,491
674,46	49,122
674,64	47,420
674,83	47,275
675,02	46,654
675,20	47,121
675,39	47,718
675,57	47,128
675,76	45,665
675,95	48,244
676,13	46,717
676,32	49,073
676,50	47,544
676,69	46,864
676,88	46,632
677,06	47,728
677,25	47,921
677,43	48,471
677,62	47,525
677,80	47,804
677,99	47,315
678,18	48,747
678,36	48,969
678,55	47,410
678,73	45,221
678,92	48,332
679,10	48,177
679,29	48,033
679,48	45,891
679,66	46,230
679,85	46,880
680,03	47,381
680,22	47,135
680,40	48,012
680,59	47,754
680,77	46,643
680,96	46,660
681,15	48,646
681,33	49,547
681,52	47,533
681,70	48,157
681,89	49,880
682,07	48,296
682,26	46,158
682,44	48,501
682,63	48,240
682,81	47,600
683,00	49,513
683,18	46,576
683,37	48,251
683,55	46,450
683,74	47,695
683,92	50,516
684,11	48,456
684,29	48,521
684,48	45,784
684,67	47,732
684,85	48,142
685,04	45,275
685,22	49,443
685,41	47,687
685,59	47,777
685,78	47,110
685,96	47,359
686,15	48,360
686,33	45,969
686,52	46,841
686,70	47,320
686,89	47,331
687,07	48,466
687,26	48,181
687,44	47,832
687,62	46,424
687,81	48,365
687,99	48,048
688,18	48,037
688,36	45,948
688,55	48,121
688,73	47,767
688,92	45,867
689,10	49,424
689,29	46,943
689,47	49,570
689,66	47,265
689,84	47,640
690,03	50,136
690,21	46,950
690,40	48,617
690,58	45,857
690,76	46,880
690,95	49,413
691,13	45,809
691,32	48,172
691,50	47,789
691,69	47,391
691,87	47,085
692,06	46,980
692,24	46,308
692,43	48,493
692,61	45,482
692,79	47,405
692,98	45,178
693,16	48,502
693,35	46,622
693,53	48,013
693,72	48,383
693,90	49,195
694,08	47,398
694,27	47,639
694,45	47,593
694,64	50,838
694,82	46,400
695,01	46,065
695,19	45,472
695,37	48,293
695,56	48,296
695,74	48,477
695,93	47,996
696,11	46,943
696,29	47,263
696,48	47,292
696,66	49,120
696,85	48,534
697,03	45,993
697,21	49,342
697,40	46,523
697,58	47,197
697,77	45,462
697,95	48,150
698,13	50,029
698,32	44,972
698,50	46,038
698,69	47,702
698,87	47,883
699,05	46,396
699,24	46,213
699,42	47,529
699,60	45,739
699,79	44,225
699,97	46,191
700,16	45,292
700,34	49,001
700,52	47,457
700,71	46,949
700,89	46,697
701,07	46,801
701,26	48,624
701,44	46,438
701,63	46,238
701,81	48,214
701,99	46,437
702,18	45,374
702,36	45,466
702,54	44,917
702,73	46,609
702,91	46,217
703,09	45,834
703,28	46,616
703,46	46,882
703,64	46,055
703,83	47,488
704,01	46,644
704,19	45,192
704,38	46,093
704,56	45,960
704,74	46,833
704,93	46,240
705,11	46,005
705,29	46,009
705,48	47,845
705,66	46,231
705,84	46,523
706,03	44,951
706,21	47,836
706,39	45,831
706,58	47,170
706,76	45,186
706,94	47,598
707,12	45,582
707,31	47,300
707,49	46,521
707,67	45,769
707,86	45,619
708,04	46,301
708,22	44,563
708,41	44,742
708,59	45,912
708,77	45,177
708,95	48,124
709,14	49,042
709,32	47,793
709,50	44,760
709,69	45,051
709,87	46,692
710,05	45,651
710,23	46,037
710,42	45,298
710,60	46,610
710,78	47,519
710,97	45,486
711,15	46,563
711,33	47,426
711,51	47,301
711,70	44,965
711,88	44,972
712,06	47,065
712,24	46,282
712,43	45,177
712,61	45,875
712,79	47,787
712,97	45,429
713,16	45,780
713,34	44,808
713,52	46,125
713,70	46,870
713,89	44,776
714,07	46,348
714,25	47,167
714,43	47,153
714,62	44,885
714,80	46,015
714,98	42,988
715,16	47,120
715,35	45,467
715,53	45,442
715,71	46,258
715,89	49,015
716,07	46,760
716,26	47,929
716,44	48,202
716,62	47,600
716,80	46,152
716,99	46,254
717,17	46,585
717,35	47,115
717,53	45,689
717,71	45,039
717,90	47,960
718,08	47,229
718,26	43,807
718,44	44,406
718,62	45,993
718,81	46,953
718,99	45,222
719,17	44,928
719,35	46,672
719,53	44,805
719,72	44,626
719,90	46,807
720,08	45,533
720,26	47,624
720,44	45,358
720,62	46,710
720,81	47,751
720,99	50,050
721,17	45,909
721,35	46,288
721,53	48,736
721,72	46,236
721,90	45,326
722,08	47,999
722,26	46,895
722,44	45,574
722,62	46,083
722,81	45,808
722,99	46,009
723,17	44,703
723,35	44,709
723,53	48,844
723,71	47,284
723,89	47,703
724,08	45,699
724,26	47,594
724,44	45,179
724,62	44,958
724,80	47,803
724,98	45,771
725,16	48,157
725,35	44,817
725,53	46,221
725,71	44,800
725,89	47,770
726,07	48,137
726,25	47,589
726,43	44,634
726,61	47,022
726,80	44,888
726,98	45,584
727,16	45,685
727,34	47,698
727,52	46,993
727,70	42,947
727,88	46,476
728,06	42,892
728,25	44,455
728,43	45,629
728,61	45,787
728,79	46,093
728,97	45,983
729,15	46,957
729,33	46,536
729,51	45,915
729,69	45,726
729,87	45,266
730,06	45,322
730,24	45,904
730,42	47,733
730,60	45,257
730,78	47,610
730,96	44,033
731,14	45,624
731,32	46,500
731,50	45,452
731,68	45,509
731,86	46,627
732,04	46,549
732,22	45,313
732,41	48,639
732,59	45,029
732,77	47,302
732,95	49,985
733,13	47,095
733,31	47,122
733,49	44,617
733,67	46,774
733,85	47,402
734,03	45,607
734,21	44,840
734,39	45,609
734,57	47,210
734,75	47,326
734,93	46,138
735,11	43,694
735,29	43,911
735,47	48,442
735,65	45,068
735,84	43,192
736,02	45,736
736,20	48,668
736,38	47,322
736,56	44,522
736,74	43,937
736,92	45,827
737,10	46,462
737,28	45,318
737,46	47,736
737,64	45,184
737,82	46,413
738,00	47,918
738,18	47,471
738,36	45,530
738,54	44,591
738,72	45,428
738,90	45,558
739,08	46,593
739,26	43,262
739,44	45,134
739,62	46,126
739,80	45,281
739,98	46,341
740,16	45,571
740,34	45,378
740,52	49,934
740,70	47,397
740,88	44,770
741,06	44,701
741,24	47,911
741,42	47,193
741,60	46,152
741,78	47,719
741,96	46,977
742,14	43,337
742,32	44,083
742,50	46,538
742,68	46,934
742,86	44,551
743,04	43,815
743,21	45,898
743,39	48,621
743,57	47,791
743,75	46,642
743,93	43,419
744,11	44,381
744,29	45,740
744,47	45,427
744,65	45,788
744,83	46,169
745,01	44,320
745,19	47,327
745,37	47,138
745,55	47,334
745,73	45,128
745,91	44,272
746,09	46,728
746,27	45,837
746,45	45,233
746,62	44,616
746,80	46,600
746,98	45,996
747,16	44,822
747,34	45,179
747,52	45,213
747,70	45,709
747,88	45,780
748,06	46,602
748,24	45,871
748,42	46,338
748,60	45,805
748,78	44,909
748,95	48,682
749,13	48,657
749,31	45,731
749,49	47,670
749,67	48,175
749,85	49,849
750,03	45,445
750,21	45,490
750,39	44,078
750,57	46,306
750,74	46,153
750,92	44,090
751,10	46,064
751,28	43,524
751,46	44,306
751,64	47,085
751,82	45,975
752,00	46,047
752,17	47,134
752,35	43,279
752,53	46,014
752,71	44,598
752,89	46,136
753,07	45,454
753,25	48,399
753,43	46,431
753,60	45,152
753,78	45,784
753,96	46,572
754,14	45,317
754,32	43,778
754,50	47,538
754,68	46,839
754,85	45,546
755,03	48,059
755,21	46,141
755,39	47,878
755,57	46,823
755,75	45,387
755,92	45,541
756,10	45,237
756,28	46,942
756,46	45,089
756,64	46,226
756,82	46,757
756,99	47,136
757,17	48,189
757,35	44,054
757,53	45,491
757,71	49,853
757,89	45,650
758,06	44,815
758,24	47,172
758,42	45,687
758,60	46,130
758,78	45,812
758,95	45,158
759,13	46,918
759,31	44,768
759,49	45,653
759,67	45,316
759,84	44,526
760,02	46,370
760,20	44,806
760,38	44,331
760,56	45,972
760,73	46,514
760,91	46,804
761,09	45,669
761,27	45,878
761,45	45,889
761,62	43,986
761,80	45,324
761,98	46,045
762,16	44,410
762,33	44,841
762,51	48,390
762,69	45,138
762,87	45,922
763,05	46,105
763,22	42,645
763,40	45,259
763,58	45,854
763,76	46,342
763,93	46,748
764,11	46,610
764,29	45,308
764,47	46,608
764,64	45,746
764,82	47,295
765,00	43,007
765,18	45,104
765,35	44,338
765,53	48,309
765,71	45,926
765,89	45,416
766,06	44,828
766,24	46,920
766,42	45,574
766,60	43,450
766,77	45,525
766,95	44,138
767,13	46,208
767,30	43,948
767,48	45,177
767,66	43,374
767,84	44,769
768,01	46,235
768,19	46,533
768,37	47,958
768,54	45,395
768,72	46,076
768,90	43,875
769,08	46,323
769,25	45,941
769,43	44,615
769,61	41,835
769,78	45,920
769,96	45,227
770,14	45,953
770,31	44,668
770,49	48,117
770,67	46,577
770,85	45,207
771,02	46,917
771,20	45,716
771,38	48,141
771,55	45,994
771,73	44,204
771,91	47,114
772,08	46,811
772,26	44,397
772,44	45,098
772,61	44,242
772,79	45,409
772,97	46,082
773,14	43,738
773,32	45,624
773,50	45,344
773,67	43,694
773,85	49,383
774,03	48,030
774,20	46,947
774,38	45,450
774,56	45,472
774,73	43,142
774,91	45,579
775,09	45,462
775,26	44,899
775,44	47,268
775,61	46,307
775,79	45,610
775,97	47,833
776,14	44,565
776,32	44,984
776,50	47,721
776,67	46,090
776,85	44,726
777,03	45,540
777,20	46,277
777,38	46,958
777,55	47,869
777,73	44,321
777,91	45,947
778,08	45,258
778,26	45,994
778,43	46,267
778,61	43,485
778,79	44,172
778,96	43,802
779,14	45,209
779,32	45,213
779,49	46,035
779,67	47,442
779,84	44,237
780,02	47,215
780,20	43,035
780,37	49,146
780,55	40,832
780,72	49,634
780,90	47,971
781,07	47,677
781,25	44,915
781,43	46,084
781,60	45,527
781,78	44,778
781,95	46,156
782,13	45,955
782,30	48,098
782,48	47,958
782,66	44,542
782,83	43,010
783,01	48,809
783,18	45,268
783,36	47,503
783,53	46,498
783,71	46,058
783,89	44,370
784,06	47,571
784,24	46,245
784,41	47,648
784,59	47,452
784,76	46,950
784,94	47,879
785,11	46,539
785,29	48,406
785,46	44,222
785,64	47,849
785,82	45,709
785,99	45,621
786,17	46,918
786,34	47,184
786,52	46,620
786,69	49,417
786,87	46,952
787,04	45,484
787,22	44,571
787,39	47,294
787,57	47,275
787,74	47,443
787,92	45,641
788,09	46,230
788,27	45,413
788,44	47,194
788,62	46,458
788,79	45,002
788,97	48,303
789,14	46,690
789,32	44,684
789,49	45,776
789,67	47,535
789,84	46,027
790,02	48,469
790,19	46,318
790,37	49,448
790,54	45,797
790,72	49,613
790,89	48,970
791,07	47,976
791,24	43,968
791,42	46,883
791,59	44,205
791,77	47,616
791,94	44,861
792,12	44,755
792,29	48,958
792,47	48,016
792,64	49,768
792,81	47,725
792,99	47,716
793,16	45,339
793,34	46,397
793,51	47,585
793,69	48,879
793,86	42,552
794,04	47,251
794,21	46,100
794,39	44,958
794,56	47,318
794,73	45,120
794,91	48,603
795,08	49,177
795,26	47,019
795,43	44,600
795,61	51,364
795,78	50,572
795,95	47,738
796,13	47,893
796,30	49,003
796,48	44,411
796,65	47,734
796,83	47,892
797,00	50,743
797,17	44,065
797,35	47,765
797,52	48,532
797,70	52,026
797,87	47,848
798,04	43,429
798,22	46,509
798,39	44,950
798,57	46,441
798,74	48,884
798,91	44,360
799,09	43,364
799,26	48,886
799,44	45,556
799,61	44,575
799,78	46,459
799,96	47,515
800,13	49,775
800,31	47,427
800,48	50,402
800,65	49,250
800,83	46,226
801,00	47,054
801,17	48,382
801,35	49,761
801,52	46,991
801,70	50,470
801,87	47,292
802,04	49,225
802,22	45,346
802,39	46,500
802,56	48,454
802,74	46,339
802,91	44,120
803,08	47,735
803,26	46,129
803,43	49,031
803,61	50,194
803,78	43,093
803,95	48,996
804,13	49,016
804,30	47,623
804,47	45,134
804,65	48,246
804,82	44,053
804,99	49,109
805,17	49,752
805,34	51,165
805,51	50,294
805,69	46,130
805,86	43,754
806,03	48,501
806,21	47,257
806,38	48,761
806,55	48,369
806,72	52,864
806,90	49,086
807,07	48,929
807,24	46,440
807,42	47,772
807,59	44,665
807,76	46,221
807,94	46,488
808,11	49,565
808,28	48,901
808,45	48,927
808,63	45,574
808,80	50,445
808,97	45,151
809,15	43,571
809,32	56,163
809,49	44,359
809,67	47,658
809,84	49,862
810,01	46,940
810,18	50,058
810,36	51,190
810,53	51,444
810,70	47,781
810,87	49,156
811,05	48,123
811,22	49,858
811,39	46,820
811,57	52,075
811,74	48,608
811,91	47,930
812,08	49,368
812,26	50,480
812,43	51,335
812,60	47,773
812,77	47,311
812,95	49,581
813,12	51,932
813,29	47,127
813,46	51,309
813,64	52,261
813,81	45,810
813,98	51,262
814,15	53,044
814,32	50,062
814,50	51,784
814,67	45,587
814,84	50,217
815,01	49,246
815,19	49,725
815,36	44,758
815,53	46,496
815,70	48,147
815,87	48,322
816,05	49,227
816,22	52,155
816,39	54,762
816,56	54,801
816,74	50,357
816,91	50,326
817,08	56,571
817,25	52,510
817,42	52,332
817,60	52,511
817,77	50,429
817,94	51,180
818,11	51,116
818,28	53,446
818,45	49,308
818,63	51,316
818,80	46,159
818,97	47,839
819,14	52,952
819,31	51,397
819,49	51,180
819,66	45,440
819,83	49,304
820,00	53,212
820,17	51,261
820,34	50,111
820,52	54,360
820,69	51,916
820,86	44,554
821,03	49,520
821,20	49,960
821,37	56,075
821,55	45,918
821,72	46,463
821,89	54,496
822,06	53,744
822,23	49,097
822,40	49,126
822,57	50,279
822,75	54,953
822,92	50,076
823,09	52,461
823,26	51,587
823,43	54,678
823,60	48,133
823,77	48,955
823,94	57,078
824,12	47,607
824,29	52,089
824,46	44,299
824,63	57,231
824,80	54,730
824,97	51,858
825,14	52,119
825,31	51,231
825,49	50,293
825,66	48,462
825,83	47,637
826,00	51,069
826,17	55,645
826,34	50,748
826,51	51,658
826,68	47,453
826,85	57,446
827,02	54,055
827,20	48,858
827,37	53,902
827,54	55,392
827,71	49,629
827,88	53,830
828,05	56,154
828,22	45,586
828,39	59,558
828,56	52,630
828,73	54,444
828,90	52,881
829,07	55,212
829,25	50,386
829,42	55,772
829,59	48,964
829,76	48,864
829,93	48,178
830,10	51,093
830,27	49,326
830,44	48,671
830,61	49,790
830,78	45,284
830,95	49,332
831,12	47,828
831,29	51,044
831,46	54,385
831,63	50,328
831,80	48,536
831,97	51,894
832,14	53,789
832,31	57,912
832,48	49,399
832,65	51,943
832,83	47,606
833,00	56,196
833,17	49,095
833,34	55,452
833,51	52,228
833,68	58,195
833,85	58,194
834,02	47,745
834,19	53,772
834,36	63,825
834,53	47,300
834,70	57,410
834,87	56,814
835,04	49,427
835,21	58,342
835,38	48,935
835,55	55,195
835,72	65,496
835,89	48,628
836,06	47,408
836,23	58,141
836,40	48,230
836,57	51,159
836,74	54,508
836,91	54,134
837,08	61,131
837,25	53,278
837,42	44,193
837,59	57,133
837,76	54,716
837,93	48,676
838,09	44,531
838,26	61,090
838,43	56,522
838,60	56,673
838,77	48,489
838,94	57,527
839,11	49,695
839,28	51,903
839,45	52,346
839,62	52,472
839,79	51,861
839,96	51,625
840,13	53,046
840,30	45,872
840,47	42,808
840,64	51,802
840,81	62,710
840,98	55,156
841,15	63,795
841,32	47,137
841,48	53,276
841,65	53,132
841,82	49,736
841,99	60,056
842,16	48,831
842,33	60,999
842,50	51,199
842,67	49,625
842,84	58,024
843,01	53,907
843,18	51,608
843,35	54,908
843,52	46,400
843,68	54,482
843,85	51,985
844,02	51,306
844,19	49,894
844,36	61,105
844,53	57,897
844,70	53,902
844,87	65,599
845,04	67,692
845,21	46,140
845,37	67,193
845,54	47,471
845,71	49,966
845,88	70,300
846,05	47,641
846,22	47,580
846,39	61,055
846,56	55,172
846,72	50,422
846,89	61,580
847,06	65,612
847,23	63,533
847,40	46,158
847,57	41,929
847,74	53,809
847,90	71,008
848,07	55,472
848,24	58,507
848,41	48,047
848,58	65,633
848,75	51,305
848,92	58,677
849,08	55,477
849,25	55,324
849,42	48,617
849,59	54,080
849,76	47,713
849,93	57,114
850,09	63,167
850,26	43,435
850,43	60,952
850,60	55,412
850,77	50,248
850,94	58,292
851,10	59,697
851,27	56,597
851,44	60,175
851,61	57,903
851,78	56,133
851,95	65,332
852,11	49,286
852,28	59,994
852,45	62,567
852,62	50,706
852,79	58,339
852,95	57,059
853,12	64,514
853,29	52,355
853,46	50,427
853,63	60,472
853,79	50,824
853,96	40,794
854,13	70,479
854,30	45,672
854,46	66,761
854,63	54,945
854,80	56,315
854,97	45,164
855,14	61,218
855,30	68,766
855,47	60,916
855,64	63,858
855,81	51,742
855,97	70,534
856,14	56,099
856,31	43,166
856,48	70,718
856,65	79,209
856,81	56,939
856,98	45,795
857,15	60,994
857,32	65,187
857,48	53,281
857,65	52,253
857,82	71,391
857,99	65,833
858,15	63,365
858,32	56,212
858,49	57,057
858,65	69,644
858,82	63,187
858,99	60,709
859,16	77,695
859,32	73,194
859,49	57,931
859,66	56,565
859,83	45,596
859,99	52,425
860,16	65,983
860,33	42,272
860,49	67,615
860,66	61,573
860,83	67,234
861,00	58,198
861,16	75,085
861,33	67,437
861,50	57,087
861,66	62,337
861,83	66,430
862,00	56,821
862,16	54,114
862,33	58,562
862,50	89,163
862,67	53,543
862,83	49,613
863,00	67,858
863,17	76,538
863,33	65,372
863,50	40,122
863,67	61,681
863,83	67,338
864,00	77,628
864,17	50,180
864,33	57,436
864,50	82,650
864,67	54,425
864,83	55,780
865,00	44,138
865,17	72,569
865,33	83,568
865,50	35,734
865,67	49,413
865,83	57,399
866,00	96,393
866,17	54,799
866,33	59,150
866,50	88,879
866,66	69,569
866,83	62,827
867,00	56,186
867,16	86,258
867,33	80,985
867,50	49,344
867,66	60,323
867,83	76,826
868,00	68,241
868,16	47,077
868,33	42,069
868,49	68,490
868,66	65,993
868,83	61,668
868,99	63,414
869,16	93,277
869,32	79,376
869,49	62,721
869,66	62,337
869,82	94,809
869,99	78,300
870,15	51,233
870,32	81,051
870,49	100,905
870,65	108,102
870,82	63,847
870,98	80,092
871,15	104,933
871,32	60,203
871,48	20,436
871,65	45,614
871,81	67,594
871,98	46,067
872,15	58,977
872,31	53,960
872,48	90,267
872,64	94,535
872,81	56,908
872,97	63,194
873,14	91,080
873,31	84,740
873,47	74,338
873,64	68,312
873,80	69,371
873,97	126,929
874,13	44,060
874,30	70,254
874,46	137,113
874,63	62,589
874,80	52,522
874,96	20,640
875,13	86,440
875,29	58,942
875,46	91,103
875,62	80,591
875,79	73,098
875,95	57,590
876,12	78,409
876,28	58,214
876,45	108,688
876,61	60,192
876,78	63,385
876,94	65,222
877,11	27,176
877,27	65,867
877,44	56,974
877,60	88,396
877,77	67,807
877,94	89,303
878,10	58,290
878,27	79,934
878,43	112,165
878,60	43,843
878,76	57,790
878,93	65,300
879,09	109,378
879,26	101,179
879,42	101,661
879,58	93,010
879,75	102,732
879,91	141,401
880,08	9,135
880,24	69,805
880,41	106,768
880,57	79,745
880,74	69,523
880,90	45,474
881,07	72,350
881,23	130,339
881,40	69,465
881,56	94,204
881,73	89,055
881,89	72,126
882,06	100,774
882,22	124,974
882,38	125,320
882,55	133,437
882,71	131,813
882,88	80,358
883,04	204,343
883,21	150,173
883,37	96,443
883,54	67,045
883,70	127,350
883,86	129,707
884,03	56,054
884,19	58,223
884,36	33,172
884,52	221,332
884,69	143,488
884,85	55,436
885,01	192,781
885,18	134,204
885,34	135,436
885,51	25,869
885,67	52,584
>>>>> Data<<<<< Espectral Procesado Extremo
