Fichero De Datos De SpectraSuite
++++++++++++++++++++++++++++++++++++
Fecha: Wed Apr 22 11:04:16 CEST 2009
Usuario: evoflor
Presente Oscuro Del Espectro: Sí
La Referencia de Presente Del Espectro De: Sí
Muestreados de los componentes de Número de espectros: 1
Espectrómetros: USB4F02353
Tiempo de integración (usec): 500000 (USB4F02353)
Promedio de Espectros Hechos un: 5 (USB4F02353)
El Alisar Del Furgón: 0 (USB4F02353)
Párrafo de de Corregir del la del del de Eléctrica del obscuridad: Sí (USB4F02353)
Estrobo/Lámpara Permitido: No (USB4F02353)
Correct for Detector Non-linearity: No (USB4F02353)
Párrafo de de Corregir del la del del de Externa del luz: No (USB4F02353)
Procesado del espectro de Número de pixeles en: 3648
>>>>> Comienza Data<<<<< Espectral Procesado Del EL
177,79	198,194
178,00	198,194
178,22	198,194
178,44	1055,659
178,66	-90,093
178,88	31,482
179,09	-112,064
179,31	185,104
179,53	354,598
179,75	52,214
179,96	506,336
180,18	-272,108
180,40	657,118
180,62	225,027
180,83	-277,955
181,05	-990,671
181,27	-62335,000
181,49	46,446
181,70	49,365
181,92	403,223
182,14	260,949
182,36	252,514
182,58	141,650
182,79	647,924
183,01	-4,849
183,23	168,598
183,45	-97,646
183,66	-1,040
183,88	435,500
184,10	-2638,818
184,32	16,176
184,53	194,126
184,75	-98,631
184,97	80,520
185,18	-125,630
185,40	-507,380
185,62	133,403
185,84	4,443
186,05	97,671
186,27	-80,191
186,49	2432,115
186,71	-64,014
186,92	160,260
187,14	25,598
187,36	71,699
187,58	94,583
187,79	-94,734
188,01	131,121
188,23	-49,247
188,45	79,204
188,66	354,621
188,88	-3506,091
189,10	-1613,350
189,31	-46,476
189,53	62,838
189,75	160,080
189,97	367,827
190,18	-64,657
190,40	567,853
190,62	3,942
190,83	-352,403
191,05	223,585
191,27	286,100
191,49	388,205
191,70	-446,803
191,92	-246,059
192,14	-37,775
192,35	418,395
192,57	4018,143
192,79	35,193
193,01	124,889
193,22	159,680
193,44	-158,592
193,66	75,885
193,87	173,951
194,09	10,517
194,31	133,414
194,53	530,315
194,74	74,411
194,96	91,221
195,18	105,440
195,39	-83,734
195,61	-103,427
195,83	-23,989
196,04	149,957
196,26	-399,171
196,48	40,106
196,70	134,662
196,91	51,387
197,13	114,519
197,35	-67,901
197,56	390,820
197,78	1177,127
198,00	215,629
198,21	119,102
198,43	-744,390
198,65	148,196
198,86	224,227
199,08	92,246
199,30	117,075
199,51	-425,847
199,73	150,549
199,95	258,998
200,16	447,442
200,38	184,414
200,60	38,852
200,81	401,360
201,03	76,454
201,25	-1082,350
201,46	203,059
201,68	73,172
201,90	3196,250
202,11	-327,233
202,33	136,149
202,55	520,437
202,76	-53,816
202,98	283,049
203,20	176,274
203,41	-342,289
203,63	100,362
203,85	-201835,000
204,06	46,485
204,28	66,663
204,50	-24,356
204,71	211,899
204,93	124,280
205,15	49,503
205,36	-155,325
205,58	157,649
205,80	-58,381
206,01	78,128
206,23	113,910
206,45	245,288
206,66	146,240
206,88	-136,529
207,10	268,489
207,31	293,556
207,53	121,529
207,75	92,865
207,96	1022,649
208,18	-143,234
208,39	45,682
208,61	4223,857
208,83	-289,617
209,04	289,582
209,26	-241,636
209,48	356,531
209,69	157,153
209,91	183,226
210,13	46,875
210,34	231,562
210,56	156,488
210,77	-1603,425
210,99	104,801
211,21	2290,294
211,42	-87,058
211,64	61,709
211,86	156,522
212,07	177,218
212,29	214,462
212,50	101,461
212,72	118,596
212,94	87,684
213,15	150,978
213,37	115,388
213,58	-46,419
213,80	-1390,536
214,02	10231,471
214,23	325,611
214,45	257,492
214,67	-408,963
214,88	-233,339
215,10	-255,519
215,31	-156,692
215,53	-71,057
215,75	83,365
215,96	1125,062
216,18	-224,859
216,39	61,662
216,61	356,190
216,83	-219,933
217,04	1094,775
217,26	86,024
217,47	22,508
217,69	226,513
217,91	-123,544
218,12	-17335,000
218,34	161,279
218,55	98,501
218,77	70,411
218,99	103,041
219,20	-77,320
219,42	255,541
219,63	89,691
219,85	-61,491
220,06	7,827
220,28	213,134
220,50	25,329
220,71	87,834
220,93	2772,358
221,14	-1415,350
221,36	76,989
221,58	24,118
221,79	72,482
222,01	397,716
222,22	877,862
222,44	-361,404
222,65	115,913
222,87	-117,937
223,09	108,933
223,30	36,955
223,52	148,620
223,73	162,734
223,95	-16,148
224,16	245,433
224,38	258,614
224,60	122,656
224,81	-7,807
225,03	64,686
225,24	124,209
225,46	21,321
225,67	-37,609
225,89	60,386
226,10	369,383
226,32	736,280
226,54	-86,643
226,75	63,228
226,97	89,402
227,18	50,903
227,40	42,281
227,61	49,899
227,83	71,873
228,04	96,544
228,26	36,832
228,47	21,566
228,69	145,024
228,91	103,014
229,12	42,134
229,34	38,812
229,55	41,592
229,77	9,264
229,98	16,155
230,20	74,335
230,41	12,068
230,63	46,480
230,84	-36,016
231,06	19,391
231,27	-8,731
231,49	41,198
231,71	26,769
231,92	13,508
232,14	16,487
232,35	87,660
232,57	30,552
232,78	41,584
233,00	30,793
233,21	38,677
233,43	-6,080
233,64	11,041
233,86	30,078
234,07	29,619
234,29	22,947
234,50	0,996
234,72	22,539
234,93	14,020
235,15	25,958
235,36	5,177
235,58	7,685
235,79	23,854
236,01	17,944
236,22	2,119
236,44	51,579
236,65	26,769
236,87	30,401
237,08	12,611
237,30	-18,010
237,51	9,582
237,73	-4,063
237,94	7,246
238,16	21,367
238,37	9,827
238,59	6,622
238,80	14,959
239,02	5,629
239,23	13,294
239,45	-8,272
239,66	13,903
239,88	25,552
240,09	23,729
240,31	1,949
240,52	2,611
240,74	2,839
240,95	3,584
241,17	9,855
241,38	6,776
241,60	6,762
241,81	20,340
242,03	10,035
242,24	7,188
242,46	16,526
242,67	1,433
242,89	5,304
243,10	14,969
243,32	15,430
243,53	2,549
243,75	6,265
243,96	5,666
244,18	9,408
244,39	9,044
244,60	4,010
244,82	3,160
245,03	16,582
245,25	5,210
245,46	11,175
245,68	6,226
245,89	15,051
246,11	8,682
246,32	10,091
246,54	7,465
246,75	9,367
246,97	7,150
247,18	20,283
247,39	4,439
247,61	4,183
247,82	4,982
248,04	7,408
248,25	7,681
248,47	12,458
248,68	7,924
248,90	1,858
249,11	11,366
249,33	12,572
249,54	10,004
249,75	8,781
249,97	2,510
250,18	11,577
250,40	11,351
250,61	-3,355
250,83	1,275
251,04	3,704
251,25	8,684
251,47	0,265
251,68	8,559
251,90	5,574
252,11	9,311
252,33	8,828
252,54	8,997
252,76	7,247
252,97	2,774
253,18	6,087
253,40	1,769
253,61	-0,700
253,83	9,572
254,04	9,949
254,25	5,439
254,47	3,429
254,68	9,235
254,90	4,628
255,11	11,123
255,33	4,578
255,54	4,236
255,75	5,784
255,97	6,744
256,18	-0,737
256,40	8,618
256,61	4,861
256,82	0,929
257,04	9,255
257,25	2,267
257,47	5,731
257,68	5,226
257,89	10,780
258,11	9,560
258,32	2,352
258,54	8,390
258,75	11,090
258,96	12,357
259,18	6,997
259,39	5,295
259,61	6,024
259,82	3,472
260,03	3,142
260,25	5,838
260,46	2,152
260,68	6,850
260,89	5,611
261,10	4,302
261,32	4,970
261,53	2,547
261,75	6,803
261,96	0,094
262,17	9,098
262,39	6,313
262,60	4,445
262,81	2,212
263,03	15,224
263,24	4,065
263,46	2,184
263,67	2,191
263,88	8,103
264,10	5,281
264,31	1,338
264,52	7,505
264,74	10,434
264,95	2,476
265,17	5,977
265,38	6,333
265,59	9,328
265,81	9,489
266,02	2,121
266,23	4,843
266,45	5,328
266,66	9,295
266,87	7,105
267,09	2,795
267,30	7,840
267,52	10,728
267,73	4,471
267,94	2,538
268,16	9,413
268,37	3,966
268,58	5,168
268,80	2,789
269,01	4,104
269,22	7,764
269,44	7,283
269,65	5,604
269,86	-0,294
270,08	6,950
270,29	2,054
270,50	4,036
270,72	5,708
270,93	5,303
271,14	0,521
271,36	4,522
271,57	5,289
271,78	8,120
272,00	9,300
272,21	5,789
272,42	8,325
272,64	8,183
272,85	-0,100
273,06	3,261
273,28	5,663
273,49	4,172
273,70	6,275
273,92	5,704
274,13	5,894
274,34	4,105
274,56	7,406
274,77	3,605
274,98	4,085
275,20	6,534
275,41	6,027
275,62	3,798
275,84	6,080
276,05	9,232
276,26	4,488
276,47	-1,264
276,69	4,583
276,90	8,135
277,11	6,235
277,33	6,114
277,54	4,569
277,75	1,589
277,97	6,184
278,18	4,372
278,39	9,110
278,61	5,736
278,82	9,010
279,03	5,716
279,24	5,354
279,46	6,791
279,67	9,031
279,88	6,402
280,10	6,187
280,31	2,211
280,52	3,580
280,73	0,602
280,95	5,270
281,16	8,713
281,37	8,342
281,59	5,212
281,80	6,891
282,01	5,367
282,22	3,622
282,44	1,749
282,65	10,138
282,86	7,743
283,08	7,553
283,29	7,698
283,50	6,420
283,71	5,509
283,93	8,487
284,14	6,214
284,35	3,696
284,56	6,447
284,78	4,412
284,99	6,979
285,20	4,865
285,42	6,967
285,63	5,489
285,84	0,593
286,05	4,328
286,27	6,274
286,48	3,756
286,69	2,931
286,90	5,063
287,12	3,305
287,33	4,111
287,54	5,300
287,75	5,114
287,97	4,340
288,18	2,763
288,39	2,092
288,60	5,791
288,82	4,941
289,03	2,366
289,24	6,859
289,45	6,542
289,67	4,447
289,88	3,984
290,09	6,527
290,30	7,970
290,52	4,070
290,73	4,583
290,94	1,601
291,15	5,124
291,37	6,950
291,58	5,371
291,79	4,090
292,00	7,175
292,21	6,660
292,43	3,709
292,64	2,893
292,85	3,515
293,06	5,667
293,28	3,004
293,49	3,702
293,70	6,863
293,91	4,969
294,12	5,275
294,34	4,213
294,55	6,217
294,76	4,508
294,97	6,681
295,19	3,496
295,40	5,726
295,61	5,552
295,82	3,512
296,03	5,415
296,25	3,988
296,46	3,483
296,67	3,534
296,88	0,639
297,09	7,156
297,31	5,214
297,52	3,516
297,73	4,253
297,94	6,950
298,15	7,139
298,37	3,510
298,58	6,166
298,79	6,617
299,00	4,191
299,21	1,923
299,43	3,459
299,64	6,495
299,85	7,452
300,06	2,789
300,27	2,816
300,49	6,935
300,70	2,078
300,91	4,908
301,12	1,722
301,33	7,626
301,54	2,985
301,76	3,326
301,97	2,243
302,18	2,619
302,39	7,261
302,60	4,626
302,82	5,606
303,03	6,800
303,24	4,296
303,45	3,372
303,66	4,571
303,87	5,632
304,09	9,358
304,30	4,915
304,51	2,287
304,72	3,760
304,93	6,575
305,14	4,463
305,36	1,812
305,57	3,889
305,78	5,403
305,99	2,897
306,20	3,665
306,41	1,300
306,62	3,514
306,84	3,847
307,05	1,573
307,26	3,060
307,47	9,606
307,68	3,918
307,89	3,963
308,11	6,575
308,32	1,214
308,53	4,858
308,74	2,616
308,95	4,416
309,16	5,157
309,37	6,705
309,59	3,479
309,80	4,880
310,01	7,773
310,22	4,289
310,43	2,315
310,64	5,855
310,85	4,605
311,06	3,914
311,28	2,305
311,49	1,919
311,70	7,695
311,91	2,242
312,12	5,597
312,33	7,894
312,54	5,256
312,75	3,820
312,97	2,900
313,18	7,632
313,39	3,293
313,60	5,859
313,81	3,496
314,02	5,064
314,23	6,123
314,44	3,645
314,65	4,647
314,87	4,144
315,08	3,806
315,29	6,425
315,50	5,890
315,71	4,756
315,92	6,188
316,13	5,777
316,34	5,559
316,55	4,210
316,77	0,990
316,98	4,182
317,19	6,266
317,40	5,905
317,61	8,060
317,82	3,745
318,03	2,882
318,24	4,666
318,45	3,759
318,66	6,568
318,87	2,938
319,09	6,068
319,30	5,067
319,51	4,725
319,72	7,312
319,93	8,635
320,14	5,498
320,35	3,801
320,56	4,103
320,77	1,034
320,98	8,910
321,19	4,176
321,40	4,768
321,62	6,280
321,83	3,128
322,04	4,424
322,25	3,309
322,46	8,513
322,67	6,398
322,88	2,664
323,09	4,470
323,30	4,153
323,51	5,407
323,72	6,384
323,93	3,832
324,14	3,550
324,35	2,791
324,56	2,813
324,77	2,649
324,99	3,852
325,20	0,083
325,41	5,393
325,62	4,676
325,83	1,948
326,04	3,098
326,25	5,223
326,46	0,782
326,67	4,015
326,88	4,545
327,09	4,581
327,30	4,385
327,51	6,597
327,72	5,804
327,93	5,703
328,14	1,653
328,35	5,474
328,56	7,410
328,77	3,485
328,98	4,290
329,19	4,073
329,40	7,676
329,61	5,452
329,82	0,394
330,04	5,199
330,25	3,108
330,46	4,478
330,67	4,354
330,88	2,825
331,09	3,687
331,30	5,869
331,51	2,601
331,72	4,516
331,93	6,445
332,14	1,627
332,35	5,907
332,56	3,547
332,77	10,289
332,98	1,951
333,19	4,895
333,40	4,978
333,61	0,559
333,82	5,727
334,03	5,291
334,24	4,876
334,45	4,377
334,66	6,684
334,87	3,162
335,08	1,173
335,29	3,930
335,50	3,943
335,71	2,393
335,92	5,827
336,13	6,449
336,34	5,027
336,55	5,707
336,76	6,640
336,97	3,366
337,18	4,120
337,39	4,657
337,60	6,001
337,81	3,398
338,02	5,128
338,23	3,526
338,44	3,972
338,65	4,748
338,86	6,065
339,07	3,281
339,28	5,507
339,49	6,885
339,70	3,617
339,91	1,352
340,11	6,319
340,32	2,287
340,53	3,812
340,74	1,183
340,95	4,652
341,16	6,665
341,37	3,756
341,58	3,024
341,79	2,342
342,00	5,898
342,21	4,256
342,42	2,864
342,63	3,168
342,84	0,489
343,05	5,403
343,26	4,409
343,47	4,722
343,68	-0,669
343,89	2,420
344,10	4,834
344,31	5,944
344,52	4,436
344,73	1,449
344,94	6,055
345,14	5,273
345,35	6,166
345,56	6,002
345,77	4,216
345,98	2,449
346,19	4,479
346,40	1,354
346,61	3,072
346,82	2,824
347,03	3,104
347,24	6,429
347,45	3,172
347,66	7,475
347,87	3,843
348,08	4,763
348,28	3,458
348,49	4,559
348,70	7,083
348,91	4,643
349,12	3,117
349,33	16,743
349,54	3,265
349,75	6,621
349,96	4,404
350,17	4,696
350,38	0,855
350,59	6,323
350,80	5,739
351,00	7,669
351,21	4,286
351,42	5,178
351,63	1,050
351,84	3,066
352,05	6,320
352,26	3,566
352,47	2,869
352,68	6,786
352,89	8,445
353,09	8,509
353,30	1,663
353,51	4,981
353,72	6,165
353,93	5,969
354,14	1,210
354,35	2,893
354,56	3,714
354,77	5,278
354,98	-0,082
355,18	2,711
355,39	5,647
355,60	3,905
355,81	5,728
356,02	5,513
356,23	3,049
356,44	5,795
356,65	5,869
356,85	10,213
357,06	6,411
357,27	8,455
357,48	3,996
357,69	5,873
357,90	6,197
358,11	0,443
358,32	3,140
358,52	4,264
358,73	4,823
358,94	1,594
359,15	8,341
359,36	5,465
359,57	3,254
359,78	4,573
359,98	4,781
360,19	2,809
360,40	5,971
360,61	6,705
360,82	4,231
361,03	8,226
361,24	4,651
361,44	5,120
361,65	3,247
361,86	2,556
362,07	4,527
362,28	1,973
362,49	3,781
362,70	2,763
362,90	5,685
363,11	3,835
363,32	0,100
363,53	4,729
363,74	9,657
363,95	6,631
364,15	5,518
364,36	5,443
364,57	3,151
364,78	3,604
364,99	4,373
365,20	3,771
365,40	5,878
365,61	1,020
365,82	4,281
366,03	6,019
366,24	4,027
366,45	3,634
366,65	4,596
366,86	5,613
367,07	5,878
367,28	3,240
367,49	4,135
367,69	9,219
367,90	2,361
368,11	4,018
368,32	4,508
368,53	5,452
368,73	5,989
368,94	4,628
369,15	0,770
369,36	6,475
369,57	2,066
369,78	4,785
369,98	4,469
370,19	7,714
370,40	1,694
370,61	3,675
370,82	4,081
371,02	5,571
371,23	8,406
371,44	6,921
371,65	2,256
371,85	5,342
372,06	2,915
372,27	3,056
372,48	5,183
372,69	3,199
372,89	-0,252
373,10	3,524
373,31	2,921
373,52	6,651
373,73	9,051
373,93	5,475
374,14	4,518
374,35	3,976
374,56	4,967
374,76	3,821
374,97	3,232
375,18	5,540
375,39	5,670
375,60	6,829
375,80	6,414
376,01	2,996
376,22	3,691
376,43	6,770
376,63	5,513
376,84	1,946
377,05	7,391
377,26	2,567
377,46	2,969
377,67	2,927
377,88	7,178
378,09	4,763
378,29	2,675
378,50	6,354
378,71	4,558
378,92	2,030
379,12	4,767
379,33	2,221
379,54	8,010
379,75	5,090
379,95	4,668
380,16	8,183
380,37	8,092
380,58	4,005
380,78	5,365
380,99	2,039
381,20	4,905
381,41	5,668
381,61	7,606
381,82	1,132
382,03	6,645
382,24	3,565
382,44	1,877
382,65	4,878
382,86	4,086
383,06	4,715
383,27	6,704
383,48	3,182
383,69	4,170
383,89	6,265
384,10	5,795
384,31	3,726
384,51	6,267
384,72	6,320
384,93	5,566
385,14	4,718
385,34	5,848
385,55	1,252
385,76	1,578
385,96	7,569
386,17	4,926
386,38	8,264
386,59	6,358
386,79	4,174
387,00	5,036
387,21	8,787
387,41	6,284
387,62	4,606
387,83	9,875
388,03	5,434
388,24	5,205
388,45	8,202
388,66	7,507
388,86	7,626
389,07	6,202
389,28	9,985
389,48	9,326
389,69	7,950
389,90	8,170
390,10	9,366
390,31	8,027
390,52	2,432
390,72	8,231
390,93	6,340
391,14	5,395
391,34	6,927
391,55	11,288
391,76	9,294
391,96	9,177
392,17	4,644
392,38	8,488
392,58	10,415
392,79	9,442
393,00	5,082
393,20	4,435
393,41	8,562
393,62	6,461
393,82	11,327
394,03	6,685
394,24	8,803
394,44	10,310
394,65	11,449
394,86	7,904
395,06	11,776
395,27	8,292
395,48	8,340
395,68	8,653
395,89	9,479
396,10	9,434
396,30	10,712
396,51	6,801
396,72	15,139
396,92	7,297
397,13	11,048
397,34	8,936
397,54	13,228
397,75	8,441
397,95	8,809
398,16	11,770
398,37	10,287
398,57	12,615
398,78	13,056
398,99	16,307
399,19	15,676
399,40	15,528
399,60	10,579
399,81	14,418
400,02	13,689
400,22	14,007
400,43	15,348
400,64	13,991
400,84	13,706
401,05	14,941
401,25	16,020
401,46	16,591
401,67	19,312
401,87	17,500
402,08	13,126
402,29	13,497
402,49	19,760
402,70	18,431
402,90	16,144
403,11	17,896
403,32	18,480
403,52	17,407
403,73	18,730
403,93	20,344
404,14	21,232
404,35	19,422
404,55	15,378
404,76	17,110
404,96	20,711
405,17	19,144
405,38	22,681
405,58	17,573
405,79	19,146
405,99	22,027
406,20	19,305
406,40	21,980
406,61	19,961
406,82	22,342
407,02	24,713
407,23	22,571
407,43	20,643
407,64	22,912
407,85	21,883
408,05	22,560
408,26	25,562
408,46	26,444
408,67	23,281
408,87	23,104
409,08	23,680
409,29	28,911
409,49	25,019
409,70	24,849
409,90	25,646
410,11	25,997
410,31	28,053
410,52	29,797
410,72	26,571
410,93	27,872
411,14	24,755
411,34	25,396
411,55	31,824
411,75	33,914
411,96	28,561
412,16	27,327
412,37	26,167
412,57	32,625
412,78	29,401
412,99	27,396
413,19	33,728
413,40	28,716
413,60	27,025
413,81	30,366
414,01	31,595
414,22	29,744
414,42	30,156
414,63	29,720
414,83	34,877
415,04	33,084
415,24	34,281
415,45	28,405
415,65	33,393
415,86	34,581
416,07	35,418
416,27	37,067
416,48	35,715
416,68	38,236
416,89	27,687
417,09	34,531
417,30	37,995
417,50	35,398
417,71	37,858
417,91	36,971
418,12	38,413
418,32	34,817
418,53	35,644
418,73	35,535
418,94	35,033
419,14	39,289
419,35	35,036
419,55	37,144
419,76	36,664
419,96	34,168
420,17	39,452
420,37	36,097
420,58	38,291
420,78	40,899
420,99	38,666
421,19	39,062
421,40	36,950
421,60	44,184
421,81	35,458
422,01	41,173
422,22	39,509
422,42	39,816
422,63	40,841
422,83	41,433
423,04	41,390
423,24	42,421
423,45	40,337
423,65	42,163
423,86	45,342
424,06	44,630
424,27	37,707
424,47	43,114
424,67	39,861
424,88	42,055
425,08	40,745
425,29	45,837
425,49	42,677
425,70	38,607
425,90	41,523
426,11	38,934
426,31	41,813
426,52	41,728
426,72	41,733
426,93	41,138
427,13	45,255
427,33	44,215
427,54	41,669
427,74	48,339
427,95	44,490
428,15	40,031
428,36	39,741
428,56	42,558
428,77	43,218
428,97	43,032
429,18	45,732
429,38	40,629
429,58	47,011
429,79	46,718
429,99	44,048
430,20	38,581
430,40	44,131
430,61	45,251
430,81	43,066
431,01	44,734
431,22	46,900
431,42	45,580
431,63	40,167
431,83	44,304
432,04	45,311
432,24	46,851
432,44	42,818
432,65	42,536
432,85	42,824
433,06	46,928
433,26	42,863
433,47	44,051
433,67	43,442
433,87	45,275
434,08	39,126
434,28	43,933
434,49	41,334
434,69	47,375
434,89	40,959
435,10	45,693
435,30	43,553
435,51	42,252
435,71	45,105
435,91	42,706
436,12	47,748
436,32	44,925
436,53	47,198
436,73	41,175
436,93	45,908
437,14	43,898
437,34	44,607
437,55	44,641
437,75	47,136
437,95	47,122
438,16	43,209
438,36	46,584
438,57	44,180
438,77	43,377
438,97	45,581
439,18	48,834
439,38	44,538
439,58	43,337
439,79	47,472
439,99	43,482
440,20	45,599
440,40	48,465
440,60	50,473
440,81	47,935
441,01	43,890
441,21	48,317
441,42	44,901
441,62	51,085
441,83	44,047
442,03	49,189
442,23	47,019
442,44	43,330
442,64	47,148
442,84	42,136
443,05	46,045
443,25	45,640
443,45	46,984
443,66	47,025
443,86	48,653
444,06	46,081
444,27	44,408
444,47	48,030
444,67	44,473
444,88	47,505
445,08	46,688
445,28	46,294
445,49	43,301
445,69	42,070
445,90	50,515
446,10	47,008
446,30	46,815
446,51	48,464
446,71	52,420
446,91	51,923
447,12	50,122
447,32	46,118
447,52	48,886
447,72	47,232
447,93	46,113
448,13	41,958
448,33	54,894
448,54	48,890
448,74	43,723
448,94	49,242
449,15	47,030
449,35	46,042
449,55	50,012
449,76	52,694
449,96	47,032
450,16	52,515
450,37	45,517
450,57	49,106
450,77	45,344
450,98	47,668
451,18	51,553
451,38	47,174
451,58	50,050
451,79	49,702
451,99	44,351
452,19	49,173
452,40	48,106
452,60	46,621
452,80	45,972
453,00	49,381
453,21	47,942
453,41	48,028
453,61	50,436
453,82	49,395
454,02	45,306
454,22	53,616
454,42	48,220
454,63	46,154
454,83	45,229
455,03	50,244
455,24	48,309
455,44	43,276
455,64	48,377
455,84	44,344
456,05	43,192
456,25	43,686
456,45	48,053
456,65	46,584
456,86	45,668
457,06	47,417
457,26	57,016
457,47	52,537
457,67	49,129
457,87	45,247
458,07	46,088
458,28	49,751
458,48	50,813
458,68	45,456
458,88	50,338
459,09	50,201
459,29	51,030
459,49	47,649
459,69	49,737
459,90	52,178
460,10	47,995
460,30	48,827
460,50	46,160
460,71	48,780
460,91	48,324
461,11	50,167
461,31	47,005
461,52	50,031
461,72	47,946
461,92	46,096
462,12	56,351
462,32	50,116
462,53	45,149
462,73	47,357
462,93	53,463
463,13	43,516
463,34	51,296
463,54	46,661
463,74	51,667
463,94	45,674
464,14	47,944
464,35	44,247
464,55	51,440
464,75	50,386
464,95	50,842
465,16	46,883
465,36	51,970
465,56	45,377
465,76	44,850
465,96	49,369
466,17	46,157
466,37	44,531
466,57	47,968
466,77	45,645
466,97	48,325
467,18	49,486
467,38	47,136
467,58	50,198
467,78	49,667
467,98	50,510
468,19	49,117
468,39	50,940
468,59	50,050
468,79	49,174
468,99	44,112
469,19	47,469
469,40	52,468
469,60	46,286
469,80	46,517
470,00	50,180
470,20	53,602
470,41	47,468
470,61	52,911
470,81	47,173
471,01	46,676
471,21	50,031
471,41	47,907
471,62	48,169
471,82	44,581
472,02	45,894
472,22	47,330
472,42	47,610
472,62	50,099
472,83	50,132
473,03	51,056
473,23	46,401
473,43	48,017
473,63	51,697
473,83	49,538
474,03	47,414
474,24	53,069
474,44	46,760
474,64	47,210
474,84	47,676
475,04	46,359
475,24	47,560
475,45	46,662
475,65	47,355
475,85	49,328
476,05	44,233
476,25	44,844
476,45	46,480
476,65	53,903
476,85	49,609
477,06	47,194
477,26	43,519
477,46	49,224
477,66	50,572
477,86	46,726
478,06	44,082
478,26	53,190
478,46	45,459
478,67	45,919
478,87	47,348
479,07	45,639
479,27	49,466
479,47	46,167
479,67	43,348
479,87	44,002
480,07	50,346
480,28	46,677
480,48	43,056
480,68	49,162
480,88	53,526
481,08	45,613
481,28	50,214
481,48	46,904
481,68	45,914
481,88	45,569
482,08	46,646
482,29	52,609
482,49	41,436
482,69	47,513
482,89	47,505
483,09	48,216
483,29	45,063
483,49	43,593
483,69	45,775
483,89	44,421
484,09	44,890
484,29	45,018
484,50	46,480
484,70	47,050
484,90	45,809
485,10	43,908
485,30	47,634
485,50	49,339
485,70	46,234
485,90	46,738
486,10	41,689
486,30	43,397
486,50	44,950
486,70	42,908
486,90	43,494
487,10	48,308
487,30	45,105
487,51	45,808
487,71	43,518
487,91	43,364
488,11	45,695
488,31	41,313
488,51	45,173
488,71	45,574
488,91	44,568
489,11	42,506
489,31	44,549
489,51	44,530
489,71	46,051
489,91	44,101
490,11	42,600
490,31	45,303
490,51	45,537
490,71	45,700
490,91	43,464
491,11	46,521
491,31	49,924
491,51	42,824
491,72	45,541
491,92	46,793
492,12	47,355
492,32	41,150
492,52	44,936
492,72	45,900
492,92	45,397
493,12	45,108
493,32	42,565
493,52	40,329
493,72	43,309
493,92	45,986
494,12	46,295
494,32	44,572
494,52	42,982
494,72	43,342
494,92	45,677
495,12	46,432
495,32	46,736
495,52	43,025
495,72	46,344
495,92	49,297
496,12	45,678
496,32	43,140
496,52	46,394
496,72	43,875
496,92	47,357
497,12	45,116
497,32	45,920
497,52	45,044
497,72	46,439
497,92	44,225
498,12	44,864
498,32	48,510
498,52	46,493
498,72	42,773
498,92	43,397
499,12	48,932
499,32	43,917
499,52	47,361
499,72	47,029
499,92	45,352
500,12	44,790
500,32	47,815
500,52	43,916
500,72	47,899
500,91	50,113
501,11	47,408
501,31	40,199
501,51	47,144
501,71	46,945
501,91	45,138
502,11	46,359
502,31	44,283
502,51	46,897
502,71	45,192
502,91	46,016
503,11	45,220
503,31	45,384
503,51	42,867
503,71	44,745
503,91	44,673
504,11	44,431
504,31	43,688
504,51	46,508
504,71	45,095
504,91	46,740
505,10	45,917
505,30	46,351
505,50	45,328
505,70	44,589
505,90	43,988
506,10	42,296
506,30	44,349
506,50	45,602
506,70	46,962
506,90	42,628
507,10	44,693
507,30	45,303
507,50	45,749
507,70	44,095
507,89	45,998
508,09	42,414
508,29	43,826
508,49	45,139
508,69	43,578
508,89	45,268
509,09	42,834
509,29	44,257
509,49	46,920
509,69	45,434
509,89	42,197
510,09	43,902
510,28	47,461
510,48	43,704
510,68	42,326
510,88	43,459
511,08	41,982
511,28	43,861
511,48	43,300
511,68	41,399
511,88	41,831
512,07	42,057
512,27	44,380
512,47	43,101
512,67	44,199
512,87	39,249
513,07	41,718
513,27	43,062
513,47	42,704
513,67	40,940
513,86	42,760
514,06	45,232
514,26	43,168
514,46	42,169
514,66	43,435
514,86	43,071
515,06	41,658
515,26	42,387
515,45	42,191
515,65	40,630
515,85	42,125
516,05	43,216
516,25	42,021
516,45	42,715
516,65	40,812
516,84	40,647
517,04	44,439
517,24	39,185
517,44	42,150
517,64	46,372
517,84	42,889
518,04	40,648
518,23	42,534
518,43	44,592
518,63	39,062
518,83	39,609
519,03	40,849
519,23	42,740
519,42	42,883
519,62	40,987
519,82	39,796
520,02	41,864
520,22	44,000
520,42	39,854
520,61	41,549
520,81	42,635
521,01	45,233
521,21	41,890
521,41	40,932
521,61	43,356
521,80	38,454
522,00	43,606
522,20	41,942
522,40	43,038
522,60	40,582
522,79	41,291
522,99	44,120
523,19	39,396
523,39	43,373
523,59	40,779
523,78	42,770
523,98	38,523
524,18	38,734
524,38	40,583
524,58	39,426
524,77	42,084
524,97	41,967
525,17	42,558
525,37	39,898
525,57	42,818
525,76	40,969
525,96	42,453
526,16	39,168
526,36	37,958
526,56	40,853
526,75	39,221
526,95	39,439
527,15	37,711
527,35	40,266
527,55	43,276
527,74	44,311
527,94	36,651
528,14	39,059
528,34	40,084
528,53	40,165
528,73	40,909
528,93	40,980
529,13	39,015
529,32	40,167
529,52	40,961
529,72	38,203
529,92	39,856
530,12	36,638
530,31	36,645
530,51	38,891
530,71	39,761
530,91	40,422
531,10	34,541
531,30	40,040
531,50	39,217
531,70	40,800
531,89	39,263
532,09	37,068
532,29	37,425
532,49	39,388
532,68	38,907
532,88	37,425
533,08	38,451
533,28	40,012
533,47	36,004
533,67	37,556
533,87	37,231
534,06	44,405
534,26	39,561
534,46	35,452
534,66	40,571
534,85	39,289
535,05	34,039
535,25	37,782
535,45	36,332
535,64	39,582
535,84	37,689
536,04	35,065
536,23	39,040
536,43	38,696
536,63	37,640
536,83	38,446
537,02	37,801
537,22	37,847
537,42	38,014
537,61	37,187
537,81	37,024
538,01	39,112
538,20	36,859
538,40	35,980
538,60	39,428
538,80	34,664
538,99	36,851
539,19	35,605
539,39	36,197
539,58	37,466
539,78	32,199
539,98	35,915
540,17	34,738
540,37	35,399
540,57	33,921
540,76	33,613
540,96	32,997
541,16	35,875
541,36	32,484
541,55	30,189
541,75	31,800
541,95	32,636
542,14	30,726
542,34	31,528
542,54	30,207
542,73	30,987
542,93	32,966
543,13	30,510
543,32	30,657
543,52	31,507
543,72	29,841
543,91	31,794
544,11	32,118
544,31	31,809
544,50	32,204
544,70	32,257
544,89	30,181
545,09	31,835
545,29	33,079
545,48	33,056
545,68	33,114
545,88	32,076
546,07	30,576
546,27	32,208
546,47	33,787
546,66	33,598
546,86	35,965
547,06	33,401
547,25	32,655
547,45	34,906
547,64	35,098
547,84	35,478
548,04	33,771
548,23	36,832
548,43	34,247
548,63	35,562
548,82	36,654
549,02	32,240
549,21	32,548
549,41	34,735
549,61	35,731
549,80	36,164
550,00	33,129
550,20	32,393
550,39	35,742
550,59	33,662
550,78	35,408
550,98	33,710
551,18	37,540
551,37	35,099
551,57	32,858
551,76	35,103
551,96	33,248
552,16	35,392
552,35	36,851
552,55	34,568
552,74	35,964
552,94	36,813
553,14	34,543
553,33	36,136
553,53	34,614
553,72	33,994
553,92	37,123
554,12	34,341
554,31	34,955
554,51	34,842
554,70	34,188
554,90	34,359
555,09	37,631
555,29	36,353
555,49	38,558
555,68	37,662
555,88	33,290
556,07	36,306
556,27	38,652
556,46	35,447
556,66	35,646
556,86	37,000
557,05	34,757
557,25	34,663
557,44	35,267
557,64	35,725
557,83	35,804
558,03	35,046
558,22	33,856
558,42	35,264
558,62	37,103
558,81	35,258
559,01	34,107
559,20	33,360
559,40	32,711
559,59	34,779
559,79	31,361
559,98	37,246
560,18	35,873
560,37	34,590
560,57	36,177
560,76	34,718
560,96	35,143
561,16	38,751
561,35	35,174
561,55	38,209
561,74	34,711
561,94	36,513
562,13	34,768
562,33	37,902
562,52	35,783
562,72	36,354
562,91	34,145
563,11	35,582
563,30	38,723
563,50	34,951
563,69	33,977
563,89	34,684
564,08	36,102
564,28	35,638
564,47	35,335
564,67	34,480
564,86	36,093
565,06	37,571
565,25	37,160
565,45	35,893
565,64	38,009
565,84	34,899
566,03	34,795
566,23	37,636
566,42	35,467
566,62	35,548
566,81	36,204
567,01	34,663
567,20	34,947
567,40	34,316
567,59	35,358
567,79	38,521
567,98	38,591
568,18	37,149
568,37	38,360
568,57	37,611
568,76	38,762
568,96	35,754
569,15	36,869
569,35	37,019
569,54	39,574
569,73	40,049
569,93	35,952
570,12	36,442
570,32	38,666
570,51	37,214
570,71	38,191
570,90	38,574
571,10	36,855
571,29	35,653
571,49	35,146
571,68	36,813
571,87	36,587
572,07	38,353
572,26	36,450
572,46	36,745
572,65	38,528
572,85	34,979
573,04	37,728
573,24	37,992
573,43	38,834
573,62	38,570
573,82	38,142
574,01	37,291
574,21	37,524
574,40	37,152
574,60	36,059
574,79	39,608
574,98	36,526
575,18	36,220
575,37	36,977
575,57	36,490
575,76	38,708
575,96	37,509
576,15	36,439
576,34	37,762
576,54	38,398
576,73	39,554
576,93	37,909
577,12	37,135
577,31	37,674
577,51	36,923
577,70	38,069
577,90	39,733
578,09	38,339
578,28	36,287
578,48	37,761
578,67	38,465
578,87	37,152
579,06	36,880
579,25	38,904
579,45	38,301
579,64	39,031
579,84	37,580
580,03	36,803
580,22	39,599
580,42	37,572
580,61	38,551
580,81	40,199
581,00	38,278
581,19	40,640
581,39	37,612
581,58	38,610
581,77	39,468
581,97	40,837
582,16	37,257
582,35	37,849
582,55	38,290
582,74	40,479
582,94	39,211
583,13	37,885
583,32	38,024
583,52	38,852
583,71	38,188
583,90	39,204
584,10	39,765
584,29	38,406
584,48	39,056
584,68	39,345
584,87	38,794
585,06	39,509
585,26	38,785
585,45	39,311
585,65	41,536
585,84	39,275
586,03	40,096
586,23	39,481
586,42	38,338
586,61	40,577
586,81	39,599
587,00	40,020
587,19	38,689
587,39	41,150
587,58	40,935
587,77	38,631
587,97	38,226
588,16	39,349
588,35	40,330
588,54	42,000
588,74	40,055
588,93	42,387
589,12	40,654
589,32	41,199
589,51	41,748
589,70	38,990
589,90	39,724
590,09	40,735
590,28	41,737
590,48	40,147
590,67	40,682
590,86	42,071
591,06	41,741
591,25	42,742
591,44	42,705
591,63	40,156
591,83	42,596
592,02	40,783
592,21	42,436
592,41	40,857
592,60	42,370
592,79	40,970
592,98	42,305
593,18	42,797
593,37	40,064
593,56	43,134
593,76	41,973
593,95	41,118
594,14	41,663
594,33	44,132
594,53	41,232
594,72	41,447
594,91	45,980
595,10	44,183
595,30	41,719
595,49	40,709
595,68	43,110
595,88	42,670
596,07	43,996
596,26	44,491
596,45	43,271
596,65	40,892
596,84	42,225
597,03	41,892
597,22	44,236
597,42	44,531
597,61	43,070
597,80	44,247
597,99	42,685
598,19	44,735
598,38	44,342
598,57	42,949
598,76	44,901
598,95	44,991
599,15	44,429
599,34	44,132
599,53	44,742
599,72	44,129
599,92	45,223
600,11	45,744
600,30	45,442
600,49	47,310
600,69	44,053
600,88	47,037
601,07	44,444
601,26	45,041
601,45	45,618
601,65	44,416
601,84	45,583
602,03	45,314
602,22	46,875
602,42	46,684
602,61	45,184
602,80	45,291
602,99	46,943
603,18	43,575
603,38	45,029
603,57	45,767
603,76	44,547
603,95	44,706
604,14	43,504
604,34	45,192
604,53	46,364
604,72	46,005
604,91	46,513
605,10	43,947
605,29	45,015
605,49	44,565
605,68	45,581
605,87	45,840
606,06	45,545
606,25	45,912
606,45	45,036
606,64	46,520
606,83	46,542
607,02	46,014
607,21	44,215
607,40	46,990
607,60	44,458
607,79	44,894
607,98	42,874
608,17	44,577
608,36	43,820
608,55	44,880
608,75	45,944
608,94	44,472
609,13	41,590
609,32	42,292
609,51	41,613
609,70	42,740
609,89	42,028
610,09	42,419
610,28	43,888
610,47	42,274
610,66	41,580
610,85	40,110
611,04	42,244
611,23	42,593
611,43	42,411
611,62	42,395
611,81	41,470
612,00	42,832
612,19	40,394
612,38	41,251
612,57	44,433
612,77	43,107
612,96	42,974
613,15	43,270
613,34	45,142
613,53	44,731
613,72	45,700
613,91	45,110
614,10	44,393
614,29	45,401
614,49	42,622
614,68	43,752
614,87	45,506
615,06	47,843
615,25	43,690
615,44	48,961
615,63	46,416
615,82	44,342
616,01	45,501
616,21	45,849
616,40	47,055
616,59	49,155
616,78	45,701
616,97	46,077
617,16	45,691
617,35	47,815
617,54	45,828
617,73	47,496
617,92	46,192
618,11	48,107
618,31	46,110
618,50	47,203
618,69	47,655
618,88	48,002
619,07	47,423
619,26	46,925
619,45	46,431
619,64	46,071
619,83	46,379
620,02	45,178
620,21	48,407
620,40	47,134
620,59	44,842
620,78	45,306
620,97	47,266
621,17	48,490
621,36	46,561
621,55	47,489
621,74	48,373
621,93	46,123
622,12	47,675
622,31	45,934
622,50	44,880
622,69	48,685
622,88	48,290
623,07	47,213
623,26	47,536
623,45	48,777
623,64	47,043
623,83	46,388
624,02	47,605
624,21	48,661
624,40	47,870
624,59	46,584
624,78	48,110
624,97	49,287
625,16	45,586
625,35	45,869
625,54	47,577
625,73	46,375
625,92	47,286
626,12	49,954
626,31	49,073
626,50	48,870
626,69	49,184
626,88	44,409
627,07	48,446
627,26	47,679
627,45	48,097
627,64	47,075
627,83	48,028
628,02	46,798
628,21	46,106
628,40	47,521
628,59	48,080
628,78	46,172
628,97	46,873
629,16	46,423
629,35	48,487
629,54	48,929
629,73	47,462
629,92	46,534
630,10	47,225
630,29	47,389
630,48	47,196
630,67	47,352
630,86	49,762
631,05	47,933
631,24	49,631
631,43	44,704
631,62	48,309
631,81	47,354
632,00	47,518
632,19	46,681
632,38	48,278
632,57	49,010
632,76	49,080
632,95	48,264
633,14	50,201
633,33	48,365
633,52	47,938
633,71	48,515
633,90	46,641
634,09	48,086
634,28	47,374
634,47	46,989
634,66	48,572
634,85	48,427
635,04	48,917
635,22	48,613
635,41	46,475
635,60	49,370
635,79	47,583
635,98	46,276
636,17	48,427
636,36	48,888
636,55	48,468
636,74	45,712
636,93	48,714
637,12	49,938
637,31	47,124
637,50	48,141
637,69	49,048
637,87	47,438
638,06	48,921
638,25	48,017
638,44	49,107
638,63	47,498
638,82	49,225
639,01	48,696
639,20	49,093
639,39	48,460
639,58	47,522
639,77	48,823
639,95	48,633
640,14	50,077
640,33	46,986
640,52	49,073
640,71	50,217
640,90	49,889
641,09	49,675
641,28	48,482
641,47	49,258
641,66	46,355
641,84	48,690
642,03	46,722
642,22	48,462
642,41	50,091
642,60	47,055
642,79	48,865
642,98	47,851
643,17	49,139
643,35	48,587
643,54	49,180
643,73	49,485
643,92	49,593
644,11	49,301
644,30	45,318
644,49	48,862
644,67	47,412
644,86	47,334
645,05	49,208
645,24	46,778
645,43	50,155
645,62	49,896
645,81	49,442
645,99	50,331
646,18	48,471
646,37	48,858
646,56	49,140
646,75	50,281
646,94	49,116
647,13	47,960
647,31	48,711
647,50	47,615
647,69	52,226
647,88	49,622
648,07	48,433
648,26	50,840
648,44	47,664
648,63	47,801
648,82	48,205
649,01	50,920
649,20	47,902
649,38	48,485
649,57	50,410
649,76	48,261
649,95	49,778
650,14	46,763
650,33	49,243
650,51	47,195
650,70	50,982
650,89	49,618
651,08	48,126
651,27	48,352
651,45	48,061
651,64	46,908
651,83	49,402
652,02	50,225
652,21	48,996
652,39	50,071
652,58	49,274
652,77	48,777
652,96	48,885
653,15	48,534
653,33	48,539
653,52	50,092
653,71	49,604
653,90	50,707
654,09	51,128
654,27	50,433
654,46	50,224
654,65	50,163
654,84	50,930
655,02	52,915
655,21	50,229
655,40	51,691
655,59	50,304
655,77	51,446
655,96	50,103
656,15	50,944
656,34	52,369
656,53	50,759
656,71	50,254
656,90	51,207
657,09	50,761
657,28	51,373
657,46	49,998
657,65	49,747
657,84	49,255
658,03	50,153
658,21	50,760
658,40	48,811
658,59	48,445
658,78	49,793
658,96	48,856
659,15	51,352
659,34	49,346
659,52	49,983
659,71	50,548
659,90	48,990
660,09	48,770
660,27	49,011
660,46	49,281
660,65	47,703
660,84	49,781
661,02	48,910
661,21	48,233
661,40	48,455
661,58	47,968
661,77	48,659
661,96	47,927
662,15	49,284
662,33	47,945
662,52	47,890
662,71	48,787
662,89	46,570
663,08	48,186
663,27	48,310
663,45	48,384
663,64	48,417
663,83	46,858
664,02	47,809
664,20	48,606
664,39	47,098
664,58	47,248
664,76	48,721
664,95	50,297
665,14	47,695
665,32	47,263
665,51	49,525
665,70	48,801
665,88	48,841
666,07	49,384
666,26	49,963
666,44	48,484
666,63	47,506
666,82	48,338
667,00	49,207
667,19	47,188
667,38	47,446
667,56	49,649
667,75	49,758
667,94	49,292
668,12	48,380
668,31	46,781
668,50	48,745
668,68	49,742
668,87	47,179
669,06	50,052
669,24	50,864
669,43	49,641
669,62	45,964
669,80	46,853
669,99	48,425
670,18	48,148
670,36	47,912
670,55	48,683
670,74	50,321
670,92	47,029
671,11	50,067
671,29	48,237
671,48	49,787
671,67	48,036
671,85	49,786
672,04	48,571
672,23	48,308
672,41	48,540
672,60	48,207
672,78	48,440
672,97	48,793
673,16	49,029
673,34	48,734
673,53	47,223
673,71	48,298
673,90	48,968
674,09	48,941
674,27	46,494
674,46	49,720
674,64	49,330
674,83	49,314
675,02	45,853
675,20	48,581
675,39	48,364
675,57	48,695
675,76	47,539
675,95	48,776
676,13	49,977
676,32	49,753
676,50	48,398
676,69	47,565
676,88	47,271
677,06	48,770
677,25	48,610
677,43	51,603
677,62	49,394
677,80	48,789
677,99	49,906
678,18	48,494
678,36	49,701
678,55	47,990
678,73	47,370
678,92	50,775
679,10	48,085
679,29	48,299
679,48	46,530
679,66	48,514
679,85	47,756
680,03	48,489
680,22	48,105
680,40	47,683
680,59	47,677
680,77	48,021
680,96	49,533
681,15	47,260
681,33	48,856
681,52	47,988
681,70	48,765
681,89	51,075
682,07	48,792
682,26	48,311
682,44	50,153
682,63	48,149
682,81	48,673
683,00	49,383
683,18	47,144
683,37	49,495
683,55	47,243
683,74	49,095
683,92	51,292
684,11	49,241
684,29	48,390
684,48	47,091
684,67	47,947
684,85	48,576
685,04	49,069
685,22	49,284
685,41	49,233
685,59	48,686
685,78	48,242
685,96	48,356
686,15	48,832
686,33	48,552
686,52	47,635
686,70	48,437
686,89	48,051
687,07	49,325
687,26	49,074
687,44	49,501
687,62	48,514
687,81	49,556
687,99	48,727
688,18	49,501
688,36	49,958
688,55	47,879
688,73	48,690
688,92	47,555
689,10	47,417
689,29	49,661
689,47	49,679
689,66	47,494
689,84	47,043
690,03	51,506
690,21	48,314
690,40	48,714
690,58	47,668
690,76	47,393
690,95	49,713
691,13	46,906
691,32	48,408
691,50	48,685
691,69	50,011
691,87	46,876
692,06	47,633
692,24	47,430
692,43	50,206
692,61	47,282
692,79	47,790
692,98	45,807
693,16	49,536
693,35	46,453
693,53	49,296
693,72	48,507
693,90	48,850
694,08	47,203
694,27	46,830
694,45	49,070
694,64	50,406
694,82	48,509
695,01	48,816
695,19	48,544
695,37	48,928
695,56	48,407
695,74	48,585
695,93	48,574
696,11	48,150
696,29	49,177
696,48	49,036
696,66	50,533
696,85	47,661
697,03	46,209
697,21	49,144
697,40	47,875
697,58	48,707
697,77	49,181
697,95	48,487
698,13	48,448
698,32	48,625
698,50	49,108
698,69	46,915
698,87	48,510
699,05	48,282
699,24	47,249
699,42	46,914
699,60	46,396
699,79	47,692
699,97	48,116
700,16	46,223
700,34	48,990
700,52	48,780
700,71	47,578
700,89	47,486
701,07	49,464
701,26	49,197
701,44	47,754
701,63	45,808
701,81	47,757
701,99	48,646
702,18	47,449
702,36	47,611
702,54	46,850
702,73	46,723
702,91	48,526
703,09	47,406
703,28	47,566
703,46	48,516
703,64	47,631
703,83	46,754
704,01	46,550
704,19	47,838
704,38	45,932
704,56	47,247
704,74	51,215
704,93	46,638
705,11	48,932
705,29	47,335
705,48	50,104
705,66	49,440
705,84	46,851
706,03	45,689
706,21	47,742
706,39	47,684
706,58	47,666
706,76	47,373
706,94	49,257
707,12	48,567
707,31	47,180
707,49	45,642
707,67	47,089
707,86	48,952
708,04	47,979
708,22	47,029
708,41	47,980
708,59	47,134
708,77	46,931
708,95	48,903
709,14	50,470
709,32	47,626
709,50	46,685
709,69	45,754
709,87	47,084
710,05	47,857
710,23	47,808
710,42	46,890
710,60	47,678
710,78	48,467
710,97	46,999
711,15	46,216
711,33	49,593
711,51	46,746
711,70	46,547
711,88	46,040
712,06	50,158
712,24	47,348
712,43	48,282
712,61	46,092
712,79	47,546
712,97	48,977
713,16	49,579
713,34	47,756
713,52	47,229
713,70	47,941
713,89	46,134
714,07	47,147
714,25	47,085
714,43	48,427
714,62	46,127
714,80	47,613
714,98	46,008
715,16	46,356
715,35	45,485
715,53	47,041
715,71	50,489
715,89	49,597
716,07	46,836
716,26	50,413
716,44	47,926
716,62	48,826
716,80	48,851
716,99	48,007
717,17	50,012
717,35	47,253
717,53	46,939
717,71	48,742
717,90	46,822
718,08	48,902
718,26	45,321
718,44	48,419
718,62	49,278
718,81	47,554
718,99	46,405
719,17	47,487
719,35	49,121
719,53	46,538
719,72	46,505
719,90	49,283
720,08	46,380
720,26	48,443
720,44	45,872
720,62	46,392
720,81	48,651
720,99	48,125
721,17	47,008
721,35	46,434
721,53	49,647
721,72	49,435
721,90	47,404
722,08	47,391
722,26	48,847
722,44	47,230
722,62	47,953
722,81	45,858
722,99	48,987
723,17	46,918
723,35	47,836
723,53	47,999
723,71	48,698
723,89	51,315
724,08	46,457
724,26	46,979
724,44	48,040
724,62	46,688
724,80	48,284
724,98	47,034
725,16	49,062
725,35	49,723
725,53	47,571
725,71	45,670
725,89	48,064
726,07	48,919
726,25	49,899
726,43	46,437
726,61	49,128
726,80	48,059
726,98	47,104
727,16	44,439
727,34	49,394
727,52	47,689
727,70	45,207
727,88	48,109
728,06	46,738
728,25	48,242
728,43	49,235
728,61	46,574
728,79	47,306
728,97	47,915
729,15	46,992
729,33	49,393
729,51	48,670
729,69	48,091
729,87	46,441
730,06	48,865
730,24	47,559
730,42	50,378
730,60	45,906
730,78	47,613
730,96	46,553
731,14	46,930
731,32	46,773
731,50	48,306
731,68	47,511
731,86	47,726
732,04	48,902
732,22	47,520
732,41	48,801
732,59	49,178
732,77	49,361
732,95	50,341
733,13	49,785
733,31	48,024
733,49	46,991
733,67	49,514
733,85	46,438
734,03	47,053
734,21	47,955
734,39	47,918
734,57	49,847
734,75	49,526
734,93	46,760
735,11	47,428
735,29	46,297
735,47	50,039
735,65	48,183
735,84	46,495
736,02	48,103
736,20	50,255
736,38	46,366
736,56	49,048
736,74	48,851
736,92	47,497
737,10	47,049
737,28	49,251
737,46	49,437
737,64	45,710
737,82	47,471
738,00	48,091
738,18	48,050
738,36	46,864
738,54	47,095
738,72	46,369
738,90	49,073
739,08	49,653
739,26	45,698
739,44	46,948
739,62	49,220
739,80	47,938
739,98	48,921
740,16	48,767
740,34	45,030
740,52	50,688
740,70	47,022
740,88	44,388
741,06	45,671
741,24	50,209
741,42	48,004
741,60	47,208
741,78	49,945
741,96	47,666
742,14	47,646
742,32	46,269
742,50	48,765
742,68	49,392
742,86	47,376
743,04	47,569
743,21	48,434
743,39	48,027
743,57	46,497
743,75	47,290
743,93	46,722
744,11	44,587
744,29	47,181
744,47	47,346
744,65	47,017
744,83	45,278
745,01	47,577
745,19	47,499
745,37	48,414
745,55	49,013
745,73	46,853
745,91	45,502
746,09	47,114
746,27	46,856
746,45	45,469
746,62	47,465
746,80	47,870
746,98	49,210
747,16	46,695
747,34	47,332
747,52	47,765
747,70	47,708
747,88	47,235
748,06	47,668
748,24	47,259
748,42	48,201
748,60	47,943
748,78	47,811
748,95	47,724
749,13	49,557
749,31	47,355
749,49	47,332
749,67	48,113
749,85	49,611
750,03	46,471
750,21	47,741
750,39	46,930
750,57	48,908
750,74	48,519
750,92	47,362
751,10	50,365
751,28	46,207
751,46	47,816
751,64	49,701
751,82	46,828
752,00	48,430
752,17	46,900
752,35	46,768
752,53	44,339
752,71	47,912
752,89	47,138
753,07	47,231
753,25	48,726
753,43	46,631
753,60	48,111
753,78	46,681
753,96	48,531
754,14	46,887
754,32	46,805
754,50	48,816
754,68	47,737
754,85	49,499
755,03	49,368
755,21	48,750
755,39	51,584
755,57	48,801
755,75	47,376
755,92	47,376
756,10	48,895
756,28	49,301
756,46	46,106
756,64	47,650
756,82	47,589
756,99	48,012
757,17	47,379
757,35	47,556
757,53	50,754
757,71	50,672
757,89	47,062
758,06	47,900
758,24	48,725
758,42	48,619
758,60	50,141
758,78	47,236
758,95	48,800
759,13	48,443
759,31	45,807
759,49	46,673
759,67	48,021
759,84	48,079
760,02	48,751
760,20	47,608
760,38	46,473
760,56	47,251
760,73	49,681
760,91	49,725
761,09	48,298
761,27	48,576
761,45	47,107
761,62	46,182
761,80	47,383
761,98	48,321
762,16	48,627
762,33	47,485
762,51	49,866
762,69	48,137
762,87	46,966
763,05	47,495
763,22	46,167
763,40	44,948
763,58	46,085
763,76	49,240
763,93	48,138
764,11	48,338
764,29	47,044
764,47	47,711
764,64	47,404
764,82	49,894
765,00	48,416
765,18	45,305
765,35	45,674
765,53	47,687
765,71	48,681
765,89	46,117
766,06	47,033
766,24	47,455
766,42	48,855
766,60	47,728
766,77	46,605
766,95	45,334
767,13	47,047
767,30	48,229
767,48	46,845
767,66	49,247
767,84	46,844
768,01	47,296
768,19	46,856
768,37	49,245
768,54	47,142
768,72	48,123
768,90	46,109
769,08	47,493
769,25	49,418
769,43	46,488
769,61	46,565
769,78	49,282
769,96	46,646
770,14	48,346
770,31	48,695
770,49	47,319
770,67	48,099
770,85	47,576
771,02	47,251
771,20	46,593
771,38	49,455
771,55	46,516
771,73	48,661
771,91	47,307
772,08	49,596
772,26	47,903
772,44	48,026
772,61	47,905
772,79	48,601
772,97	47,979
773,14	47,369
773,32	49,301
773,50	47,355
773,67	47,302
773,85	48,307
774,03	50,026
774,20	47,111
774,38	47,562
774,56	45,864
774,73	46,186
774,91	43,584
775,09	46,169
775,26	47,813
775,44	49,385
775,61	48,330
775,79	46,308
775,97	48,510
776,14	48,253
776,32	46,749
776,50	46,420
776,67	48,352
776,85	46,980
777,03	46,398
777,20	48,927
777,38	47,660
777,55	50,057
777,73	43,296
777,91	46,657
778,08	47,883
778,26	46,786
778,43	48,658
778,61	46,483
778,79	46,551
778,96	46,823
779,14	45,086
779,32	46,919
779,49	50,007
779,67	49,146
779,84	48,003
780,02	47,158
780,20	44,857
780,37	49,296
780,55	42,558
780,72	48,203
780,90	48,832
781,07	47,068
781,25	47,953
781,43	49,232
781,60	45,789
781,78	48,230
781,95	46,729
782,13	46,042
782,30	48,795
782,48	46,919
782,66	47,313
782,83	45,854
783,01	50,140
783,18	49,964
783,36	50,626
783,53	49,877
783,71	47,112
783,89	45,964
784,06	49,410
784,24	48,717
784,41	48,963
784,59	48,303
784,76	47,878
784,94	48,085
785,11	47,837
785,29	48,755
785,46	47,162
785,64	49,755
785,82	47,417
785,99	48,261
786,17	46,742
786,34	48,179
786,52	50,007
786,69	52,607
786,87	46,533
787,04	47,278
787,22	46,915
787,39	48,653
787,57	48,284
787,74	46,706
787,92	51,121
788,09	48,584
788,27	48,431
788,44	48,257
788,62	47,992
788,79	49,375
788,97	50,791
789,14	47,070
789,32	47,822
789,49	50,633
789,67	46,248
789,84	49,971
790,02	48,093
790,19	49,767
790,37	50,664
790,54	50,057
790,72	52,487
790,89	51,974
791,07	48,733
791,24	46,947
791,42	50,280
791,59	49,256
791,77	49,113
791,94	49,009
792,12	48,574
792,29	49,430
792,47	49,811
792,64	53,690
792,81	48,726
792,99	47,347
793,16	48,633
793,34	48,434
793,51	47,995
793,69	50,607
793,86	45,512
794,04	48,836
794,21	50,580
794,39	46,654
794,56	48,776
794,73	51,644
794,91	48,811
795,08	50,021
795,26	48,239
795,43	46,723
795,61	50,761
795,78	50,948
795,95	48,525
796,13	48,583
796,30	51,090
796,48	47,096
796,65	48,663
796,83	50,146
797,00	52,511
797,17	47,519
797,35	48,554
797,52	50,407
797,70	51,740
797,87	47,337
798,04	46,877
798,22	46,771
798,39	49,332
798,57	47,312
798,74	51,264
798,91	47,725
799,09	48,038
799,26	49,923
799,44	49,425
799,61	47,100
799,78	49,573
799,96	51,072
800,13	47,752
800,31	48,652
800,48	53,319
800,65	54,853
800,83	49,637
801,00	47,932
801,17	48,677
801,35	51,682
801,52	51,471
801,70	48,611
801,87	49,065
802,04	52,375
802,22	50,296
802,39	48,495
802,56	52,955
802,74	51,506
802,91	48,159
803,08	48,273
803,26	48,655
803,43	53,514
803,61	46,839
803,78	48,830
803,95	50,136
804,13	55,431
804,30	48,718
804,47	49,196
804,65	49,505
804,82	49,884
804,99	46,975
805,17	46,517
805,34	53,365
805,51	52,295
805,69	48,882
805,86	47,504
806,03	58,220
806,21	52,365
806,38	49,454
806,55	56,179
806,72	52,385
806,90	49,640
807,07	49,186
807,24	49,449
807,42	47,272
807,59	50,448
807,76	47,177
807,94	48,499
808,11	52,990
808,28	55,729
808,45	51,191
808,63	51,910
808,80	51,687
808,97	48,638
809,15	48,012
809,32	49,072
809,49	47,647
809,67	47,342
809,84	51,969
810,01	48,693
810,18	55,508
810,36	48,896
810,53	49,839
810,70	51,132
810,87	52,734
811,05	50,505
811,22	49,682
811,39	51,356
811,57	53,563
811,74	52,895
811,91	47,459
812,08	50,321
812,26	50,998
812,43	51,157
812,60	53,230
812,77	47,662
812,95	52,478
813,12	51,405
813,29	46,323
813,46	51,623
813,64	51,806
813,81	51,348
813,98	48,755
814,15	54,314
814,32	54,537
814,50	50,940
814,67	51,218
814,84	54,964
815,01	52,793
815,19	47,969
815,36	46,231
815,53	51,130
815,70	47,839
815,87	52,096
816,05	46,607
816,22	52,749
816,39	50,956
816,56	50,472
816,74	50,613
816,91	52,982
817,08	58,260
817,25	57,247
817,42	51,605
817,60	53,429
817,77	50,745
817,94	54,349
818,11	49,890
818,28	50,487
818,45	51,092
818,63	52,485
818,80	50,290
818,97	55,594
819,14	55,040
819,31	56,042
819,49	55,840
819,66	47,883
819,83	55,584
820,00	55,213
820,17	50,490
820,34	52,745
820,52	54,754
820,69	52,433
820,86	47,321
821,03	53,062
821,20	55,167
821,37	53,176
821,55	45,219
821,72	49,660
821,89	51,325
822,06	53,843
822,23	47,834
822,40	49,263
822,57	52,319
822,75	53,707
822,92	44,225
823,09	51,796
823,26	53,643
823,43	59,636
823,60	48,704
823,77	51,203
823,94	60,724
824,12	55,054
824,29	47,523
824,46	47,206
824,63	56,523
824,80	54,494
824,97	53,551
825,14	51,351
825,31	55,060
825,49	51,496
825,66	52,794
825,83	48,867
826,00	48,711
826,17	55,888
826,34	54,319
826,51	51,968
826,68	50,437
826,85	54,391
827,02	53,369
827,20	46,180
827,37	54,996
827,54	54,075
827,71	52,071
827,88	50,469
828,05	58,932
828,22	56,123
828,39	57,689
828,56	49,523
828,73	57,412
828,90	59,054
829,07	45,085
829,25	54,725
829,42	55,339
829,59	52,866
829,76	49,582
829,93	53,344
830,10	55,661
830,27	49,446
830,44	48,180
830,61	49,637
830,78	57,075
830,95	54,922
831,12	45,136
831,29	46,068
831,46	58,158
831,63	47,252
831,80	55,765
831,97	50,976
832,14	59,143
832,31	65,655
832,48	55,798
832,65	58,242
832,83	55,156
833,00	56,614
833,17	57,730
833,34	58,936
833,51	56,055
833,68	55,284
833,85	63,800
834,02	48,024
834,19	52,784
834,36	57,765
834,53	46,808
834,70	53,091
834,87	61,860
835,04	54,143
835,21	58,110
835,38	55,955
835,55	52,903
835,72	52,720
835,89	54,955
836,06	56,506
836,23	62,657
836,40	49,494
836,57	51,578
836,74	59,958
836,91	50,591
837,08	58,886
837,25	57,008
837,42	45,743
837,59	49,618
837,76	58,100
837,93	49,952
838,09	46,272
838,26	61,719
838,43	57,010
838,60	56,943
838,77	58,740
838,94	63,570
839,11	58,432
839,28	51,285
839,45	54,333
839,62	53,683
839,79	50,966
839,96	54,209
840,13	57,721
840,30	49,402
840,47	50,021
840,64	52,781
840,81	58,079
840,98	53,865
841,15	66,049
841,32	46,709
841,48	57,409
841,65	51,997
841,82	52,951
841,99	53,550
842,16	47,248
842,33	59,873
842,50	51,372
842,67	58,885
842,84	54,513
843,01	56,223
843,18	59,081
843,35	53,607
843,52	46,790
843,68	58,528
843,85	50,063
844,02	53,599
844,19	53,989
844,36	62,647
844,53	71,006
844,70	60,872
844,87	61,938
845,04	55,475
845,21	48,760
845,37	56,461
845,54	56,640
845,71	49,338
845,88	72,836
846,05	51,333
846,22	45,386
846,39	61,151
846,56	66,281
846,72	50,530
846,89	51,162
847,06	68,987
847,23	58,875
847,40	54,324
847,57	51,805
847,74	53,178
847,90	65,458
848,07	58,816
848,24	62,657
848,41	67,146
848,58	66,222
848,75	52,660
848,92	59,373
849,08	55,585
849,25	51,769
849,42	50,028
849,59	64,242
849,76	51,371
849,93	58,210
850,09	62,693
850,26	43,010
850,43	64,632
850,60	56,997
850,77	57,916
850,94	55,904
851,10	60,704
851,27	57,855
851,44	57,699
851,61	55,912
851,78	65,605
851,95	60,735
852,11	53,776
852,28	43,145
852,45	66,944
852,62	58,646
852,79	68,030
852,95	52,830
853,12	55,864
853,29	54,560
853,46	61,759
853,63	58,100
853,79	43,541
853,96	48,190
854,13	70,049
854,30	55,202
854,46	78,529
854,63	50,617
854,80	56,450
854,97	51,652
855,14	68,015
855,30	54,970
855,47	58,054
855,64	58,644
855,81	54,570
855,97	67,034
856,14	63,422
856,31	55,433
856,48	64,630
856,65	67,322
856,81	57,080
856,98	49,979
857,15	52,544
857,32	55,986
857,48	56,178
857,65	69,690
857,82	63,410
857,99	60,624
858,15	59,200
858,32	64,122
858,49	71,998
858,65	60,513
858,82	58,628
858,99	56,734
859,16	62,878
859,32	65,516
859,49	53,779
859,66	46,550
859,83	46,630
859,99	62,631
860,16	52,853
860,33	59,827
860,49	79,066
860,66	64,544
860,83	63,600
861,00	51,675
861,16	67,227
861,33	74,085
861,50	59,168
861,66	56,352
861,83	78,748
862,00	60,214
862,16	60,887
862,33	61,852
862,50	77,478
862,67	66,017
862,83	56,497
863,00	67,885
863,17	65,343
863,33	62,664
863,50	23,086
863,67	48,250
863,83	56,201
864,00	79,235
864,17	64,543
864,33	67,010
864,50	61,365
864,67	64,039
864,83	62,290
865,00	50,113
865,17	43,146
865,33	80,306
865,50	36,638
865,67	42,141
865,83	66,448
866,00	76,588
866,17	74,116
866,33	70,168
866,50	90,069
866,66	71,011
866,83	80,969
867,00	65,728
867,16	95,730
867,33	81,816
867,50	42,308
867,66	46,915
867,83	81,298
868,00	68,274
868,16	43,086
868,33	60,023
868,49	70,770
868,66	83,624
868,83	62,468
868,99	80,027
869,16	71,687
869,32	72,163
869,49	53,860
869,66	56,236
869,82	75,251
869,99	95,840
870,15	42,141
870,32	92,796
870,49	82,610
870,65	111,466
870,82	73,101
870,98	73,233
871,15	138,153
871,32	78,214
871,48	52,280
871,65	59,943
871,81	55,553
871,98	44,440
872,15	51,908
872,31	51,309
872,48	106,538
872,64	62,554
872,81	56,486
872,97	59,982
873,14	105,266
873,31	94,028
873,47	73,826
873,64	78,007
873,80	78,635
873,97	77,118
874,13	44,356
874,30	51,167
874,46	99,115
874,63	81,130
874,80	61,693
874,96	62,274
875,13	135,625
875,29	67,763
875,46	86,530
875,62	52,456
875,79	80,653
875,95	87,534
876,12	43,658
876,28	50,755
876,45	85,523
876,61	98,352
876,78	85,735
876,94	29,757
877,11	82,659
877,27	89,457
877,44	58,233
877,60	45,801
877,77	103,760
877,94	99,276
878,10	83,277
878,27	74,199
878,43	105,853
878,60	78,957
878,76	49,550
878,93	46,565
879,09	119,275
879,26	107,919
879,42	102,133
879,58	96,223
879,75	63,624
879,91	127,955
880,08	28,499
880,24	41,409
880,41	49,337
880,57	103,337
880,74	25,301
880,90	79,969
881,07	94,123
881,23	80,412
881,40	71,358
881,56	65,324
881,73	85,436
881,89	93,265
882,06	53,150
882,22	168,757
882,38	129,462
882,55	141,041
882,71	51,540
882,88	57,899
883,04	155,994
883,21	225,008
883,37	90,872
883,54	84,351
883,70	162,938
883,86	89,854
884,03	76,939
884,19	21,298
884,36	-20,692
884,52	216,229
884,69	83,569
884,85	10,874
885,01	176,836
885,18	143,694
885,34	135,692
885,51	4,350
885,67	99,048
>>>>> Data<<<<< Espectral Procesado Extremo
