Fichero De Datos De SpectraSuite
++++++++++++++++++++++++++++++++++++
Fecha: Wed Apr 22 11:02:23 CEST 2009
Usuario: evoflor
Presente Oscuro Del Espectro: Sí
La Referencia de Presente Del Espectro De: Sí
Muestreados de los componentes de Número de espectros: 1
Espectrómetros: USB4F02353
Tiempo de integración (usec): 500000 (USB4F02353)
Promedio de Espectros Hechos un: 5 (USB4F02353)
El Alisar Del Furgón: 0 (USB4F02353)
Párrafo de de Corregir del la del del de Eléctrica del obscuridad: Sí (USB4F02353)
Estrobo/Lámpara Permitido: No (USB4F02353)
Correct for Detector Non-linearity: No (USB4F02353)
Párrafo de de Corregir del la del del de Externa del luz: No (USB4F02353)
Procesado del espectro de Número de pixeles en: 3648
>>>>> Comienza Data<<<<< Espectral Procesado Del EL
177,79	286,698
178,00	286,698
178,22	286,698
178,44	716,154
178,66	-244,483
178,88	358,860
179,09	-247,362
179,31	205,965
179,53	447,461
179,75	82,922
179,96	640,776
180,18	-98,554
180,40	173,662
180,62	190,000
180,83	195,579
181,05	-346,707
181,27	-149930,000
181,49	-10,935
181,70	396,654
181,92	509,797
182,14	291,657
182,36	222,696
182,58	-401,300
182,79	781,830
183,01	-34,535
183,23	135,653
183,45	-245,323
183,66	69,336
183,88	29,588
184,10	-2120,545
184,32	275,322
184,53	111,315
184,75	68,283
184,97	85,853
185,18	15,921
185,40	-205,913
185,62	47,378
185,84	217,314
186,05	-14,897
186,27	-81,665
186,49	4139,615
186,71	12,289
186,92	62,672
187,14	-51,340
187,36	126,770
187,58	88,160
187,79	-19,954
188,01	226,167
188,23	-282,756
188,45	61,367
188,66	179,152
188,88	-2284,182
189,10	-824,300
189,31	-36,229
189,53	35,456
189,75	252,795
189,97	-49,885
190,18	-411,030
190,40	739,000
190,62	-214,433
190,83	-204,144
191,05	221,192
191,27	310,086
191,49	339,926
191,70	-231,875
191,92	-202,797
192,14	17,913
192,35	378,594
192,57	2998,000
192,79	-112,570
193,01	130,816
193,22	145,797
193,44	-65,410
193,66	94,535
193,87	41,606
194,09	37,617
194,31	103,941
194,53	242,867
194,74	167,790
194,96	34,054
195,18	143,993
195,39	-326,728
195,61	-26,908
195,83	-116,587
196,04	74,654
196,26	200,854
196,48	52,082
196,70	176,402
196,91	-31,264
197,13	103,873
197,35	-40,084
197,56	483,684
197,78	1206,194
198,00	702,308
198,21	212,282
198,43	7,384
198,65	84,942
198,86	-11,043
199,08	119,770
199,30	199,656
199,51	-148,306
199,73	127,860
199,95	39,183
200,16	334,346
200,38	102,301
200,60	141,983
200,81	224,690
201,03	16,114
201,25	-1247,300
201,46	136,615
201,68	60,726
201,90	2446,136
202,11	-280,267
202,33	120,521
202,55	-285,875
202,76	-38,707
202,98	-26,376
203,20	-71,779
203,41	-391,211
203,63	113,315
203,85	-116630,000
204,06	57,610
204,28	74,627
204,50	112,907
204,71	136,095
204,93	-312,560
205,15	278,102
205,36	-142,122
205,58	144,395
205,80	-102,379
206,01	97,479
206,23	185,436
206,45	198,974
206,66	133,138
206,88	17,261
207,10	13,477
207,31	366,662
207,53	140,371
207,75	64,151
207,96	467,388
208,18	-102,270
208,39	115,172
208,61	2072,286
208,83	-367,912
209,04	132,184
209,26	-554,055
209,48	281,968
209,69	199,726
209,91	387,939
210,13	80,452
210,34	125,496
210,56	142,883
210,77	-911,260
210,99	32,701
211,21	5272,353
211,42	-150,555
211,64	14,521
211,86	212,979
212,07	199,754
212,29	189,090
212,50	84,711
212,72	154,346
212,94	18,590
213,15	130,246
213,37	71,959
213,58	-178,780
213,80	141,786
214,02	6754,706
214,23	204,617
214,45	376,492
214,67	-1334,512
214,88	-1,779
215,10	-57,975
215,31	-8,668
215,53	-15,159
215,75	166,835
215,96	813,851
216,18	-284,085
216,39	187,246
216,61	260,546
216,83	118,884
217,04	1148,652
217,26	-6,403
217,47	86,824
217,69	229,844
217,91	151,727
218,12	32770,000
218,34	180,195
218,55	187,613
218,77	78,202
218,99	103,337
219,20	-199,238
219,42	286,174
219,63	-196,866
219,85	-36,935
220,06	22,808
220,28	59,029
220,50	49,595
220,71	71,495
220,93	-210,755
221,14	-1211,300
221,36	26,520
221,58	17,036
221,79	3,462
222,01	516,638
222,22	1122,566
222,44	-54,719
222,65	175,518
222,87	582,727
223,09	167,562
223,30	91,164
223,52	236,712
223,73	244,953
223,95	12,155
224,16	242,330
224,38	105,758
224,60	34,705
224,81	-2,947
225,03	86,817
225,24	66,662
225,46	-37,990
225,67	24,207
225,89	-6,374
226,10	381,114
226,32	731,440
226,54	27,661
226,75	92,466
226,97	119,568
227,18	90,883
227,40	9,379
227,61	22,439
227,83	67,436
228,04	36,290
228,26	34,244
228,47	42,191
228,69	138,851
228,91	34,489
229,12	51,385
229,34	41,962
229,55	57,617
229,77	30,390
229,98	53,227
230,20	-5,987
230,41	6,307
230,63	20,848
230,84	-14,161
231,06	35,996
231,27	-7,139
231,49	44,981
231,71	7,227
231,92	40,732
232,14	4,377
232,35	45,821
232,57	49,358
232,78	-4,303
233,00	44,274
233,21	69,202
233,43	7,026
233,64	29,083
233,86	31,743
234,07	31,334
234,29	18,717
234,50	-5,939
234,72	30,644
234,93	-7,273
235,15	22,394
235,36	16,988
235,58	3,834
235,79	32,957
236,01	9,930
236,22	8,083
236,44	28,071
236,65	3,868
236,87	21,669
237,08	3,656
237,30	-17,244
237,51	20,765
237,73	-0,056
237,94	0,613
238,16	18,388
238,37	10,522
238,59	5,322
238,80	14,873
239,02	2,344
239,23	17,349
239,45	8,864
239,66	9,825
239,88	23,945
240,09	26,782
240,31	-3,139
240,52	0,056
240,74	17,039
240,95	3,409
241,17	13,603
241,38	5,265
241,60	8,501
241,81	20,194
242,03	-3,468
242,24	6,409
242,46	13,130
242,67	-0,189
242,89	9,694
243,10	12,598
243,32	11,652
243,53	11,081
243,75	-0,104
243,96	7,474
244,18	5,720
244,39	8,701
244,60	4,173
244,82	-1,053
245,03	13,264
245,25	9,776
245,46	17,975
245,68	6,384
245,89	8,299
246,11	15,286
246,32	8,323
246,54	7,740
246,75	12,545
246,97	2,315
247,18	11,894
247,39	2,375
247,61	5,712
247,82	2,325
248,04	9,063
248,25	7,982
248,47	10,691
248,68	8,440
248,90	3,303
249,11	5,258
249,33	12,951
249,54	3,884
249,75	15,555
249,97	6,776
250,18	9,535
250,40	13,904
250,61	-6,020
250,83	3,259
251,04	0,092
251,25	9,520
251,47	2,595
251,68	8,207
251,90	8,858
252,11	11,000
252,33	3,256
252,54	3,631
252,76	4,267
252,97	3,266
253,18	0,417
253,40	-0,557
253,61	0,693
253,83	8,984
254,04	6,034
254,25	3,781
254,47	1,303
254,68	3,468
254,90	4,021
255,11	4,641
255,33	4,913
255,54	4,908
255,75	3,248
255,97	4,942
256,18	2,404
256,40	9,185
256,61	4,575
256,82	1,814
257,04	10,774
257,25	2,141
257,47	4,428
257,68	1,497
257,89	7,147
258,11	8,314
258,32	7,007
258,54	4,633
258,75	11,483
258,96	9,819
259,18	4,513
259,39	1,099
259,61	5,453
259,82	2,985
260,03	4,621
260,25	3,545
260,46	2,442
260,68	2,277
260,89	3,944
261,10	2,332
261,32	5,064
261,53	0,335
261,75	5,937
261,96	-1,971
262,17	7,324
262,39	7,067
262,60	0,227
262,81	2,059
263,03	4,763
263,24	4,843
263,46	-1,288
263,67	1,055
263,88	5,378
264,10	7,797
264,31	1,932
264,52	5,851
264,74	6,399
264,95	0,667
265,17	6,306
265,38	1,614
265,59	7,116
265,81	4,120
266,02	0,223
266,23	2,785
266,45	7,036
266,66	5,843
266,87	5,713
267,09	1,177
267,30	7,107
267,52	7,594
267,73	1,799
267,94	4,669
268,16	4,574
268,37	6,212
268,58	2,397
268,80	1,969
269,01	2,088
269,22	8,947
269,44	3,403
269,65	4,927
269,86	3,064
270,08	8,436
270,29	2,066
270,50	5,390
270,72	7,285
270,93	2,480
271,14	1,081
271,36	6,955
271,57	4,585
271,78	3,832
272,00	3,993
272,21	5,947
272,42	5,396
272,64	4,506
272,85	2,954
273,06	1,194
273,28	2,865
273,49	7,162
273,70	7,862
273,92	7,402
274,13	6,427
274,34	6,128
274,56	5,642
274,77	2,976
274,98	4,022
275,20	3,230
275,41	7,964
275,62	6,903
275,84	5,109
276,05	7,591
276,26	2,454
276,47	1,824
276,69	6,827
276,90	4,262
277,11	4,055
277,33	3,593
277,54	5,102
277,75	6,376
277,97	2,113
278,18	7,086
278,39	7,154
278,61	1,871
278,82	4,862
279,03	0,631
279,24	3,735
279,46	4,807
279,67	3,956
279,88	3,990
280,10	6,858
280,31	0,116
280,52	7,320
280,73	-0,969
280,95	5,751
281,16	7,420
281,37	4,840
281,59	6,257
281,80	10,483
282,01	3,302
282,22	2,698
282,44	-0,013
282,65	8,218
282,86	8,000
283,08	3,243
283,29	5,352
283,50	4,391
283,71	3,472
283,93	4,242
284,14	8,370
284,35	3,391
284,56	5,151
284,78	3,199
284,99	4,333
285,20	4,964
285,42	5,062
285,63	1,815
285,84	3,003
286,05	1,600
286,27	3,794
286,48	2,219
286,69	3,437
286,90	2,661
287,12	2,311
287,33	2,252
287,54	1,405
287,75	4,415
287,97	4,564
288,18	4,415
288,39	2,969
288,60	6,516
288,82	6,163
289,03	-0,927
289,24	6,523
289,45	5,727
289,67	4,730
289,88	2,488
290,09	5,204
290,30	7,708
290,52	2,806
290,73	2,169
290,94	2,957
291,15	4,298
291,37	3,757
291,58	2,698
291,79	2,578
292,00	6,491
292,21	5,097
292,43	-0,443
292,64	3,232
292,85	0,578
293,06	6,125
293,28	3,827
293,49	0,992
293,70	5,196
293,91	4,254
294,12	4,044
294,34	2,027
294,55	1,688
294,76	3,622
294,97	7,966
295,19	0,445
295,40	5,288
295,61	5,764
295,82	0,711
296,03	2,107
296,25	3,027
296,46	-0,189
296,67	1,325
296,88	1,078
297,09	5,641
297,31	4,028
297,52	3,827
297,73	2,101
297,94	5,756
298,15	4,339
298,37	4,114
298,58	4,922
298,79	6,650
299,00	-0,414
299,21	2,209
299,43	2,665
299,64	6,795
299,85	6,187
300,06	2,773
300,27	2,262
300,49	8,846
300,70	4,054
300,91	4,598
301,12	4,166
301,33	8,220
301,54	2,819
301,76	5,726
301,97	1,957
302,18	1,507
302,39	5,888
302,60	4,251
302,82	4,902
303,03	6,663
303,24	5,463
303,45	5,014
303,66	6,525
303,87	2,792
304,09	6,137
304,30	2,469
304,51	2,895
304,72	5,384
304,93	5,768
305,14	2,755
305,36	1,795
305,57	3,193
305,78	4,312
305,99	2,223
306,20	3,405
306,41	1,699
306,62	3,124
306,84	3,199
307,05	2,829
307,26	4,133
307,47	6,030
307,68	5,189
307,89	2,969
308,11	3,894
308,32	1,641
308,53	3,367
308,74	0,679
308,95	4,521
309,16	2,628
309,37	6,215
309,59	3,313
309,80	4,072
310,01	3,922
310,22	6,648
310,43	2,512
310,64	5,982
310,85	5,903
311,06	3,848
311,28	4,635
311,49	2,847
311,70	6,156
311,91	2,395
312,12	2,691
312,33	4,388
312,54	4,548
312,75	2,162
312,97	2,488
313,18	4,953
313,39	3,934
313,60	4,380
313,81	4,934
314,02	4,831
314,23	1,581
314,44	2,303
314,65	4,800
314,87	2,598
315,08	5,224
315,29	6,144
315,50	4,440
315,71	6,107
315,92	4,468
316,13	5,641
316,34	5,664
316,55	6,222
316,77	2,689
316,98	3,792
317,19	2,213
317,40	4,591
317,61	5,735
317,82	2,411
318,03	2,207
318,24	3,822
318,45	5,969
318,66	3,489
318,87	0,821
319,09	5,061
319,30	2,446
319,51	4,537
319,72	6,404
319,93	4,977
320,14	6,151
320,35	5,065
320,56	1,926
320,77	0,476
320,98	10,191
321,19	3,927
321,40	3,845
321,62	4,085
321,83	6,390
322,04	5,152
322,25	2,244
322,46	7,091
322,67	6,108
322,88	4,730
323,09	2,053
323,30	5,237
323,51	3,730
323,72	5,157
323,93	1,214
324,14	0,894
324,35	0,398
324,56	1,329
324,77	2,559
324,99	3,762
325,20	-0,289
325,41	4,072
325,62	4,539
325,83	3,242
326,04	4,009
326,25	5,614
326,46	3,374
326,67	3,366
326,88	4,927
327,09	2,793
327,30	3,292
327,51	3,993
327,72	1,643
327,93	5,613
328,14	1,507
328,35	1,602
328,56	5,318
328,77	4,344
328,98	5,666
329,19	4,133
329,40	4,914
329,61	4,628
329,82	2,106
330,04	4,206
330,25	1,960
330,46	3,930
330,67	1,852
330,88	2,311
331,09	3,219
331,30	5,400
331,51	3,721
331,72	5,285
331,93	3,314
332,14	2,612
332,35	7,263
332,56	5,392
332,77	6,511
332,98	1,119
333,19	3,485
333,40	3,532
333,61	3,252
333,82	5,916
334,03	4,072
334,24	5,042
334,45	5,083
334,66	9,410
334,87	3,754
335,08	-0,408
335,29	1,659
335,50	2,104
335,71	2,611
335,92	4,963
336,13	6,405
336,34	0,741
336,55	4,602
336,76	7,816
336,97	3,140
337,18	0,701
337,39	3,255
337,60	4,795
337,81	4,013
338,02	2,398
338,23	4,618
338,44	4,349
338,65	4,256
338,86	5,484
339,07	0,974
339,28	3,709
339,49	3,903
339,70	0,660
339,91	3,128
340,11	5,576
340,32	1,481
340,53	0,980
340,74	1,647
340,95	3,240
341,16	4,571
341,37	6,319
341,58	0,874
341,79	3,999
342,00	3,681
342,21	6,389
342,42	3,826
342,63	4,730
342,84	-1,002
343,05	3,487
343,26	6,313
343,47	7,075
343,68	1,624
343,89	3,223
344,10	5,969
344,31	6,802
344,52	3,721
344,73	2,954
344,94	4,233
345,14	4,510
345,35	6,590
345,56	4,298
345,77	2,233
345,98	3,802
346,19	5,913
346,40	1,163
346,61	3,388
346,82	4,691
347,03	2,297
347,24	4,980
347,45	3,265
347,66	7,566
347,87	1,877
348,08	5,649
348,28	2,469
348,49	5,332
348,70	6,346
348,91	4,538
349,12	0,388
349,33	17,014
349,54	5,784
349,75	6,745
349,96	4,194
350,17	4,848
350,38	1,420
350,59	6,477
350,80	6,022
351,00	5,634
351,21	5,871
351,42	5,074
351,63	2,862
351,84	2,712
352,05	4,673
352,26	3,435
352,47	3,463
352,68	6,198
352,89	5,138
353,09	4,995
353,30	0,921
353,51	5,710
353,72	4,949
353,93	6,856
354,14	0,203
354,35	5,036
354,56	5,707
354,77	6,210
354,98	-0,222
355,18	2,427
355,39	5,968
355,60	3,770
355,81	6,002
356,02	4,500
356,23	3,030
356,44	3,226
356,65	4,444
356,85	9,959
357,06	3,829
357,27	6,609
357,48	3,886
357,69	2,552
357,90	3,841
358,11	4,573
358,32	3,806
358,52	5,154
358,73	1,879
358,94	1,843
359,15	7,870
359,36	5,249
359,57	4,812
359,78	3,853
359,98	3,020
360,19	0,379
360,40	6,128
360,61	5,852
360,82	3,078
361,03	7,289
361,24	7,294
361,44	1,712
361,65	4,196
361,86	2,229
362,07	4,599
362,28	1,357
362,49	2,513
362,70	3,631
362,90	5,183
363,11	1,590
363,32	1,220
363,53	4,915
363,74	4,286
363,95	5,067
364,15	4,584
364,36	6,271
364,57	5,041
364,78	5,723
364,99	5,203
365,20	5,914
365,40	5,384
365,61	2,562
365,82	7,199
366,03	5,819
366,24	5,309
366,45	2,483
366,65	4,165
366,86	1,754
367,07	5,105
367,28	2,490
367,49	6,283
367,69	7,610
367,90	2,554
368,11	4,973
368,32	2,221
368,53	4,219
368,73	7,611
368,94	3,048
369,15	5,780
369,36	6,275
369,57	4,989
369,78	0,081
369,98	4,478
370,19	7,020
370,40	4,983
370,61	3,934
370,82	5,155
371,02	6,513
371,23	7,923
371,44	4,817
371,65	2,141
371,85	7,749
372,06	1,706
372,27	1,865
372,48	2,758
372,69	3,178
372,89	0,638
373,10	-0,336
373,31	1,831
373,52	5,724
373,73	9,247
373,93	7,776
374,14	2,931
374,35	7,405
374,56	8,780
374,76	4,371
374,97	2,366
375,18	2,156
375,39	4,041
375,60	4,305
375,80	2,506
376,01	4,362
376,22	5,806
376,43	4,903
376,63	4,215
376,84	3,488
377,05	3,240
377,26	2,289
377,46	1,121
377,67	5,407
377,88	6,541
378,09	1,552
378,29	1,450
378,50	7,550
378,71	7,297
378,92	3,096
379,12	2,855
379,33	5,360
379,54	3,817
379,75	5,477
379,95	3,001
380,16	5,407
380,37	6,428
380,58	3,109
380,78	6,621
380,99	5,097
381,20	2,596
381,41	4,280
381,61	7,585
381,82	3,517
382,03	4,008
382,24	6,555
382,44	2,996
382,65	6,481
382,86	2,539
383,06	3,765
383,27	2,776
383,48	0,958
383,69	3,913
383,89	1,197
384,10	4,635
384,31	5,381
384,51	4,697
384,72	2,027
384,93	1,598
385,14	5,800
385,34	9,291
385,55	0,445
385,76	3,325
385,96	7,752
386,17	4,277
386,38	5,480
386,59	7,346
386,79	1,790
387,00	6,908
387,21	6,495
387,41	5,961
387,62	1,400
387,83	10,154
388,03	3,581
388,24	1,519
388,45	5,751
388,66	3,013
388,86	6,899
389,07	3,269
389,28	7,954
389,48	3,215
389,69	4,006
389,90	7,132
390,10	7,657
390,31	8,352
390,52	-0,976
390,72	4,489
390,93	6,085
391,14	4,140
391,34	2,838
391,55	5,658
391,76	7,326
391,96	5,875
392,17	2,257
392,38	7,054
392,58	5,625
392,79	3,142
393,00	1,054
393,20	2,410
393,41	3,079
393,62	5,850
393,82	4,998
394,03	6,695
394,24	5,773
394,44	5,897
394,65	6,496
394,86	4,402
395,06	8,434
395,27	6,653
395,48	2,684
395,68	5,257
395,89	7,258
396,10	5,219
396,30	4,832
396,51	4,627
396,72	9,015
396,92	6,397
397,13	6,578
397,34	1,086
397,54	8,631
397,75	4,783
397,95	3,833
398,16	6,837
398,37	5,440
398,57	6,143
398,78	10,432
398,99	9,074
399,19	7,788
399,40	10,265
399,60	3,654
399,81	6,264
400,02	4,804
400,22	8,624
400,43	2,576
400,64	5,479
400,84	6,608
401,05	6,469
401,25	8,744
401,46	8,871
401,67	6,498
401,87	3,372
402,08	7,473
402,29	2,949
402,49	9,304
402,70	9,649
402,90	4,818
403,11	5,994
403,32	7,902
403,52	7,766
403,73	7,205
403,93	11,395
404,14	11,763
404,35	7,811
404,55	6,390
404,76	7,834
404,96	4,706
405,17	10,898
405,38	9,436
405,58	7,702
405,79	9,023
405,99	8,700
406,20	8,573
406,40	3,438
406,61	8,700
406,82	11,242
407,02	9,428
407,23	8,758
407,43	7,578
407,64	10,731
407,85	11,470
408,05	7,748
408,26	18,297
408,46	12,788
408,67	9,329
408,87	9,751
409,08	8,052
409,29	11,538
409,49	14,327
409,70	14,403
409,90	12,038
410,11	15,770
410,31	15,890
410,52	12,334
410,72	8,549
410,93	9,503
411,14	8,222
411,34	7,013
411,55	16,421
411,75	13,850
411,96	12,477
412,16	12,565
412,37	12,819
412,57	16,205
412,78	10,405
412,99	11,871
413,19	10,271
413,40	13,763
413,60	11,015
413,81	13,768
414,01	12,521
414,22	12,937
414,42	11,405
414,63	9,875
414,83	14,839
415,04	16,274
415,24	16,326
415,45	14,438
415,65	10,844
415,86	10,909
416,07	15,222
416,27	13,220
416,48	17,376
416,68	15,877
416,89	10,543
417,09	15,336
417,30	15,603
417,50	18,394
417,71	17,358
417,91	16,103
418,12	13,108
418,32	15,668
418,53	18,892
418,73	15,648
418,94	17,533
419,14	17,991
419,35	15,250
419,55	16,855
419,76	17,391
419,96	14,193
420,17	15,273
420,37	16,009
420,58	18,758
420,78	18,611
420,99	17,567
421,19	18,609
421,40	19,702
421,60	18,475
421,81	16,972
422,01	19,224
422,22	16,115
422,42	18,106
422,63	17,016
422,83	17,525
423,04	21,366
423,24	19,232
423,45	17,196
423,65	18,993
423,86	23,457
424,06	20,112
424,27	19,896
424,47	20,120
424,67	15,164
424,88	18,507
425,08	19,400
425,29	24,333
425,49	18,127
425,70	15,114
425,90	20,233
426,11	21,420
426,31	20,130
426,52	19,521
426,72	15,950
426,93	18,277
427,13	22,193
427,33	22,438
427,54	18,979
427,74	22,232
427,95	24,736
428,15	15,781
428,36	23,920
428,56	21,754
428,77	24,904
428,97	19,250
429,18	24,487
429,38	18,058
429,58	25,870
429,79	24,586
429,99	23,181
430,20	14,765
430,40	22,750
430,61	19,935
430,81	20,735
431,01	24,222
431,22	19,684
431,42	26,437
431,63	21,070
431,83	24,552
432,04	21,894
432,24	26,180
432,44	19,251
432,65	22,186
432,85	21,342
433,06	26,661
433,26	17,694
433,47	18,832
433,67	19,305
433,87	20,268
434,08	20,773
434,28	20,654
434,49	21,451
434,69	25,362
434,89	18,726
435,10	21,820
435,30	23,965
435,51	17,366
435,71	24,079
435,91	21,368
436,12	19,590
436,32	21,900
436,53	21,595
436,73	20,213
436,93	21,820
437,14	24,469
437,34	22,859
437,55	23,379
437,75	23,854
437,95	25,068
438,16	25,663
438,36	22,899
438,57	18,718
438,77	22,612
438,97	25,476
439,18	24,540
439,38	20,744
439,58	20,487
439,79	24,685
439,99	19,965
440,20	29,463
440,40	22,540
440,60	24,773
440,81	26,190
441,01	21,149
441,21	25,209
441,42	24,146
441,62	23,339
441,83	24,383
442,03	28,212
442,23	23,562
442,44	23,260
442,64	23,297
442,84	18,906
443,05	26,828
443,25	22,647
443,45	26,352
443,66	23,598
443,86	21,283
444,06	20,644
444,27	23,107
444,47	23,129
444,67	20,401
444,88	27,130
445,08	21,048
445,28	24,671
445,49	20,285
445,69	21,243
445,90	27,152
446,10	25,505
446,30	26,847
446,51	22,825
446,71	26,645
446,91	29,473
447,12	27,768
447,32	23,634
447,52	25,149
447,72	21,817
447,93	24,528
448,13	23,297
448,33	29,245
448,54	28,468
448,74	22,277
448,94	26,445
449,15	24,778
449,35	24,304
449,55	24,071
449,76	26,079
449,96	23,533
450,16	29,026
450,37	22,361
450,57	25,330
450,77	23,227
450,98	30,693
451,18	23,858
451,38	26,538
451,58	27,320
451,79	23,881
451,99	27,778
452,19	24,585
452,40	24,513
452,60	20,963
452,80	22,796
453,00	25,439
453,21	27,012
453,41	24,421
453,61	23,210
453,82	28,050
454,02	20,833
454,22	26,624
454,42	27,616
454,63	25,266
454,83	21,883
455,03	26,066
455,24	24,516
455,44	27,123
455,64	25,102
455,84	23,598
456,05	21,886
456,25	24,841
456,45	25,242
456,65	23,475
456,86	25,371
457,06	26,629
457,26	24,659
457,47	29,615
457,67	22,335
457,87	22,909
458,07	25,471
458,28	27,706
458,48	28,849
458,68	21,678
458,88	24,720
459,09	24,229
459,29	29,303
459,49	23,993
459,69	23,452
459,90	30,338
460,10	22,123
460,30	26,170
460,50	20,634
460,71	25,749
460,91	24,238
461,11	23,631
461,31	23,521
461,52	26,281
461,72	21,827
461,92	25,089
462,12	31,167
462,32	23,001
462,53	26,125
462,73	18,997
462,93	28,356
463,13	22,927
463,34	21,624
463,54	23,844
463,74	23,459
463,94	21,954
464,14	24,135
464,35	18,862
464,55	24,579
464,75	26,460
464,95	25,331
465,16	21,529
465,36	26,962
465,56	23,102
465,76	22,781
465,96	22,926
466,17	20,150
466,37	23,371
466,57	26,787
466,77	24,840
466,97	25,059
467,18	27,552
467,38	22,054
467,58	24,165
467,78	25,938
467,98	26,231
468,19	24,976
468,39	24,711
468,59	24,208
468,79	23,824
468,99	24,796
469,19	25,336
469,40	24,839
469,60	17,191
469,80	21,823
470,00	26,772
470,20	25,496
470,41	25,087
470,61	22,844
470,81	21,544
471,01	24,986
471,21	26,645
471,41	24,232
471,62	21,246
471,82	22,362
472,02	22,463
472,22	23,400
472,42	21,900
472,62	24,802
472,83	25,306
473,03	24,756
473,23	21,882
473,43	29,210
473,63	21,486
473,83	25,793
474,03	22,490
474,24	25,357
474,44	19,061
474,64	22,817
474,84	21,235
475,04	25,035
475,24	20,769
475,45	23,726
475,65	20,522
475,85	24,923
476,05	20,605
476,25	21,036
476,45	22,794
476,65	27,094
476,85	25,327
477,06	21,236
477,26	22,545
477,46	23,440
477,66	22,380
477,86	24,548
478,06	22,676
478,26	26,624
478,46	22,713
478,67	22,035
478,87	23,123
479,07	25,215
479,27	22,773
479,47	22,186
479,67	20,289
479,87	18,295
480,07	20,743
480,28	21,222
480,48	21,000
480,68	22,570
480,88	29,281
481,08	23,937
481,28	23,643
481,48	22,051
481,68	21,045
481,88	22,068
482,08	20,237
482,29	20,739
482,49	19,847
482,69	20,378
482,89	21,348
483,09	21,758
483,29	20,218
483,49	20,287
483,69	22,784
483,89	20,694
484,09	20,042
484,29	18,014
484,50	21,178
484,70	21,609
484,90	23,618
485,10	20,000
485,30	21,731
485,50	23,460
485,70	21,344
485,90	19,518
486,10	18,355
486,30	20,097
486,50	20,491
486,70	22,972
486,90	19,485
487,10	22,656
487,30	20,386
487,51	20,641
487,71	18,497
487,91	18,751
488,11	21,977
488,31	17,243
488,51	21,796
488,71	17,957
488,91	20,821
489,11	18,885
489,31	20,883
489,51	18,499
489,71	19,700
489,91	20,277
490,11	19,126
490,31	19,430
490,51	23,963
490,71	18,921
490,91	20,488
491,11	21,804
491,31	21,637
491,51	17,712
491,72	19,354
491,92	20,900
492,12	22,067
492,32	19,411
492,52	22,015
492,72	21,219
492,92	18,777
493,12	19,882
493,32	17,960
493,52	15,761
493,72	18,737
493,92	19,430
494,12	22,199
494,32	21,731
494,52	18,606
494,72	17,994
494,92	17,175
495,12	21,899
495,32	21,737
495,52	17,293
495,72	21,022
495,92	24,614
496,12	21,338
496,32	17,490
496,52	19,571
496,72	17,714
496,92	19,758
497,12	21,205
497,32	20,939
497,52	20,214
497,72	21,768
497,92	21,507
498,12	20,090
498,32	19,000
498,52	17,781
498,72	18,260
498,92	17,103
499,12	20,729
499,32	18,976
499,52	20,369
499,72	19,676
499,92	19,923
500,12	22,185
500,32	21,378
500,52	18,034
500,72	23,708
500,91	20,332
501,11	18,185
501,31	15,940
501,51	21,223
501,71	19,996
501,91	20,923
502,11	20,042
502,31	17,862
502,51	21,497
502,71	16,999
502,91	19,969
503,11	17,686
503,31	19,968
503,51	16,207
503,71	16,278
503,91	19,484
504,11	19,016
504,31	19,435
504,51	20,051
504,71	21,087
504,91	18,256
505,10	18,994
505,30	19,143
505,50	21,375
505,70	17,973
505,90	17,824
506,10	17,291
506,30	17,464
506,50	19,271
506,70	20,826
506,90	17,209
507,10	16,184
507,30	15,408
507,50	20,110
507,70	18,002
507,89	18,110
508,09	17,589
508,29	17,559
508,49	16,135
508,69	15,693
508,89	17,799
509,09	16,503
509,29	16,912
509,49	19,238
509,69	21,052
509,89	17,245
510,09	14,344
510,28	18,006
510,48	15,880
510,68	13,455
510,88	13,379
511,08	14,825
511,28	17,958
511,48	15,962
511,68	14,666
511,88	13,072
512,07	15,989
512,27	17,427
512,47	14,752
512,67	16,461
512,87	15,294
513,07	16,401
513,27	14,487
513,47	16,604
513,67	15,622
513,86	15,555
514,06	16,633
514,26	13,717
514,46	17,129
514,66	16,965
514,86	16,363
515,06	20,781
515,26	16,523
515,45	16,491
515,65	12,882
515,85	15,992
516,05	13,520
516,25	15,563
516,45	17,653
516,65	12,990
516,84	15,366
517,04	17,052
517,24	13,998
517,44	13,748
517,64	17,593
517,84	15,536
518,04	13,920
518,23	17,181
518,43	18,922
518,63	16,776
518,83	14,272
519,03	16,865
519,23	16,478
519,42	13,936
519,62	15,083
519,82	16,137
520,02	14,413
520,22	13,878
520,42	15,430
520,61	18,168
520,81	14,562
521,01	15,720
521,21	12,116
521,41	15,421
521,61	18,479
521,80	14,318
522,00	14,764
522,20	16,299
522,40	17,563
522,60	13,170
522,79	15,832
522,99	15,466
523,19	13,222
523,39	14,812
523,59	13,896
523,78	15,861
523,98	13,801
524,18	13,870
524,38	13,492
524,58	14,744
524,77	16,914
524,97	13,622
525,17	18,188
525,37	14,645
525,57	17,226
525,76	13,137
525,96	13,261
526,16	12,536
526,36	12,854
526,56	14,391
526,75	12,377
526,95	14,771
527,15	14,852
527,35	14,808
527,55	12,973
527,74	16,358
527,94	12,229
528,14	11,541
528,34	13,189
528,53	12,100
528,73	12,910
528,93	14,012
529,13	12,654
529,32	12,207
529,52	17,894
529,72	9,772
529,92	12,045
530,12	9,610
530,31	10,462
530,51	13,861
530,71	12,210
530,91	14,494
531,10	10,088
531,30	12,777
531,50	12,231
531,70	13,052
531,89	14,677
532,09	12,625
532,29	11,845
532,49	13,010
532,68	13,335
532,88	12,105
533,08	10,797
533,28	11,099
533,47	15,713
533,67	12,847
533,87	9,974
534,06	14,931
534,26	13,036
534,46	10,335
534,66	12,682
534,85	11,458
535,05	8,022
535,25	11,210
535,45	9,250
535,64	12,116
535,84	12,667
536,04	13,152
536,23	11,647
536,43	12,222
536,63	11,689
536,83	11,305
537,02	10,710
537,22	9,561
537,42	11,483
537,61	10,050
537,81	11,723
538,01	11,377
538,20	9,667
538,40	11,204
538,60	12,162
538,80	11,219
538,99	10,684
539,19	8,990
539,39	11,396
539,58	12,114
539,78	10,028
539,98	10,055
540,17	9,618
540,37	10,557
540,57	9,762
540,76	11,161
540,96	8,139
541,16	10,244
541,36	6,869
541,55	5,851
541,75	7,755
541,95	7,553
542,14	9,155
542,34	7,495
542,54	7,023
542,73	8,522
542,93	9,465
543,13	8,995
543,32	7,730
543,52	9,400
543,72	6,676
543,91	7,580
544,11	6,204
544,31	7,387
544,50	8,529
544,70	7,142
544,89	7,844
545,09	9,997
545,29	8,719
545,48	8,330
545,68	7,318
545,88	7,932
546,07	8,265
546,27	8,000
546,47	8,073
546,66	9,821
546,86	9,732
547,06	7,746
547,25	8,646
547,45	9,524
547,64	8,056
547,84	10,423
548,04	8,998
548,23	9,925
548,43	10,192
548,63	11,392
548,82	9,841
549,02	7,554
549,21	10,931
549,41	11,581
549,61	11,042
549,80	8,922
550,00	9,237
550,20	8,059
550,39	11,352
550,59	8,717
550,78	10,725
550,98	7,376
551,18	11,929
551,37	10,274
551,57	8,966
551,76	10,133
551,96	9,815
552,16	8,611
552,35	9,456
552,55	8,808
552,74	11,784
552,94	12,348
553,14	8,612
553,33	8,757
553,53	8,521
553,72	10,971
553,92	10,746
554,12	11,672
554,31	9,256
554,51	11,901
554,70	7,672
554,90	10,389
555,09	14,389
555,29	11,677
555,49	11,128
555,68	13,267
555,88	8,582
556,07	8,701
556,27	12,254
556,46	9,220
556,66	8,763
556,86	12,358
557,05	11,687
557,25	10,452
557,44	9,933
557,64	7,985
557,83	7,103
558,03	9,064
558,22	9,292
558,42	10,358
558,62	11,197
558,81	11,363
559,01	9,770
559,20	11,191
559,40	8,288
559,59	9,112
559,79	8,761
559,98	12,670
560,18	8,341
560,37	9,196
560,57	12,155
560,76	10,520
560,96	9,650
561,16	11,522
561,35	11,201
561,55	13,871
561,74	10,398
561,94	9,852
562,13	10,738
562,33	10,878
562,52	9,719
562,72	8,133
562,91	8,738
563,11	7,554
563,30	9,992
563,50	7,762
563,69	11,698
563,89	9,571
564,08	10,734
564,28	9,403
564,47	10,588
564,67	10,197
564,86	10,269
565,06	9,503
565,25	10,798
565,45	9,797
565,64	12,899
565,84	10,267
566,03	7,784
566,23	10,966
566,42	12,260
566,62	9,599
566,81	8,989
567,01	10,046
567,20	9,416
567,40	7,669
567,59	10,700
567,79	11,227
567,98	12,445
568,18	10,613
568,37	11,514
568,57	11,984
568,76	11,228
568,96	10,596
569,15	10,386
569,35	12,896
569,54	11,990
569,73	11,924
569,93	10,248
570,12	10,979
570,32	10,637
570,51	10,095
570,71	10,344
570,90	11,978
571,10	10,686
571,29	10,403
571,49	10,270
571,68	11,852
571,87	9,896
572,07	11,157
572,26	8,600
572,46	10,575
572,65	11,309
572,85	8,997
573,04	11,924
573,24	10,088
573,43	12,922
573,62	11,824
573,82	11,079
574,01	10,380
574,21	11,686
574,40	10,154
574,60	8,359
574,79	12,094
574,98	11,368
575,18	11,928
575,37	9,767
575,57	11,106
575,76	11,023
575,96	10,935
576,15	10,645
576,34	10,762
576,54	11,442
576,73	11,428
576,93	10,297
577,12	12,367
577,31	11,238
577,51	8,894
577,70	9,221
577,90	11,770
578,09	10,929
578,28	10,889
578,48	11,171
578,67	14,509
578,87	11,579
579,06	11,148
579,25	12,666
579,45	11,566
579,64	10,843
579,84	11,376
580,03	11,051
580,22	11,751
580,42	11,159
580,61	11,127
580,81	10,072
581,00	12,699
581,19	11,769
581,39	11,095
581,58	11,485
581,77	12,671
581,97	12,524
582,16	11,373
582,35	10,535
582,55	12,845
582,74	14,008
582,94	12,698
583,13	9,600
583,32	12,643
583,52	12,656
583,71	10,315
583,90	11,631
584,10	11,361
584,29	14,328
584,48	12,031
584,68	12,505
584,87	14,044
585,06	12,668
585,26	11,557
585,45	11,646
585,65	13,616
585,84	12,966
586,03	13,363
586,23	11,010
586,42	13,778
586,61	13,693
586,81	12,528
587,00	12,575
587,19	11,296
587,39	14,731
587,58	14,254
587,77	14,371
587,97	12,973
588,16	13,376
588,35	13,265
588,54	14,496
588,74	13,232
588,93	15,243
589,12	13,544
589,32	13,963
589,51	15,147
589,70	12,498
589,90	14,432
590,09	14,512
590,28	17,097
590,48	13,879
590,67	14,057
590,86	14,351
591,06	14,908
591,25	15,231
591,44	15,947
591,63	15,893
591,83	16,079
592,02	14,298
592,21	14,761
592,41	14,771
592,60	14,701
592,79	13,988
592,98	15,648
593,18	15,945
593,37	15,157
593,56	17,233
593,76	15,066
593,95	16,013
594,14	14,030
594,33	17,794
594,53	15,817
594,72	16,777
594,91	18,196
595,10	17,006
595,30	16,161
595,49	14,616
595,68	18,147
595,88	17,511
596,07	16,282
596,26	17,541
596,45	16,354
596,65	12,477
596,84	16,085
597,03	17,991
597,22	18,371
597,42	18,850
597,61	18,087
597,80	18,053
597,99	16,999
598,19	18,589
598,38	18,894
598,57	17,822
598,76	19,177
598,95	16,873
599,15	17,738
599,34	18,619
599,53	18,468
599,72	18,483
599,92	18,684
600,11	17,448
600,30	19,740
600,49	20,711
600,69	18,323
600,88	18,599
601,07	19,019
601,26	18,716
601,45	19,180
601,65	18,325
601,84	19,171
602,03	18,296
602,22	19,367
602,42	21,703
602,61	19,472
602,80	19,302
602,99	18,974
603,18	18,068
603,38	19,501
603,57	19,928
603,76	18,888
603,95	18,785
604,14	20,284
604,34	19,695
604,53	19,721
604,72	21,026
604,91	22,042
605,10	20,968
605,29	20,899
605,49	18,727
605,68	21,028
605,87	20,293
606,06	19,802
606,25	19,387
606,45	21,094
606,64	20,342
606,83	21,279
607,02	19,599
607,21	20,740
607,40	21,431
607,60	19,910
607,79	18,811
607,98	19,743
608,17	19,558
608,36	20,362
608,55	20,169
608,75	20,942
608,94	20,072
609,13	17,517
609,32	17,396
609,51	18,084
609,70	19,106
609,89	18,169
610,09	18,770
610,28	21,385
610,47	17,855
610,66	16,572
610,85	16,936
611,04	20,459
611,23	17,718
611,43	18,163
611,62	18,676
611,81	18,122
612,00	18,665
612,19	17,423
612,38	17,943
612,57	20,086
612,77	20,416
612,96	20,336
613,15	20,091
613,34	21,360
613,53	20,874
613,72	22,315
613,91	21,914
614,10	20,924
614,29	22,843
614,49	21,023
614,68	20,574
614,87	22,195
615,06	24,852
615,25	22,181
615,44	23,549
615,63	21,604
615,82	22,444
616,01	21,613
616,21	21,042
616,40	23,913
616,59	23,488
616,78	22,981
616,97	22,445
617,16	23,529
617,35	22,418
617,54	24,495
617,73	24,407
617,92	22,787
618,11	24,945
618,31	22,196
618,50	24,497
618,69	22,634
618,88	23,321
619,07	23,041
619,26	22,281
619,45	22,446
619,64	22,843
619,83	23,161
620,02	22,391
620,21	23,390
620,40	24,909
620,59	24,363
620,78	23,537
620,97	23,717
621,17	25,501
621,36	24,577
621,55	25,047
621,74	25,439
621,93	23,631
622,12	23,795
622,31	24,192
622,50	24,106
622,69	26,071
622,88	25,616
623,07	25,418
623,26	24,898
623,45	26,975
623,64	22,988
623,83	24,720
624,02	27,013
624,21	26,324
624,40	25,434
624,59	23,391
624,78	24,590
624,97	25,929
625,16	25,590
625,35	22,808
625,54	23,390
625,73	25,851
625,92	24,767
626,12	27,207
626,31	27,836
626,50	26,790
626,69	26,160
626,88	23,379
627,07	26,808
627,26	26,496
627,45	24,344
627,64	25,440
627,83	27,966
628,02	25,601
628,21	26,142
628,40	26,117
628,59	26,850
628,78	25,012
628,97	26,129
629,16	24,351
629,35	25,146
629,54	27,347
629,73	25,756
629,92	25,702
630,10	27,468
630,29	27,330
630,48	26,889
630,67	27,088
630,86	27,731
631,05	26,675
631,24	29,008
631,43	24,944
631,62	27,330
631,81	26,539
632,00	25,958
632,19	25,682
632,38	27,966
632,57	27,780
632,76	28,238
632,95	27,766
633,14	28,310
633,33	28,545
633,52	26,905
633,71	28,595
633,90	26,639
634,09	27,800
634,28	27,848
634,47	26,108
634,66	28,372
634,85	27,470
635,04	30,184
635,22	27,524
635,41	26,890
635,60	28,734
635,79	27,852
635,98	26,677
636,17	27,833
636,36	26,903
636,55	28,628
636,74	27,796
636,93	27,160
637,12	28,532
637,31	28,237
637,50	26,969
637,69	30,189
637,87	28,977
638,06	28,839
638,25	28,264
638,44	29,155
638,63	26,948
638,82	28,480
639,01	27,839
639,20	26,832
639,39	29,065
639,58	29,621
639,77	30,296
639,95	26,692
640,14	30,093
640,33	27,257
640,52	28,099
640,71	30,231
640,90	28,543
641,09	32,211
641,28	28,068
641,47	29,357
641,66	29,951
641,84	29,356
642,03	28,524
642,22	29,025
642,41	31,147
642,60	29,490
642,79	29,071
642,98	27,830
643,17	28,153
643,35	28,442
643,54	27,607
643,73	28,997
643,92	30,692
644,11	28,008
644,30	29,220
644,49	31,442
644,67	29,133
644,86	26,974
645,05	30,621
645,24	29,474
645,43	29,238
645,62	29,617
645,81	28,591
645,99	31,338
646,18	30,941
646,37	29,289
646,56	30,908
646,75	32,000
646,94	31,273
647,13	29,154
647,31	28,061
647,50	29,539
647,69	30,540
647,88	30,205
648,07	30,204
648,26	31,365
648,44	29,576
648,63	29,614
648,82	30,190
649,01	31,878
649,20	28,072
649,38	30,457
649,57	31,445
649,76	28,268
649,95	30,787
650,14	29,260
650,33	28,852
650,51	30,765
650,70	30,502
650,89	29,387
651,08	30,320
651,27	30,574
651,45	28,458
651,64	29,038
651,83	32,479
652,02	30,113
652,21	30,015
652,39	31,272
652,58	31,860
652,77	30,961
652,96	32,467
653,15	32,164
653,33	32,047
653,52	31,543
653,71	33,123
653,90	31,046
654,09	31,965
654,27	32,287
654,46	34,319
654,65	33,162
654,84	32,579
655,02	32,934
655,21	33,490
655,40	33,455
655,59	31,932
655,77	34,012
655,96	32,250
656,15	32,469
656,34	33,396
656,53	32,078
656,71	32,389
656,90	32,874
657,09	33,974
657,28	33,845
657,46	31,400
657,65	31,986
657,84	31,977
658,03	33,774
658,21	30,778
658,40	31,447
658,59	30,897
658,78	32,619
658,96	31,201
659,15	30,817
659,34	30,412
659,52	31,342
659,71	30,490
659,90	28,927
660,09	30,521
660,27	30,523
660,46	31,692
660,65	30,989
660,84	28,899
661,02	30,003
661,21	30,902
661,40	31,295
661,58	31,289
661,77	31,068
661,96	28,632
662,15	30,950
662,33	30,963
662,52	29,100
662,71	32,122
662,89	29,213
663,08	30,425
663,27	28,861
663,45	32,349
663,64	31,954
663,83	29,252
664,02	30,555
664,20	31,957
664,39	28,660
664,58	30,909
664,76	30,628
664,95	30,725
665,14	30,132
665,32	29,650
665,51	31,289
665,70	29,791
665,88	33,355
666,07	30,280
666,26	32,789
666,44	31,400
666,63	30,444
666,82	31,711
667,00	30,722
667,19	29,387
667,38	30,918
667,56	32,421
667,75	32,105
667,94	31,069
668,12	30,194
668,31	31,156
668,50	31,875
668,68	31,838
668,87	31,523
669,06	30,860
669,24	31,813
669,43	28,335
669,62	29,124
669,80	29,742
669,99	29,514
670,18	32,141
670,36	28,615
670,55	30,791
670,74	30,126
670,92	29,114
671,11	31,460
671,29	30,670
671,48	32,310
671,67	30,940
671,85	32,114
672,04	29,758
672,23	30,358
672,41	31,169
672,60	30,767
672,78	30,093
672,97	30,227
673,16	30,678
673,34	31,184
673,53	31,702
673,71	30,033
673,90	31,857
674,09	30,552
674,27	30,061
674,46	29,451
674,64	31,643
674,83	31,306
675,02	31,074
675,20	31,448
675,39	30,797
675,57	31,943
675,76	30,905
675,95	32,401
676,13	31,434
676,32	31,181
676,50	29,690
676,69	28,916
676,88	29,937
677,06	29,707
677,25	29,167
677,43	33,139
677,62	32,002
677,80	30,642
677,99	31,437
678,18	31,355
678,36	31,020
678,55	29,506
678,73	31,052
678,92	30,597
679,10	31,497
679,29	30,884
679,48	30,497
679,66	30,765
679,85	29,529
680,03	30,366
680,22	29,915
680,40	32,051
680,59	30,207
680,77	29,532
680,96	30,297
681,15	31,310
681,33	32,581
681,52	28,817
681,70	29,674
681,89	32,023
682,07	32,569
682,26	30,170
682,44	30,517
682,63	30,819
682,81	32,325
683,00	32,236
683,18	29,160
683,37	31,646
683,55	30,310
683,74	30,904
683,92	34,810
684,11	32,876
684,29	31,088
684,48	29,849
684,67	30,830
684,85	32,259
685,04	31,725
685,22	29,851
685,41	30,194
685,59	31,495
685,78	31,547
685,96	30,437
686,15	31,678
686,33	29,897
686,52	30,863
686,70	30,636
686,89	31,592
687,07	32,190
687,26	32,951
687,44	32,424
687,62	29,697
687,81	32,431
687,99	31,589
688,18	29,613
688,36	31,069
688,55	31,368
688,73	31,794
688,92	29,845
689,10	31,337
689,29	32,089
689,47	32,102
689,66	31,265
689,84	30,694
690,03	30,357
690,21	29,107
690,40	31,151
690,58	29,507
690,76	29,389
690,95	30,746
691,13	31,074
691,32	32,463
691,50	31,740
691,69	31,252
691,87	29,536
692,06	29,372
692,24	29,291
692,43	31,627
692,61	30,191
692,79	30,558
692,98	29,756
693,16	32,164
693,35	30,461
693,53	30,479
693,72	30,972
693,90	32,581
694,08	29,203
694,27	29,317
694,45	30,582
694,64	32,477
694,82	30,886
695,01	29,765
695,19	30,023
695,37	28,897
695,56	30,910
695,74	30,093
695,93	32,706
696,11	29,241
696,29	31,733
696,48	31,998
696,66	30,174
696,85	30,536
697,03	29,364
697,21	32,186
697,40	31,133
697,58	31,056
697,77	30,444
697,95	32,009
698,13	32,107
698,32	29,903
698,50	32,536
698,69	30,411
698,87	31,861
699,05	31,157
699,24	30,127
699,42	30,888
699,60	27,740
699,79	30,528
699,97	30,193
700,16	29,314
700,34	31,323
700,52	31,080
700,71	30,088
700,89	29,828
701,07	30,746
701,26	30,490
701,44	29,370
701,63	30,423
701,81	31,051
701,99	30,363
702,18	30,047
702,36	29,110
702,54	31,928
702,73	30,377
702,91	31,252
703,09	29,614
703,28	29,991
703,46	30,592
703,64	30,922
703,83	29,814
704,01	30,664
704,19	30,670
704,38	28,660
704,56	30,544
704,74	31,243
704,93	30,425
705,11	30,454
705,29	30,261
705,48	32,763
705,66	29,849
705,84	31,393
706,03	27,861
706,21	31,087
706,39	30,434
706,58	29,864
706,76	28,223
706,94	30,554
707,12	31,712
707,31	29,875
707,49	29,855
707,67	30,068
707,86	31,993
708,04	30,312
708,22	30,040
708,41	28,897
708,59	30,273
708,77	30,112
708,95	30,712
709,14	32,876
709,32	30,416
709,50	30,647
709,69	28,562
709,87	29,216
710,05	31,576
710,23	31,447
710,42	29,344
710,60	30,712
710,78	31,919
710,97	29,866
711,15	30,956
711,33	32,429
711,51	28,900
711,70	28,765
711,88	29,639
712,06	32,428
712,24	30,602
712,43	30,331
712,61	30,131
712,79	29,041
712,97	28,374
713,16	30,938
713,34	31,070
713,52	30,982
713,70	30,557
713,89	30,498
714,07	30,319
714,25	30,763
714,43	32,422
714,62	29,601
714,80	30,380
714,98	29,067
715,16	31,220
715,35	29,647
715,53	29,468
715,71	30,648
715,89	32,160
716,07	31,726
716,26	32,927
716,44	31,844
716,62	31,442
716,80	30,731
716,99	29,472
717,17	32,387
717,35	30,115
717,53	29,690
717,71	29,378
717,90	32,507
718,08	30,586
718,26	27,948
718,44	30,476
718,62	30,483
718,81	29,988
718,99	28,778
719,17	30,405
719,35	30,171
719,53	28,220
719,72	28,851
719,90	30,455
720,08	29,135
720,26	32,363
720,44	29,774
720,62	31,047
720,81	32,100
720,99	33,268
721,17	29,952
721,35	32,564
721,53	31,963
721,72	32,557
721,90	31,064
722,08	29,751
722,26	31,986
722,44	31,080
722,62	31,391
722,81	29,180
722,99	30,417
723,17	31,741
723,35	32,018
723,53	28,712
723,71	31,211
723,89	31,828
724,08	30,858
724,26	31,266
724,44	29,305
724,62	30,664
724,80	30,285
724,98	30,293
725,16	31,564
725,35	31,731
725,53	29,578
725,71	29,811
725,89	31,472
726,07	31,282
726,25	31,795
726,43	30,129
726,61	30,840
726,80	31,033
726,98	30,784
727,16	29,806
727,34	31,031
727,52	31,721
727,70	29,145
727,88	31,880
728,06	29,068
728,25	28,277
728,43	30,800
728,61	30,213
728,79	30,467
728,97	28,402
729,15	29,658
729,33	32,538
729,51	31,816
729,69	30,031
729,87	30,390
730,06	30,324
730,24	31,124
730,42	32,182
730,60	30,180
730,78	29,957
730,96	29,744
731,14	32,173
731,32	30,691
731,50	28,671
731,68	31,158
731,86	30,002
732,04	31,586
732,22	31,665
732,41	34,151
732,59	29,897
732,77	31,418
732,95	31,453
733,13	31,536
733,31	30,381
733,49	28,663
733,67	32,295
733,85	29,877
734,03	31,554
734,21	29,007
734,39	28,660
734,57	31,482
734,75	32,353
734,93	30,355
735,11	30,562
735,29	28,953
735,47	31,422
735,65	30,215
735,84	29,948
736,02	30,840
736,20	34,066
736,38	29,913
736,56	31,130
736,74	33,076
736,92	30,324
737,10	30,271
737,28	30,420
737,46	33,112
737,64	30,475
737,82	30,075
738,00	30,417
738,18	32,447
738,36	30,581
738,54	29,709
738,72	30,691
738,90	31,473
739,08	31,833
739,26	29,132
739,44	30,366
739,62	30,867
739,80	28,663
739,98	30,739
740,16	31,012
740,34	30,745
740,52	33,025
740,70	30,398
740,88	30,565
741,06	28,662
741,24	31,496
741,42	32,737
741,60	28,913
741,78	32,821
741,96	30,962
742,14	29,330
742,32	28,209
742,50	32,209
742,68	28,906
742,86	31,020
743,04	28,936
743,21	31,315
743,39	30,860
743,57	29,411
743,75	29,389
743,93	29,575
744,11	27,745
744,29	29,375
744,47	30,060
744,65	29,661
744,83	30,131
745,01	30,033
745,19	32,144
745,37	31,300
745,55	30,339
745,73	30,944
745,91	28,395
746,09	31,855
746,27	29,334
746,45	28,987
746,62	30,426
746,80	29,236
746,98	29,721
747,16	30,067
747,34	29,862
747,52	30,416
747,70	30,346
747,88	31,095
748,06	30,200
748,24	29,666
748,42	32,626
748,60	29,269
748,78	30,856
748,95	33,881
749,13	32,192
749,31	31,231
749,49	31,539
749,67	33,371
749,85	33,070
750,03	29,527
750,21	31,163
750,39	30,586
750,57	32,660
750,74	31,281
750,92	29,495
751,10	33,769
751,28	30,313
751,46	30,929
751,64	32,862
751,82	32,407
752,00	31,409
752,17	32,155
752,35	30,034
752,53	30,312
752,71	30,049
752,89	31,437
753,07	29,913
753,25	31,999
753,43	29,948
753,60	33,550
753,78	29,881
753,96	32,141
754,14	30,768
754,32	32,442
754,50	31,218
754,68	30,569
754,85	30,904
755,03	30,962
755,21	30,801
755,39	33,917
755,57	30,228
755,75	31,435
755,92	30,580
756,10	32,031
756,28	32,890
756,46	29,059
756,64	30,746
756,82	30,487
756,99	30,040
757,17	31,082
757,35	29,829
757,53	33,003
757,71	32,768
757,89	28,094
758,06	30,396
758,24	32,242
758,42	30,970
758,60	29,501
758,78	31,758
758,95	30,209
759,13	30,753
759,31	29,245
759,49	28,588
759,67	30,261
759,84	30,609
760,02	30,786
760,20	29,370
760,38	32,641
760,56	29,306
760,73	29,742
760,91	31,102
761,09	32,436
761,27	30,502
761,45	29,644
761,62	32,107
761,80	31,088
761,98	31,354
762,16	31,761
762,33	30,508
762,51	34,124
762,69	29,920
762,87	29,032
763,05	32,234
763,22	29,930
763,40	31,164
763,58	30,377
763,76	30,382
763,93	32,909
764,11	31,691
764,29	28,947
764,47	31,312
764,64	32,040
764,82	33,418
765,00	30,845
765,18	28,523
765,35	30,491
765,53	30,832
765,71	29,282
765,89	31,134
766,06	31,171
766,24	31,077
766,42	31,932
766,60	27,821
766,77	31,436
766,95	28,984
767,13	29,903
767,30	28,719
767,48	29,814
767,66	30,020
767,84	29,303
768,01	28,783
768,19	33,534
768,37	29,929
768,54	28,275
768,72	31,402
768,90	31,171
769,08	31,544
769,25	31,029
769,43	30,041
769,61	28,849
769,78	30,527
769,96	32,514
770,14	32,518
770,31	31,513
770,49	31,784
770,67	32,182
770,85	28,965
771,02	30,217
771,20	30,047
771,38	32,421
771,55	30,284
771,73	29,789
771,91	31,080
772,08	31,237
772,26	31,826
772,44	29,342
772,61	30,661
772,79	29,459
772,97	28,250
773,14	29,810
773,32	30,575
773,50	29,330
773,67	31,555
773,85	31,300
774,03	31,067
774,20	30,427
774,38	31,112
774,56	28,849
774,73	30,852
774,91	29,025
775,09	32,818
775,26	32,748
775,44	29,803
775,61	31,261
775,79	29,816
775,97	32,051
776,14	28,874
776,32	31,452
776,50	29,332
776,67	32,768
776,85	31,454
777,03	32,214
777,20	31,670
777,38	31,815
777,55	31,856
777,73	27,781
777,91	30,567
778,08	29,539
778,26	30,877
778,43	30,822
778,61	29,178
778,79	29,769
778,96	28,352
779,14	30,038
779,32	29,285
779,49	30,427
779,67	32,087
779,84	31,312
780,02	32,163
780,20	28,455
780,37	30,589
780,55	26,590
780,72	32,643
780,90	33,666
781,07	31,176
781,25	31,696
781,43	32,292
781,60	30,878
781,78	32,183
781,95	31,541
782,13	30,356
782,30	32,827
782,48	32,254
782,66	30,224
782,83	30,048
783,01	33,738
783,18	32,061
783,36	33,646
783,53	33,289
783,71	29,323
783,89	31,526
784,06	32,154
784,24	31,537
784,41	32,222
784,59	30,533
784,76	31,372
784,94	31,507
785,11	32,127
785,29	31,234
785,46	30,988
785,64	30,651
785,82	30,455
785,99	30,697
786,17	31,829
786,34	31,201
786,52	30,799
786,69	34,628
786,87	30,081
787,04	28,707
787,22	29,618
787,39	32,056
787,57	30,395
787,74	30,565
787,92	33,495
788,09	31,363
788,27	31,841
788,44	30,990
788,62	31,595
788,79	30,165
788,97	34,401
789,14	32,158
789,32	33,302
789,49	30,621
789,67	30,134
789,84	30,508
790,02	32,310
790,19	31,783
790,37	30,833
790,54	32,202
790,72	33,618
790,89	34,567
791,07	33,324
791,24	28,935
791,42	31,912
791,59	30,874
791,77	30,871
791,94	30,866
792,12	31,953
792,29	33,554
792,47	34,338
792,64	32,398
792,81	31,805
792,99	30,846
793,16	32,318
793,34	31,094
793,51	29,973
793,69	31,159
793,86	28,716
794,04	31,948
794,21	35,994
794,39	29,573
794,56	30,522
794,73	33,641
794,91	34,868
795,08	32,484
795,26	32,082
795,43	30,561
795,61	33,808
795,78	32,353
795,95	31,624
796,13	32,994
796,30	32,629
796,48	29,768
796,65	32,972
796,83	32,107
797,00	35,123
797,17	27,945
797,35	29,088
797,52	32,929
797,70	32,139
797,87	32,662
798,04	30,661
798,22	33,085
798,39	30,453
798,57	31,451
798,74	31,431
798,91	32,674
799,09	30,630
799,26	31,938
799,44	32,591
799,61	30,493
799,78	31,686
799,96	34,106
800,13	33,075
800,31	31,980
800,48	32,219
800,65	30,819
800,83	31,271
801,00	33,101
801,17	34,066
801,35	33,079
801,52	30,090
801,70	34,485
801,87	32,593
802,04	34,839
802,22	30,197
802,39	30,304
802,56	38,922
802,74	33,770
802,91	29,811
803,08	28,877
803,26	32,124
803,43	35,246
803,61	34,611
803,78	33,761
803,95	33,899
804,13	32,035
804,30	30,832
804,47	34,028
804,65	32,303
804,82	34,308
804,99	31,937
805,17	32,147
805,34	34,020
805,51	36,378
805,69	34,803
805,86	31,661
806,03	35,958
806,21	33,703
806,38	31,021
806,55	33,548
806,72	38,243
806,90	31,441
807,07	31,730
807,24	33,090
807,42	32,119
807,59	34,003
807,76	27,469
807,94	31,457
808,11	36,849
808,28	33,513
808,45	30,333
808,63	34,712
808,80	32,403
808,97	35,195
809,15	31,428
809,32	36,243
809,49	33,402
809,67	32,412
809,84	33,759
810,01	34,841
810,18	39,011
810,36	33,721
810,53	36,656
810,70	31,399
810,87	32,978
811,05	29,361
811,22	32,221
811,39	30,878
811,57	36,712
811,74	33,900
811,91	31,973
812,08	32,993
812,26	32,698
812,43	31,989
812,60	35,466
812,77	33,268
812,95	36,773
813,12	33,866
813,29	26,714
813,46	33,766
813,64	33,807
813,81	38,628
813,98	32,278
814,15	33,490
814,32	36,488
814,50	31,501
814,67	35,367
814,84	32,895
815,01	34,058
815,19	34,240
815,36	28,072
815,53	35,697
815,70	33,424
815,87	36,003
816,05	29,742
816,22	32,315
816,39	37,119
816,56	37,099
816,74	35,814
816,91	30,655
817,08	43,861
817,25	35,135
817,42	34,189
817,60	35,678
817,77	37,958
817,94	35,074
818,11	34,388
818,28	30,104
818,45	34,741
818,63	32,386
818,80	32,708
818,97	30,005
819,14	38,849
819,31	38,728
819,49	30,853
819,66	25,505
819,83	35,159
820,00	36,032
820,17	32,971
820,34	34,588
820,52	36,063
820,69	38,821
820,86	34,296
821,03	31,565
821,20	36,643
821,37	35,931
821,55	25,524
821,72	30,763
821,89	37,307
822,06	37,183
822,23	30,637
822,40	33,832
822,57	38,664
822,75	37,187
822,92	28,580
823,09	36,075
823,26	38,588
823,43	40,362
823,60	32,099
823,77	37,186
823,94	35,032
824,12	38,706
824,29	31,233
824,46	32,773
824,63	34,958
824,80	37,427
824,97	36,731
825,14	37,962
825,31	36,857
825,49	34,605
825,66	35,517
825,83	35,839
826,00	38,195
826,17	46,778
826,34	30,298
826,51	30,061
826,68	33,298
826,85	35,127
827,02	37,587
827,20	32,322
827,37	35,633
827,54	36,122
827,71	35,061
827,88	35,645
828,05	33,934
828,22	33,042
828,39	35,628
828,56	35,617
828,73	32,259
828,90	39,442
829,07	33,713
829,25	35,640
829,42	36,842
829,59	36,076
829,76	32,896
829,93	27,806
830,10	35,857
830,27	35,962
830,44	35,837
830,61	34,925
830,78	45,963
830,95	35,328
831,12	30,812
831,29	40,820
831,46	29,446
831,63	36,030
831,80	33,350
831,97	34,569
832,14	39,954
832,31	45,913
832,48	32,337
832,65	36,193
832,83	34,993
833,00	36,527
833,17	36,289
833,34	34,351
833,51	41,253
833,68	40,818
833,85	38,965
834,02	30,201
834,19	35,390
834,36	45,331
834,53	33,415
834,70	34,443
834,87	48,642
835,04	32,903
835,21	34,831
835,38	31,100
835,55	32,653
835,72	41,815
835,89	33,208
836,06	37,040
836,23	45,271
836,40	37,196
836,57	31,774
836,74	39,977
836,91	34,650
837,08	41,692
837,25	41,751
837,42	27,180
837,59	32,771
837,76	42,407
837,93	36,370
838,09	32,455
838,26	40,262
838,43	42,309
838,60	36,679
838,77	35,180
838,94	40,896
839,11	43,310
839,28	33,775
839,45	38,488
839,62	34,529
839,79	37,011
839,96	35,729
840,13	39,663
840,30	35,224
840,47	32,375
840,64	33,078
840,81	39,959
840,98	33,919
841,15	51,556
841,32	34,656
841,48	50,614
841,65	41,682
841,82	44,594
841,99	35,074
842,16	32,139
842,33	45,296
842,50	35,470
842,67	36,951
842,84	42,599
843,01	29,074
843,18	45,178
843,35	33,056
843,52	29,596
843,68	44,548
843,85	40,948
844,02	37,363
844,19	24,066
844,36	49,489
844,53	44,459
844,70	41,195
844,87	41,299
845,04	35,949
845,21	37,290
845,37	33,265
845,54	39,510
845,71	30,749
845,88	55,660
846,05	31,424
846,22	31,620
846,39	39,569
846,56	41,238
846,72	28,224
846,89	33,618
847,06	60,532
847,23	44,421
847,40	37,788
847,57	32,027
847,74	32,002
847,90	55,873
848,07	41,778
848,24	40,646
848,41	42,918
848,58	41,680
848,75	37,969
848,92	36,653
849,08	51,243
849,25	35,772
849,42	34,201
849,59	46,186
849,76	35,309
849,93	41,296
850,09	44,004
850,26	34,830
850,43	51,140
850,60	40,560
850,77	31,126
850,94	45,480
851,10	37,414
851,27	31,930
851,44	28,447
851,61	26,896
851,78	41,954
851,95	49,735
852,11	40,087
852,28	30,401
852,45	42,701
852,62	37,092
852,79	36,055
852,95	31,238
853,12	45,370
853,29	35,549
853,46	38,001
853,63	35,919
853,79	32,923
853,96	22,843
854,13	47,761
854,30	34,463
854,46	54,378
854,63	42,591
854,80	34,804
854,97	32,511
855,14	44,660
855,30	38,117
855,47	17,256
855,64	47,836
855,81	40,781
855,97	37,253
856,14	46,308
856,31	33,773
856,48	51,996
856,65	49,554
856,81	32,027
856,98	29,436
857,15	34,355
857,32	46,073
857,48	49,562
857,65	42,640
857,82	45,270
857,99	51,660
858,15	42,606
858,32	42,883
858,49	47,690
858,65	60,415
858,82	38,851
858,99	38,294
859,16	33,907
859,32	50,949
859,49	33,825
859,66	45,978
859,83	38,590
859,99	31,035
860,16	39,849
860,33	37,178
860,49	36,671
860,66	61,398
860,83	41,113
861,00	35,470
861,16	55,769
861,33	45,250
861,50	35,556
861,66	34,696
861,83	53,289
862,00	44,129
862,16	45,689
862,33	29,444
862,50	72,100
862,67	53,021
862,83	43,497
863,00	40,297
863,17	60,217
863,33	40,066
863,50	44,648
863,67	30,770
863,83	58,196
864,00	36,377
864,17	22,550
864,33	44,000
864,50	61,911
864,67	38,583
864,83	37,344
865,00	34,665
865,17	49,485
865,33	57,156
865,50	28,505
865,67	39,588
865,83	35,021
866,00	50,940
866,17	50,927
866,33	44,206
866,50	67,820
866,66	52,227
866,83	39,698
867,00	64,201
867,16	46,725
867,33	50,326
867,50	20,916
867,66	22,398
867,83	67,862
868,00	51,544
868,16	40,694
868,33	50,026
868,49	49,361
868,66	56,339
868,83	49,550
868,99	58,043
869,16	69,047
869,32	46,954
869,49	38,830
869,66	11,926
869,82	56,278
869,99	71,859
870,15	24,667
870,32	43,629
870,49	71,844
870,65	90,685
870,82	56,283
870,98	62,061
871,15	66,237
871,32	52,305
871,48	26,128
871,65	47,614
871,81	59,207
871,98	33,047
872,15	23,077
872,31	41,197
872,48	79,412
872,64	39,536
872,81	36,977
872,97	41,262
873,14	83,881
873,31	31,035
873,47	49,052
873,64	34,423
873,80	52,346
873,97	80,501
874,13	25,776
874,30	54,395
874,46	63,859
874,63	34,161
874,80	41,059
874,96	42,783
875,13	87,481
875,29	75,801
875,46	88,792
875,62	46,524
875,79	71,852
875,95	84,806
876,12	44,046
876,28	37,971
876,45	73,712
876,61	56,104
876,78	26,574
876,94	14,346
877,11	54,517
877,27	82,544
877,44	64,173
877,60	32,093
877,77	51,321
877,94	85,588
878,10	53,122
878,27	62,991
878,43	94,170
878,60	56,995
878,76	50,975
878,93	44,907
879,09	133,885
879,26	92,849
879,42	85,192
879,58	66,534
879,75	58,043
879,91	110,313
880,08	-17,878
880,24	51,092
880,41	57,737
880,57	89,119
880,74	23,899
880,90	32,285
881,07	62,112
881,23	52,004
881,40	49,126
881,56	67,643
881,73	84,825
881,89	81,247
882,06	-19,237
882,22	140,769
882,38	112,484
882,55	113,011
882,71	106,397
882,88	35,506
883,04	70,371
883,21	130,242
883,37	56,311
883,54	26,334
883,70	149,212
883,86	55,215
884,03	44,255
884,19	27,764
884,36	-78,776
884,52	138,371
884,69	81,787
884,85	66,794
885,01	153,505
885,18	95,959
885,34	159,143
885,51	-45,287
885,67	41,172
>>>>> Data<<<<< Espectral Procesado Extremo
