Fichero De Datos De SpectraSuite
++++++++++++++++++++++++++++++++++++
Fecha: Wed Apr 22 11:09:23 CEST 2009
Usuario: evoflor
Presente Oscuro Del Espectro: Sí
La Referencia de Presente Del Espectro De: Sí
Muestreados de los componentes de Número de espectros: 1
Espectrómetros: USB4F02353
Tiempo de integración (usec): 500000 (USB4F02353)
Promedio de Espectros Hechos un: 5 (USB4F02353)
El Alisar Del Furgón: 0 (USB4F02353)
Párrafo de de Corregir del la del del de Eléctrica del obscuridad: Sí (USB4F02353)
Estrobo/Lámpara Permitido: No (USB4F02353)
Correct for Detector Non-linearity: No (USB4F02353)
Párrafo de de Corregir del la del del de Externa del luz: No (USB4F02353)
Procesado del espectro de Número de pixeles en: 3648
>>>>> Comienza Data<<<<< Espectral Procesado Del EL
177,79	211,962
178,00	211,962
178,22	211,962
178,44	1029,011
178,66	-76,499
178,88	272,769
179,09	-248,766
179,31	281,670
179,53	562,724
179,75	216,747
179,96	760,000
180,18	52,738
180,40	458,471
180,62	307,851
180,83	-111,736
181,05	-1151,951
181,27	-42260,000
181,49	-123,174
181,70	359,846
181,92	538,883
182,14	230,301
182,36	43,098
182,58	63,400
182,79	743,125
183,01	-97,556
183,23	37,329
183,45	-429,108
183,66	-75,487
183,88	-5,529
184,10	-932,000
184,32	218,218
184,53	106,590
184,75	-62,719
184,97	87,158
185,18	-82,820
185,40	-129,615
185,62	59,653
185,84	115,852
186,05	94,372
186,27	-76,523
186,49	4221,538
186,71	92,941
186,92	114,220
187,14	-115,360
187,36	99,259
187,58	84,663
187,79	19,210
188,01	187,728
188,23	-278,580
188,45	70,965
188,66	273,036
188,88	-1979,273
189,10	-1592,600
189,31	215,085
189,53	-82,190
189,75	181,955
189,97	238,692
190,18	-34,936
190,40	68,588
190,62	-36,171
190,83	-164,514
191,05	120,127
191,27	318,743
191,49	236,040
191,70	-454,135
191,92	-220,847
192,14	-29,538
192,35	477,347
192,57	4267,429
192,79	-2,013
193,01	110,087
193,22	184,213
193,44	-179,625
193,66	80,951
193,87	-0,086
194,09	-4,853
194,31	162,911
194,53	484,336
194,74	66,710
194,96	81,662
195,18	53,906
195,39	-220,739
195,61	-11,523
195,83	-244,478
196,04	109,028
196,26	-221,407
196,48	59,526
196,70	189,583
196,91	93,321
197,13	341,671
197,35	-171,568
197,56	504,211
197,78	919,851
198,00	566,154
198,21	-30,777
198,43	-727,093
198,65	140,967
198,86	71,079
199,08	191,672
199,30	112,874
199,51	-348,730
199,73	213,067
199,95	322,921
200,16	477,538
200,38	166,406
200,60	121,912
200,81	267,794
201,03	129,511
201,25	-530,600
201,46	186,985
201,68	63,582
201,90	2187,727
202,11	-233,435
202,33	159,892
202,55	-653,000
202,76	56,682
202,98	-12,683
203,20	342,019
203,41	-416,632
203,63	91,317
203,85	-83660,000
204,06	95,963
204,28	-8,578
204,50	120,254
204,71	284,558
204,93	222,880
205,15	92,048
205,36	-128,987
205,58	302,226
205,80	-135,170
206,01	-6,146
206,23	132,883
206,45	181,170
206,66	125,255
206,88	74,185
207,10	196,273
207,31	305,113
207,53	221,029
207,75	118,373
207,96	496,716
208,18	-130,478
208,39	-29,977
208,61	1078,857
208,83	-234,845
209,04	138,672
209,26	249,032
209,48	218,211
209,69	274,290
209,91	279,595
210,13	21,319
210,34	169,879
210,56	129,307
210,77	-1480,787
210,99	36,604
211,21	4868,235
211,42	-3,883
211,64	94,607
211,86	194,370
212,07	223,642
212,29	208,419
212,50	87,469
212,72	86,385
212,94	144,974
213,15	159,087
213,37	169,162
213,58	-57,783
213,80	1994,286
214,02	3227,059
214,23	241,350
214,45	262,492
214,67	-1821,463
214,88	-114,631
215,10	-53,803
215,31	137,467
215,53	-298,727
215,75	101,670
215,96	1140,124
216,18	-583,662
216,39	101,335
216,61	296,638
216,83	84,196
217,04	1779,326
217,26	-91,516
217,47	87,808
217,69	235,217
217,91	-23,093
218,12	-17960,000
218,34	17,500
218,55	174,164
218,77	47,672
218,99	99,158
219,20	-2,353
219,42	187,896
219,63	-40,213
219,85	-64,854
220,06	-86,692
220,28	200,999
220,50	50,013
220,71	67,607
220,93	338,868
221,14	-1691,600
221,36	20,727
221,58	142,436
221,79	65,278
222,01	317,759
222,22	994,474
222,44	-951,011
222,65	79,654
222,87	245,175
223,09	110,608
223,30	58,610
223,52	143,961
223,73	122,062
223,95	13,887
224,16	14,763
224,38	132,133
224,60	50,358
224,81	177,401
225,03	145,661
225,24	77,687
225,46	-47,907
225,67	64,355
225,89	104,791
226,10	279,096
226,32	546,880
226,54	-19,166
226,75	-0,046
226,97	86,657
227,18	138,431
227,40	19,985
227,61	5,504
227,83	13,278
228,04	112,000
228,26	47,894
228,47	25,957
228,69	215,429
228,91	161,728
229,12	90,359
229,34	22,555
229,55	58,535
229,77	-0,017
229,98	-44,220
230,20	29,304
230,41	32,138
230,63	46,846
230,84	-20,748
231,06	42,973
231,27	27,201
231,49	47,549
231,71	16,131
231,92	33,590
232,14	16,163
232,35	70,998
232,57	49,831
232,78	-0,610
233,00	43,684
233,21	41,972
233,43	-17,706
233,64	24,684
233,86	36,315
234,07	3,512
234,29	31,300
234,50	21,491
234,72	30,163
234,93	7,590
235,15	30,976
235,36	25,660
235,58	23,284
235,79	39,483
236,01	25,611
236,22	18,047
236,44	22,370
236,65	9,175
236,87	9,221
237,08	13,139
237,30	-1,247
237,51	14,304
237,73	4,093
237,94	12,279
238,16	28,961
238,37	9,134
238,59	10,345
238,80	7,776
239,02	5,805
239,23	17,637
239,45	-1,349
239,66	29,701
239,88	19,603
240,09	14,256
240,31	-2,033
240,52	7,851
240,74	10,375
240,95	2,088
241,17	4,253
241,38	8,772
241,60	8,630
241,81	12,782
242,03	6,484
242,24	10,384
242,46	15,537
242,67	4,785
242,89	6,046
243,10	17,560
243,32	11,193
243,53	7,200
243,75	4,700
243,96	6,832
244,18	19,140
244,39	5,133
244,60	12,533
244,82	5,530
245,03	18,370
245,25	6,270
245,46	18,410
245,68	0,065
245,89	11,995
246,11	12,422
246,32	14,842
246,54	9,100
246,75	10,400
246,97	8,653
247,18	19,781
247,39	3,346
247,61	8,392
247,82	2,072
248,04	2,932
248,25	4,451
248,47	10,424
248,68	12,056
248,90	5,940
249,11	12,195
249,33	13,022
249,54	4,295
249,75	8,353
249,97	2,069
250,18	12,881
250,40	17,701
250,61	-0,117
250,83	2,470
251,04	-1,847
251,25	9,976
251,47	1,205
251,68	8,806
251,90	2,632
252,11	9,901
252,33	4,478
252,54	7,158
252,76	2,440
252,97	2,712
253,18	1,747
253,40	4,974
253,61	5,224
253,83	7,887
254,04	9,574
254,25	5,200
254,47	4,372
254,68	8,957
254,90	3,238
255,11	8,887
255,33	7,670
255,54	-0,565
255,75	2,235
255,97	5,268
256,18	2,772
256,40	2,943
256,61	3,947
256,82	1,969
257,04	8,812
257,25	-0,989
257,47	4,319
257,68	1,554
257,89	7,206
258,11	9,019
258,32	6,771
258,54	5,864
258,75	12,720
258,96	7,447
259,18	1,988
259,39	5,153
259,61	7,723
259,82	5,378
260,03	7,331
260,25	6,069
260,46	7,096
260,68	4,252
260,89	9,199
261,10	6,233
261,32	3,990
261,53	8,625
261,75	9,987
261,96	1,370
262,17	7,455
262,39	10,625
262,60	3,660
262,81	-0,002
263,03	8,641
263,24	4,283
263,46	5,164
263,67	4,130
263,88	7,927
264,10	5,004
264,31	0,828
264,52	9,953
264,74	6,108
264,95	5,461
265,17	5,886
265,38	4,094
265,59	9,009
265,81	6,986
266,02	3,105
266,23	3,873
266,45	11,136
266,66	10,356
266,87	7,205
267,09	0,953
267,30	5,368
267,52	6,293
267,73	7,333
267,94	5,538
268,16	6,976
268,37	6,079
268,58	6,418
268,80	1,824
269,01	7,114
269,22	7,168
269,44	4,435
269,65	6,704
269,86	2,128
270,08	8,844
270,29	3,973
270,50	2,936
270,72	10,502
270,93	4,800
271,14	2,738
271,36	2,603
271,57	6,258
271,78	3,959
272,00	9,892
272,21	4,942
272,42	5,009
272,64	5,496
272,85	1,721
273,06	5,821
273,28	4,647
273,49	5,955
273,70	4,367
273,92	7,872
274,13	7,137
274,34	4,459
274,56	6,344
274,77	6,656
274,98	9,848
275,20	6,380
275,41	9,112
275,62	7,541
275,84	4,034
276,05	12,559
276,26	4,865
276,47	4,065
276,69	9,073
276,90	3,883
277,11	3,859
277,33	6,624
277,54	8,526
277,75	2,747
277,97	4,321
278,18	4,590
278,39	6,991
278,61	0,802
278,82	2,828
279,03	8,559
279,24	7,789
279,46	3,223
279,67	7,512
279,88	6,022
280,10	7,234
280,31	2,233
280,52	6,604
280,73	4,119
280,95	8,745
281,16	7,909
281,37	7,821
281,59	9,630
281,80	10,027
282,01	6,060
282,22	5,326
282,44	0,505
282,65	10,160
282,86	6,994
283,08	5,140
283,29	6,014
283,50	6,914
283,71	7,456
283,93	7,414
284,14	9,106
284,35	5,483
284,56	6,562
284,78	4,984
284,99	6,849
285,20	8,789
285,42	5,742
285,63	6,408
285,84	2,491
286,05	5,201
286,27	5,464
286,48	4,936
286,69	2,045
286,90	3,282
287,12	4,156
287,33	5,545
287,54	5,869
287,75	6,374
287,97	6,000
288,18	7,738
288,39	0,462
288,60	4,579
288,82	4,876
289,03	6,521
289,24	3,511
289,45	8,950
289,67	6,467
289,88	4,657
290,09	6,235
290,30	7,231
290,52	4,278
290,73	6,594
290,94	2,445
291,15	4,497
291,37	8,018
291,58	3,731
291,79	3,895
292,00	6,714
292,21	5,814
292,43	2,674
292,64	4,754
292,85	4,043
293,06	5,712
293,28	3,706
293,49	3,404
293,70	6,107
293,91	2,894
294,12	7,024
294,34	2,010
294,55	3,741
294,76	6,316
294,97	8,409
295,19	1,958
295,40	6,808
295,61	7,325
295,82	3,530
296,03	3,749
296,25	6,814
296,46	2,197
296,67	2,292
296,88	3,770
297,09	7,075
297,31	2,488
297,52	8,305
297,73	2,920
297,94	7,801
298,15	4,572
298,37	4,223
298,58	8,412
298,79	8,312
299,00	4,713
299,21	4,816
299,43	3,865
299,64	8,091
299,85	5,069
300,06	5,471
300,27	4,596
300,49	6,976
300,70	6,212
300,91	5,367
301,12	4,548
301,33	6,763
301,54	3,275
301,76	5,393
301,97	7,841
302,18	4,800
302,39	7,160
302,60	6,438
302,82	4,125
303,03	8,479
303,24	4,831
303,45	4,470
303,66	4,738
303,87	5,955
304,09	6,146
304,30	5,200
304,51	3,336
304,72	3,967
304,93	7,678
305,14	5,361
305,36	1,853
305,57	2,086
305,78	6,983
305,99	3,900
306,20	5,072
306,41	4,612
306,62	4,153
306,84	3,910
307,05	1,492
307,26	4,213
307,47	8,003
307,68	3,449
307,89	2,050
308,11	5,446
308,32	3,770
308,53	5,017
308,74	1,821
308,95	4,067
309,16	6,682
309,37	6,650
309,59	2,851
309,80	5,318
310,01	8,899
310,22	6,726
310,43	6,597
310,64	5,227
310,85	5,814
311,06	3,708
311,28	3,729
311,49	5,034
311,70	7,591
311,91	3,750
312,12	3,813
312,33	4,755
312,54	8,494
312,75	4,561
312,97	4,179
313,18	5,470
313,39	3,164
313,60	5,108
313,81	4,337
314,02	6,189
314,23	4,897
314,44	3,565
314,65	5,099
314,87	0,927
315,08	4,805
315,29	8,365
315,50	6,649
315,71	6,739
315,92	6,984
316,13	6,365
316,34	2,944
316,55	4,911
316,77	1,740
316,98	3,304
317,19	3,527
317,40	6,778
317,61	7,024
317,82	4,289
318,03	2,509
318,24	4,182
318,45	7,576
318,66	5,613
318,87	3,517
319,09	5,602
319,30	7,268
319,51	5,971
319,72	6,587
319,93	5,011
320,14	6,341
320,35	6,715
320,56	3,301
320,77	1,053
320,98	7,631
321,19	6,046
321,40	5,277
321,62	8,034
321,83	7,034
322,04	7,636
322,25	3,784
322,46	7,259
322,67	4,214
322,88	5,730
323,09	5,438
323,30	8,055
323,51	6,664
323,72	6,604
323,93	3,876
324,14	4,318
324,35	3,345
324,56	1,920
324,77	3,131
324,99	4,236
325,20	2,150
325,41	5,623
325,62	6,798
325,83	4,397
326,04	4,732
326,25	6,508
326,46	2,560
326,67	3,679
326,88	4,281
327,09	4,071
327,30	5,000
327,51	4,441
327,72	7,402
327,93	6,085
328,14	2,520
328,35	4,257
328,56	7,603
328,77	5,410
328,98	8,742
329,19	6,384
329,40	6,231
329,61	5,192
329,82	-0,079
330,04	7,458
330,25	1,576
330,46	4,091
330,67	4,190
330,88	2,634
331,09	5,321
331,30	4,243
331,51	4,763
331,72	4,670
331,93	6,648
332,14	2,082
332,35	8,570
332,56	2,927
332,77	6,205
332,98	3,887
333,19	6,096
333,40	5,552
333,61	6,129
333,82	6,260
334,03	5,096
334,24	7,565
334,45	4,664
334,66	7,168
334,87	4,612
335,08	3,894
335,29	5,035
335,50	4,229
335,71	3,775
335,92	7,645
336,13	8,378
336,34	-0,646
336,55	5,725
336,76	9,657
336,97	5,364
337,18	2,583
337,39	5,276
337,60	4,092
337,81	4,464
338,02	4,161
338,23	3,708
338,44	6,118
338,65	4,634
338,86	5,467
339,07	4,790
339,28	5,342
339,49	4,835
339,70	1,342
339,91	4,642
340,11	7,063
340,32	1,926
340,53	2,410
340,74	2,084
340,95	1,584
341,16	4,285
341,37	2,064
341,58	4,234
341,79	4,476
342,00	7,301
342,21	4,484
342,42	4,407
342,63	2,914
342,84	4,075
343,05	5,747
343,26	7,443
343,47	4,940
343,68	4,483
343,89	2,137
344,10	6,569
344,31	4,349
344,52	4,762
344,73	4,794
344,94	5,769
345,14	5,596
345,35	9,251
345,56	5,082
345,77	4,600
345,98	4,251
346,19	4,328
346,40	4,038
346,61	3,120
346,82	3,378
347,03	4,025
347,24	7,290
347,45	5,516
347,66	9,375
347,87	2,614
348,08	5,094
348,28	1,225
348,49	5,653
348,70	8,263
348,91	3,804
349,12	2,109
349,33	17,607
349,54	4,660
349,75	5,753
349,96	6,034
350,17	4,659
350,38	1,197
350,59	3,765
350,80	3,577
351,00	6,566
351,21	8,696
351,42	4,772
351,63	0,759
351,84	6,357
352,05	5,712
352,26	4,874
352,47	4,174
352,68	5,211
352,89	7,215
353,09	6,142
353,30	3,760
353,51	4,403
353,72	7,859
353,93	6,253
354,14	3,327
354,35	4,716
354,56	5,280
354,77	3,801
354,98	1,404
355,18	5,288
355,39	8,047
355,60	2,886
355,81	4,927
356,02	4,722
356,23	4,373
356,44	4,167
356,65	4,694
356,85	9,531
357,06	5,806
357,27	6,734
357,48	3,537
357,69	8,222
357,90	6,947
358,11	3,104
358,32	4,712
358,52	6,397
358,73	5,257
358,94	2,901
359,15	7,159
359,36	7,847
359,57	6,916
359,78	4,777
359,98	2,881
360,19	2,408
360,40	3,994
360,61	7,242
360,82	2,355
361,03	7,862
361,24	6,535
361,44	4,476
361,65	7,931
361,86	4,481
362,07	5,440
362,28	5,774
362,49	3,406
362,70	5,568
362,90	7,067
363,11	3,826
363,32	1,755
363,53	4,808
363,74	5,788
363,95	6,414
364,15	7,630
364,36	7,129
364,57	4,097
364,78	4,100
364,99	5,331
365,20	8,029
365,40	8,567
365,61	1,676
365,82	6,913
366,03	8,174
366,24	6,795
366,45	4,496
366,65	5,646
366,86	6,609
367,07	7,494
367,28	5,423
367,49	6,442
367,69	7,062
367,90	4,398
368,11	7,303
368,32	4,247
368,53	8,668
368,73	7,621
368,94	3,779
369,15	3,352
369,36	7,244
369,57	7,660
369,78	4,744
369,98	6,177
370,19	8,848
370,40	3,676
370,61	5,095
370,82	6,595
371,02	8,918
371,23	9,556
371,44	7,101
371,65	5,743
371,85	11,207
372,06	7,936
372,27	5,479
372,48	5,448
372,69	5,785
372,89	3,615
373,10	6,545
373,31	7,248
373,52	7,910
373,73	9,073
373,93	8,307
374,14	5,824
374,35	5,524
374,56	10,039
374,76	5,253
374,97	6,227
375,18	7,950
375,39	5,970
375,60	7,446
375,80	4,601
376,01	6,314
376,22	5,415
376,43	6,820
376,63	7,146
376,84	5,282
377,05	10,107
377,26	3,548
377,46	5,542
377,67	7,632
377,88	12,312
378,09	8,066
378,29	4,649
378,50	8,481
378,71	8,522
378,92	8,629
379,12	7,405
379,33	7,300
379,54	8,778
379,75	7,527
379,95	6,864
380,16	10,807
380,37	9,532
380,58	7,773
380,78	10,338
380,99	7,076
381,20	10,759
381,41	10,015
381,61	9,604
381,82	6,931
382,03	6,962
382,24	8,362
382,44	8,805
382,65	9,187
382,86	9,246
383,06	6,926
383,27	9,681
383,48	8,095
383,69	10,603
383,89	10,325
384,10	10,902
384,31	10,887
384,51	9,189
384,72	9,371
384,93	11,179
385,14	10,100
385,34	10,329
385,55	9,197
385,76	8,346
385,96	14,329
386,17	9,669
386,38	11,146
386,59	11,266
386,79	10,133
387,00	13,156
387,21	12,983
387,41	8,544
387,62	13,896
387,83	14,227
388,03	13,790
388,24	8,027
388,45	10,934
388,66	11,902
388,86	12,482
389,07	12,046
389,28	17,670
389,48	12,108
389,69	11,535
389,90	12,159
390,10	15,021
390,31	16,005
390,52	6,836
390,72	11,842
390,93	14,053
391,14	12,264
391,34	14,253
391,55	13,293
391,76	17,006
391,96	12,235
392,17	10,581
392,38	13,096
392,58	15,173
392,79	15,228
393,00	10,480
393,20	11,469
393,41	12,532
393,62	11,332
393,82	15,963
394,03	14,785
394,24	14,350
394,44	17,697
394,65	18,507
394,86	15,661
395,06	17,901
395,27	13,029
395,48	14,434
395,68	16,644
395,89	13,806
396,10	16,639
396,30	16,275
396,51	12,676
396,72	20,597
396,92	13,292
397,13	15,356
397,34	15,222
397,54	19,777
397,75	14,354
397,95	14,993
398,16	15,993
398,37	16,483
398,57	16,338
398,78	17,555
398,99	18,108
399,19	19,829
399,40	17,399
399,60	13,904
399,81	18,696
400,02	22,270
400,22	18,265
400,43	20,683
400,64	17,742
400,84	16,682
401,05	16,206
401,25	22,100
401,46	20,176
401,67	20,099
401,87	18,287
402,08	14,275
402,29	17,642
402,49	20,695
402,70	20,528
402,90	16,746
403,11	19,095
403,32	22,678
403,52	20,238
403,73	21,423
403,93	22,752
404,14	22,808
404,35	20,567
404,55	18,102
404,76	20,493
404,96	21,307
405,17	22,411
405,38	25,809
405,58	19,936
405,79	23,421
405,99	23,558
406,20	21,963
406,40	20,609
406,61	22,337
406,82	21,205
407,02	24,440
407,23	23,438
407,43	22,179
407,64	20,585
407,85	21,906
408,05	18,264
408,26	30,482
408,46	23,836
408,67	21,450
408,87	21,097
409,08	22,261
409,29	25,705
409,49	24,064
409,70	22,605
409,90	24,172
410,11	23,604
410,31	26,144
410,52	25,322
410,72	21,371
410,93	25,758
411,14	22,594
411,34	21,548
411,55	27,084
411,75	24,471
411,96	24,446
412,16	24,076
412,37	23,071
412,57	25,512
412,78	22,280
412,99	24,732
413,19	24,433
413,40	24,424
413,60	23,777
413,81	22,574
414,01	23,661
414,22	25,100
414,42	23,470
414,63	22,687
414,83	28,616
415,04	27,927
415,24	25,508
415,45	24,707
415,65	27,989
415,86	32,149
416,07	23,354
416,27	27,266
416,48	24,786
416,68	29,348
416,89	22,947
417,09	24,916
417,30	28,658
417,50	26,109
417,71	28,503
417,91	25,750
418,12	26,579
418,32	28,866
418,53	27,031
418,73	23,877
418,94	23,732
419,14	27,781
419,35	20,485
419,55	26,018
419,76	25,451
419,96	25,254
420,17	25,327
420,37	23,856
420,58	28,542
420,78	27,828
420,99	29,512
421,19	25,341
421,40	26,817
421,60	32,230
421,81	25,075
422,01	26,460
422,22	28,279
422,42	28,710
422,63	26,746
422,83	26,743
423,04	31,000
423,24	32,264
423,45	25,362
423,65	28,837
423,86	31,055
424,06	26,065
424,27	23,489
424,47	25,316
424,67	27,871
424,88	27,401
425,08	25,802
425,29	34,939
425,49	27,211
425,70	24,391
425,90	28,207
426,11	26,783
426,31	27,099
426,52	26,225
426,72	28,824
426,93	27,709
427,13	30,923
427,33	27,513
427,54	26,302
427,74	26,891
427,95	34,060
428,15	22,401
428,36	29,445
428,56	27,675
428,77	28,926
428,97	27,712
429,18	30,634
429,38	23,831
429,58	33,356
429,79	29,000
429,99	27,341
430,20	21,477
430,40	30,785
430,61	28,633
430,81	26,047
431,01	28,944
431,22	29,529
431,42	29,478
431,63	22,922
431,83	27,418
432,04	28,586
432,24	29,775
432,44	26,652
432,65	24,696
432,85	26,839
433,06	27,101
433,26	24,951
433,47	26,417
433,67	27,205
433,87	24,820
434,08	25,171
434,28	27,575
434,49	23,904
434,69	30,546
434,89	24,378
435,10	26,993
435,30	28,942
435,51	25,281
435,71	25,603
435,91	26,029
436,12	27,879
436,32	27,430
436,53	27,332
436,73	29,063
436,93	33,024
437,14	28,857
437,34	24,739
437,55	29,411
437,75	25,521
437,95	32,824
438,16	29,594
438,36	29,620
438,57	28,207
438,77	24,755
438,97	33,406
439,18	30,656
439,38	27,453
439,58	28,539
439,79	30,069
439,99	29,098
440,20	29,842
440,40	28,119
440,60	32,208
440,81	26,497
441,01	27,699
441,21	31,502
441,42	28,999
441,62	29,089
441,83	29,982
442,03	30,831
442,23	31,398
442,44	27,312
442,64	31,828
442,84	25,400
443,05	27,053
443,25	26,054
443,45	28,101
443,66	29,584
443,86	28,504
444,06	26,508
444,27	28,936
444,47	27,246
444,67	29,451
444,88	31,377
445,08	30,708
445,28	29,312
445,49	29,271
445,69	28,237
445,90	29,808
446,10	32,399
446,30	29,305
446,51	29,277
446,71	36,443
446,91	33,454
447,12	32,756
447,32	28,622
447,52	30,029
447,72	31,616
447,93	30,937
448,13	27,348
448,33	37,598
448,54	31,540
448,74	26,023
448,94	30,970
449,15	37,658
449,35	26,620
449,55	28,640
449,76	33,739
449,96	31,078
450,16	34,658
450,37	30,455
450,57	28,095
450,77	25,148
450,98	31,668
451,18	31,917
451,38	28,838
451,58	32,906
451,79	31,138
451,99	32,147
452,19	30,511
452,40	31,513
452,60	27,917
452,80	27,245
453,00	34,017
453,21	32,472
453,41	33,238
453,61	30,489
453,82	29,298
454,02	28,808
454,22	33,360
454,42	32,151
454,63	28,615
454,83	28,543
455,03	32,561
455,24	27,477
455,44	29,675
455,64	31,386
455,84	27,323
456,05	30,830
456,25	29,795
456,45	31,685
456,65	28,254
456,86	30,951
457,06	30,834
457,26	32,410
457,47	39,095
457,67	30,990
457,87	24,952
458,07	30,147
458,28	30,812
458,48	31,195
458,68	27,782
458,88	30,878
459,09	30,635
459,29	30,873
459,49	29,981
459,69	33,608
459,90	30,994
460,10	28,880
460,30	28,975
460,50	31,169
460,71	30,650
460,91	29,879
461,11	31,927
461,31	30,894
461,52	34,856
461,72	31,916
461,92	31,847
462,12	36,776
462,32	29,510
462,53	32,370
462,73	29,173
462,93	35,743
463,13	31,837
463,34	32,213
463,54	31,001
463,74	32,229
463,94	32,122
464,14	34,358
464,35	27,413
464,55	35,913
464,75	33,512
464,95	34,712
465,16	31,659
465,36	33,672
465,56	31,410
465,76	30,067
465,96	30,045
466,17	33,404
466,37	29,525
466,57	35,318
466,77	29,002
466,97	29,362
467,18	36,344
467,38	32,039
467,58	34,701
467,78	33,635
467,98	33,486
468,19	33,104
468,39	34,229
468,59	33,245
468,79	31,530
468,99	28,593
469,19	28,592
469,40	34,677
469,60	23,917
469,80	29,536
470,00	35,578
470,20	36,243
470,41	30,662
470,61	32,772
470,81	30,241
471,01	26,392
471,21	31,083
471,41	27,113
471,62	31,650
471,82	29,022
472,02	30,971
472,22	32,352
472,42	30,041
472,62	33,192
472,83	29,113
473,03	34,806
473,23	31,098
473,43	34,257
473,63	30,017
473,83	31,142
474,03	29,261
474,24	32,023
474,44	32,600
474,64	30,691
474,84	29,453
475,04	34,444
475,24	31,412
475,45	33,608
475,65	33,666
475,85	35,422
476,05	29,212
476,25	30,634
476,45	30,325
476,65	34,412
476,85	31,188
477,06	29,741
477,26	29,788
477,46	32,141
477,66	33,479
477,86	33,844
478,06	28,677
478,26	35,969
478,46	30,910
478,67	31,252
478,87	30,538
479,07	29,669
479,27	30,103
479,47	31,104
479,67	27,681
479,87	32,322
480,07	31,918
480,28	30,439
480,48	28,753
480,68	32,073
480,88	35,916
481,08	32,105
481,28	31,665
481,48	30,515
481,68	30,075
481,88	27,649
482,08	30,672
482,29	34,303
482,49	26,074
482,69	32,989
482,89	32,507
483,09	30,896
483,29	32,108
483,49	28,889
483,69	30,709
483,89	30,210
484,09	27,918
484,29	26,181
484,50	30,896
484,70	28,450
484,90	29,857
485,10	29,113
485,30	30,059
485,50	29,871
485,70	31,454
485,90	27,427
486,10	26,909
486,30	28,669
486,50	30,818
486,70	27,559
486,90	28,561
487,10	30,353
487,30	27,260
487,51	29,559
487,71	25,270
487,91	25,460
488,11	30,679
488,31	25,504
488,51	29,317
488,71	28,578
488,91	30,967
489,11	26,770
489,31	29,556
489,51	26,106
489,71	28,289
489,91	28,045
490,11	26,482
490,31	27,053
490,51	29,901
490,71	25,913
490,91	27,154
491,11	29,349
491,31	31,029
491,51	26,118
491,72	29,356
491,92	27,007
492,12	30,414
492,32	28,058
492,52	31,095
492,72	29,687
492,92	29,639
493,12	28,483
493,32	28,237
493,52	26,919
493,72	27,968
493,92	29,389
494,12	28,971
494,32	29,281
494,52	26,274
494,72	27,714
494,92	28,045
495,12	29,824
495,32	31,269
495,52	25,423
495,72	29,240
495,92	30,195
496,12	29,432
496,32	25,563
496,52	28,423
496,72	27,470
496,92	31,896
497,12	28,843
497,32	32,088
497,52	30,635
497,72	32,550
497,92	30,000
498,12	29,368
498,32	27,834
498,52	30,621
498,72	28,594
498,92	30,861
499,12	30,125
499,32	27,005
499,52	29,470
499,72	32,131
499,92	30,645
500,12	29,235
500,32	30,318
500,52	28,265
500,72	33,593
500,91	32,733
501,11	30,027
501,31	25,343
501,51	28,676
501,71	29,794
501,91	31,565
502,11	26,115
502,31	30,273
502,51	29,883
502,71	28,706
502,91	29,524
503,11	27,813
503,31	28,690
503,51	27,702
503,71	25,831
503,91	29,710
504,11	27,610
504,31	29,979
504,51	29,300
504,71	31,620
504,91	29,548
505,10	29,131
505,30	28,595
505,50	28,526
505,70	30,099
505,90	30,624
506,10	27,928
506,30	28,026
506,50	31,129
506,70	29,972
506,90	26,726
507,10	29,878
507,30	27,806
507,50	29,737
507,70	29,312
507,89	28,819
508,09	27,034
508,29	27,529
508,49	28,390
508,69	26,553
508,89	27,100
509,09	26,576
509,29	29,273
509,49	30,098
509,69	31,533
509,89	27,621
510,09	28,302
510,28	28,867
510,48	29,781
510,68	28,606
510,88	28,237
511,08	26,702
511,28	30,094
511,48	28,893
511,68	27,262
511,88	26,610
512,07	27,694
512,27	29,317
512,47	24,975
512,67	25,539
512,87	26,169
513,07	26,958
513,27	25,290
513,47	25,201
513,67	27,975
513,86	29,985
514,06	26,958
514,26	26,969
514,46	27,876
514,66	27,565
514,86	28,505
515,06	29,537
515,26	27,944
515,45	27,369
515,65	26,314
515,85	27,227
516,05	24,867
516,25	26,965
516,45	26,094
516,65	26,951
516,84	27,839
517,04	30,687
517,24	25,146
517,44	25,943
517,64	27,281
517,84	27,706
518,04	29,154
518,23	29,992
518,43	30,330
518,63	25,926
518,83	25,516
519,03	26,632
519,23	29,122
519,42	25,871
519,62	25,712
519,82	25,000
520,02	27,937
520,22	27,321
520,42	24,580
520,61	27,858
520,81	26,447
521,01	27,349
521,21	23,338
521,41	26,830
521,61	29,028
521,80	24,266
522,00	25,580
522,20	26,634
522,40	30,104
522,60	28,604
522,79	21,138
522,99	28,082
523,19	26,104
523,39	26,740
523,59	25,796
523,78	31,790
523,98	26,415
524,18	27,099
524,38	24,050
524,58	26,776
524,77	30,590
524,97	27,387
525,17	26,380
525,37	25,881
525,57	31,132
525,76	25,664
525,96	27,808
526,16	22,342
526,36	24,024
526,56	24,235
526,75	23,943
526,95	26,346
527,15	27,109
527,35	28,617
527,55	23,894
527,74	24,801
527,94	24,817
528,14	24,207
528,34	23,998
528,53	25,639
528,73	25,392
528,93	25,395
529,13	25,956
529,32	26,001
529,52	26,725
529,72	23,510
529,92	25,256
530,12	23,803
530,31	23,469
530,51	25,260
530,71	25,546
530,91	25,577
531,10	21,948
531,30	27,247
531,50	27,700
531,70	26,674
531,89	24,396
532,09	24,988
532,29	25,281
532,49	26,754
532,68	23,878
532,88	23,175
533,08	24,425
533,28	23,377
533,47	24,970
533,67	24,947
533,87	24,078
534,06	29,081
534,26	24,442
534,46	23,856
534,66	25,005
534,85	25,673
535,05	22,114
535,25	23,617
535,45	21,794
535,64	25,100
535,84	23,989
536,04	21,965
536,23	24,246
536,43	24,012
536,63	23,849
536,83	24,628
537,02	25,388
537,22	22,892
537,42	22,786
537,61	22,932
537,81	24,544
538,01	21,119
538,20	24,898
538,40	22,573
538,60	22,685
538,80	22,692
538,99	22,498
539,19	22,239
539,39	21,062
539,58	24,559
539,78	18,370
539,98	19,795
540,17	21,134
540,37	19,385
540,57	18,834
540,76	18,636
540,96	17,640
541,16	21,266
541,36	16,588
541,55	14,635
541,75	15,713
541,95	16,571
542,14	17,350
542,34	16,214
542,54	16,835
542,73	17,837
542,93	18,024
543,13	15,681
543,32	16,028
543,52	17,058
543,72	15,655
543,91	16,198
544,11	14,637
544,31	15,645
544,50	16,152
544,70	16,736
544,89	16,412
545,09	20,036
545,29	17,024
545,48	17,685
545,68	18,444
545,88	17,525
546,07	16,954
546,27	15,867
546,47	19,155
546,66	20,003
546,86	19,545
547,06	17,770
547,25	17,949
547,45	21,213
547,64	19,967
547,84	21,393
548,04	19,928
548,23	22,144
548,43	20,905
548,63	23,303
548,82	21,923
549,02	21,142
549,21	20,682
549,41	20,399
549,61	21,588
549,80	19,964
550,00	21,046
550,20	19,032
550,39	23,012
550,59	22,226
550,78	21,445
550,98	17,762
551,18	23,304
551,37	24,593
551,57	22,454
551,76	22,397
551,96	24,008
552,16	21,941
552,35	23,353
552,55	24,444
552,74	21,819
552,94	22,515
553,14	21,704
553,33	22,477
553,53	21,681
553,72	23,029
553,92	24,429
554,12	20,193
554,31	23,006
554,51	20,804
554,70	20,207
554,90	22,956
555,09	25,407
555,29	23,306
555,49	23,230
555,68	24,831
555,88	22,393
556,07	22,102
556,27	23,093
556,46	22,018
556,66	20,630
556,86	25,160
557,05	24,286
557,25	21,970
557,44	21,789
557,64	22,661
557,83	22,849
558,03	22,929
558,22	22,455
558,42	25,098
558,62	25,806
558,81	24,878
559,01	21,697
559,20	25,403
559,40	22,334
559,59	22,659
559,79	21,096
559,98	22,421
560,18	24,922
560,37	22,468
560,57	25,516
560,76	22,402
560,96	23,187
561,16	24,627
561,35	22,418
561,55	26,734
561,74	22,143
561,94	25,728
562,13	23,820
562,33	25,328
562,52	23,197
562,72	23,519
562,91	21,664
563,11	20,939
563,30	23,871
563,50	20,275
563,69	22,128
563,89	22,178
564,08	25,024
564,28	21,958
564,47	21,961
564,67	21,842
564,86	22,687
565,06	21,667
565,25	23,880
565,45	23,119
565,64	25,754
565,84	23,625
566,03	23,278
566,23	25,020
566,42	23,538
566,62	22,975
566,81	22,894
567,01	23,886
567,20	23,822
567,40	20,097
567,59	23,440
567,79	24,060
567,98	25,843
568,18	24,702
568,37	22,845
568,57	23,447
568,76	26,302
568,96	24,066
569,15	24,100
569,35	24,892
569,54	25,153
569,73	24,954
569,93	22,674
570,12	24,661
570,32	24,513
570,51	24,037
570,71	25,008
570,90	24,559
571,10	24,776
571,29	24,518
571,49	23,617
571,68	24,158
571,87	22,950
572,07	23,785
572,26	23,042
572,46	24,474
572,65	24,202
572,85	22,189
573,04	24,798
573,24	24,100
573,43	26,575
573,62	24,714
573,82	24,524
574,01	24,008
574,21	25,090
574,40	22,741
574,60	22,411
574,79	26,369
574,98	23,495
575,18	26,132
575,37	23,311
575,57	24,714
575,76	24,186
575,96	25,510
576,15	23,950
576,34	23,612
576,54	25,224
576,73	24,061
576,93	24,363
577,12	24,122
577,31	24,052
577,51	23,518
577,70	22,327
577,90	24,313
578,09	24,450
578,28	24,278
578,48	23,426
578,67	25,982
578,87	24,297
579,06	24,314
579,25	24,886
579,45	24,445
579,64	23,366
579,84	23,970
580,03	23,567
580,22	25,650
580,42	23,284
580,61	25,191
580,81	25,080
581,00	24,864
581,19	25,162
581,39	23,669
581,58	22,992
581,77	24,387
581,97	27,001
582,16	24,544
582,35	24,076
582,55	24,156
582,74	26,373
582,94	23,276
583,13	22,026
583,32	25,742
583,52	24,154
583,71	25,396
583,90	25,119
584,10	24,274
584,29	25,173
584,48	23,457
584,68	24,172
584,87	24,997
585,06	25,910
585,26	23,022
585,45	24,813
585,65	25,610
585,84	24,447
586,03	24,942
586,23	23,592
586,42	24,846
586,61	26,289
586,81	24,352
587,00	23,929
587,19	23,327
587,39	27,109
587,58	25,495
587,77	24,304
587,97	23,652
588,16	24,064
588,35	25,467
588,54	24,352
588,74	24,036
588,93	25,948
589,12	24,370
589,32	24,936
589,51	24,819
589,70	24,458
589,90	22,879
590,09	26,084
590,28	27,102
590,48	25,126
590,67	25,854
590,86	26,849
591,06	26,437
591,25	26,639
591,44	25,463
591,63	26,428
591,83	26,425
592,02	25,505
592,21	25,044
592,41	24,895
592,60	24,756
592,79	27,135
592,98	25,080
593,18	26,067
593,37	25,225
593,56	26,472
593,76	27,351
593,95	26,749
594,14	25,241
594,33	27,564
594,53	26,639
594,72	26,294
594,91	29,615
595,10	27,954
595,30	25,057
595,49	25,491
595,68	28,229
595,88	27,200
596,07	28,704
596,26	27,940
596,45	27,045
596,65	26,186
596,84	25,611
597,03	27,123
597,22	28,203
597,42	29,356
597,61	26,694
597,80	26,782
597,99	27,897
598,19	29,211
598,38	28,309
598,57	27,958
598,76	26,721
598,95	29,767
599,15	28,972
599,34	28,362
599,53	28,203
599,72	26,957
599,92	27,987
600,11	27,595
600,30	29,119
600,49	28,300
600,69	26,741
600,88	27,886
601,07	28,822
601,26	26,970
601,45	28,751
601,65	26,649
601,84	28,652
602,03	26,750
602,22	28,840
602,42	28,448
602,61	28,216
602,80	28,379
602,99	29,661
603,18	26,032
603,38	27,740
603,57	27,452
603,76	27,960
603,95	27,757
604,14	28,509
604,34	27,200
604,53	28,444
604,72	27,440
604,91	29,904
605,10	30,653
605,29	29,175
605,49	26,771
605,68	28,158
605,87	29,492
606,06	28,385
606,25	27,118
606,45	30,226
606,64	27,757
606,83	29,737
607,02	27,915
607,21	28,716
607,40	28,433
607,60	26,587
607,79	26,191
607,98	25,080
608,17	26,799
608,36	25,433
608,55	26,150
608,75	27,837
608,94	26,705
609,13	24,547
609,32	24,025
609,51	24,954
609,70	23,717
609,89	23,999
610,09	23,038
610,28	25,254
610,47	24,456
610,66	23,764
610,85	23,047
611,04	24,437
611,23	23,422
611,43	23,627
611,62	23,330
611,81	23,128
612,00	23,937
612,19	23,308
612,38	24,613
612,57	25,329
612,77	24,111
612,96	26,281
613,15	25,238
613,34	25,319
613,53	26,703
613,72	28,839
613,91	27,557
614,10	26,870
614,29	27,582
614,49	26,153
614,68	25,822
614,87	27,015
615,06	31,294
615,25	25,709
615,44	28,994
615,63	28,166
615,82	27,183
616,01	27,378
616,21	27,104
616,40	29,884
616,59	30,740
616,78	28,375
616,97	30,485
617,16	28,643
617,35	29,582
617,54	27,414
617,73	28,799
617,92	28,385
618,11	29,016
618,31	26,630
618,50	30,120
618,69	29,767
618,88	28,161
619,07	28,708
619,26	26,968
619,45	28,687
619,64	29,933
619,83	27,570
620,02	26,432
620,21	30,201
620,40	29,932
620,59	27,301
620,78	26,824
620,97	29,596
621,17	30,029
621,36	29,887
621,55	28,681
621,74	29,323
621,93	28,728
622,12	28,246
622,31	27,224
622,50	29,312
622,69	31,461
622,88	28,994
623,07	29,738
623,26	30,671
623,45	30,298
623,64	29,101
623,83	29,043
624,02	30,138
624,21	31,253
624,40	30,153
624,59	28,169
624,78	31,244
624,97	31,135
625,16	28,301
625,35	28,108
625,54	29,548
625,73	29,137
625,92	29,964
626,12	29,975
626,31	31,764
626,50	30,549
626,69	29,965
626,88	28,371
627,07	30,648
627,26	31,675
627,45	28,886
627,64	30,073
627,83	29,926
628,02	29,483
628,21	28,314
628,40	29,396
628,59	31,658
628,78	29,233
628,97	27,609
629,16	28,092
629,35	28,780
629,54	30,694
629,73	28,653
629,92	28,551
630,10	29,965
630,29	30,611
630,48	28,883
630,67	31,086
630,86	29,951
631,05	29,447
631,24	31,617
631,43	27,736
631,62	30,038
631,81	30,655
632,00	29,646
632,19	28,349
632,38	30,878
632,57	32,246
632,76	30,241
632,95	30,327
633,14	31,169
633,33	31,498
633,52	30,583
633,71	31,624
633,90	29,801
634,09	30,717
634,28	31,293
634,47	29,752
634,66	29,547
634,85	32,122
635,04	33,023
635,22	30,429
635,41	31,378
635,60	30,429
635,79	32,010
635,98	29,027
636,17	29,641
636,36	30,252
636,55	30,408
636,74	29,040
636,93	31,397
637,12	31,754
637,31	29,328
637,50	30,444
637,69	33,056
637,87	31,651
638,06	31,415
638,25	30,919
638,44	30,752
638,63	28,355
638,82	30,926
639,01	31,488
639,20	31,597
639,39	31,901
639,58	30,772
639,77	31,940
639,95	30,321
640,14	32,216
640,33	30,809
640,52	29,465
640,71	32,203
640,90	30,943
641,09	32,041
641,28	30,269
641,47	31,107
641,66	30,496
641,84	31,298
642,03	31,232
642,22	31,121
642,41	32,380
642,60	31,376
642,79	31,429
642,98	30,720
643,17	31,378
643,35	30,783
643,54	30,924
643,73	32,939
643,92	31,231
644,11	30,901
644,30	29,661
644,49	32,342
644,67	30,516
644,86	31,177
645,05	32,779
645,24	30,961
645,43	31,832
645,62	29,796
645,81	31,969
645,99	34,082
646,18	31,337
646,37	29,972
646,56	30,213
646,75	33,239
646,94	32,520
647,13	32,581
647,31	29,151
647,50	32,970
647,69	32,083
647,88	31,419
648,07	31,953
648,26	34,272
648,44	32,247
648,63	31,191
648,82	31,102
649,01	32,751
649,20	30,401
649,38	31,807
649,57	30,511
649,76	29,673
649,95	31,877
650,14	30,820
650,33	29,104
650,51	31,908
650,70	33,783
650,89	31,021
651,08	31,822
651,27	32,218
651,45	29,946
651,64	30,315
651,83	32,332
652,02	30,417
652,21	34,309
652,39	33,449
652,58	33,312
652,77	31,921
652,96	32,536
653,15	32,255
653,33	33,516
653,52	32,006
653,71	33,436
653,90	32,527
654,09	33,247
654,27	31,730
654,46	34,511
654,65	33,109
654,84	33,825
655,02	34,827
655,21	33,703
655,40	34,278
655,59	32,932
655,77	34,533
655,96	33,341
656,15	34,004
656,34	34,955
656,53	33,815
656,71	33,542
656,90	33,225
657,09	34,295
657,28	33,873
657,46	32,207
657,65	32,731
657,84	32,019
658,03	32,858
658,21	32,200
658,40	31,888
658,59	32,056
658,78	32,597
658,96	31,192
659,15	32,129
659,34	32,095
659,52	33,052
659,71	32,994
659,90	30,549
660,09	31,401
660,27	31,791
660,46	33,463
660,65	31,463
660,84	31,349
661,02	31,671
661,21	31,821
661,40	32,324
661,58	32,059
661,77	32,626
661,96	29,248
662,15	32,774
662,33	30,119
662,52	32,921
662,71	31,404
662,89	30,472
663,08	30,667
663,27	30,372
663,45	31,482
663,64	31,959
663,83	29,865
664,02	30,279
664,20	30,958
664,39	30,897
664,58	31,794
664,76	31,347
664,95	30,521
665,14	31,648
665,32	30,482
665,51	30,752
665,70	31,597
665,88	30,831
666,07	32,120
666,26	31,785
666,44	32,094
666,63	31,380
666,82	31,549
667,00	32,475
667,19	30,856
667,38	30,103
667,56	32,139
667,75	32,841
667,94	31,923
668,12	29,708
668,31	32,889
668,50	31,649
668,68	32,712
668,87	30,540
669,06	31,370
669,24	32,200
669,43	30,380
669,62	31,264
669,80	30,550
669,99	31,483
670,18	32,769
670,36	30,698
670,55	31,828
670,74	31,103
670,92	30,177
671,11	32,555
671,29	31,885
671,48	31,951
671,67	32,288
671,85	31,881
672,04	30,921
672,23	30,929
672,41	30,953
672,60	31,751
672,78	30,390
672,97	30,419
673,16	31,116
673,34	30,649
673,53	30,860
673,71	31,381
673,90	32,119
674,09	31,633
674,27	29,667
674,46	31,454
674,64	30,660
674,83	31,010
675,02	29,847
675,20	31,771
675,39	31,164
675,57	31,816
675,76	30,509
675,95	32,732
676,13	31,916
676,32	31,715
676,50	29,654
676,69	30,090
676,88	31,122
677,06	31,345
677,25	30,869
677,43	34,439
677,62	33,338
677,80	31,735
677,99	31,455
678,18	32,749
678,36	32,874
678,55	30,757
678,73	29,817
678,92	31,648
679,10	30,289
679,29	31,047
679,48	30,313
679,66	31,377
679,85	31,521
680,03	31,272
680,22	30,873
680,40	30,769
680,59	31,893
680,77	31,873
680,96	33,091
681,15	31,315
681,33	33,537
681,52	30,605
681,70	31,901
681,89	34,372
682,07	32,694
682,26	31,465
682,44	32,766
682,63	31,882
682,81	32,356
683,00	32,928
683,18	29,730
683,37	33,725
683,55	31,132
683,74	32,157
683,92	33,707
684,11	30,833
684,29	32,156
684,48	29,221
684,67	32,326
684,85	32,992
685,04	31,599
685,22	31,875
685,41	30,529
685,59	31,713
685,78	30,634
685,96	31,018
686,15	30,563
686,33	30,705
686,52	31,647
686,70	32,018
686,89	31,796
687,07	34,001
687,26	31,418
687,44	32,270
687,62	31,138
687,81	31,182
687,99	30,593
688,18	31,187
688,36	31,900
688,55	32,392
688,73	32,453
688,92	30,829
689,10	31,237
689,29	32,476
689,47	33,143
689,66	30,579
689,84	30,193
690,03	34,303
690,21	31,739
690,40	31,855
690,58	31,269
690,76	30,794
690,95	32,525
691,13	31,962
691,32	32,909
691,50	32,795
691,69	33,284
691,87	30,847
692,06	30,406
692,24	30,994
692,43	31,942
692,61	29,397
692,79	31,451
692,98	29,591
693,16	33,962
693,35	30,387
693,53	30,848
693,72	32,677
693,90	31,666
694,08	31,865
694,27	30,973
694,45	34,417
694,64	32,284
694,82	31,788
695,01	30,115
695,19	31,509
695,37	32,050
695,56	32,196
695,74	32,405
695,93	32,946
696,11	30,491
696,29	32,484
696,48	32,369
696,66	32,850
696,85	32,157
697,03	30,892
697,21	33,924
697,40	33,016
697,58	30,993
697,77	32,055
697,95	33,565
698,13	31,231
698,32	30,286
698,50	32,120
698,69	29,817
698,87	33,347
699,05	31,068
699,24	31,496
699,42	31,195
699,60	30,023
699,79	33,277
699,97	32,978
700,16	30,126
700,34	33,099
700,52	31,571
700,71	30,719
700,89	32,468
701,07	31,056
701,26	31,358
701,44	32,357
701,63	30,848
701,81	31,877
701,99	32,823
702,18	28,497
702,36	29,745
702,54	31,145
702,73	30,871
702,91	31,091
703,09	31,731
703,28	31,974
703,46	33,016
703,64	31,272
703,83	30,875
704,01	32,482
704,19	31,463
704,38	30,801
704,56	31,387
704,74	33,274
704,93	30,499
705,11	31,602
705,29	30,457
705,48	35,091
705,66	31,770
705,84	31,032
706,03	30,634
706,21	32,254
706,39	30,099
706,58	31,312
706,76	31,267
706,94	32,377
707,12	33,208
707,31	30,328
707,49	29,526
707,67	30,320
707,86	33,954
708,04	32,102
708,22	30,880
708,41	30,865
708,59	32,237
708,77	30,381
708,95	32,072
709,14	33,827
709,32	31,316
709,50	30,709
709,69	29,253
709,87	31,553
710,05	31,720
710,23	31,326
710,42	30,446
710,60	31,026
710,78	32,689
710,97	30,812
711,15	30,472
711,33	32,665
711,51	29,504
711,70	29,525
711,88	31,521
712,06	32,685
712,24	32,117
712,43	31,465
712,61	30,876
712,79	30,724
712,97	32,243
713,16	31,609
713,34	31,417
713,52	32,060
713,70	33,232
713,89	31,844
714,07	30,125
714,25	32,500
714,43	34,809
714,62	30,714
714,80	32,575
714,98	29,615
715,16	31,564
715,35	29,122
715,53	32,221
715,71	32,574
715,89	33,709
716,07	32,082
716,26	35,458
716,44	30,513
716,62	33,083
716,80	30,797
716,99	31,303
717,17	32,242
717,35	30,842
717,53	31,314
717,71	30,316
717,90	31,147
718,08	33,226
718,26	29,163
718,44	32,174
718,62	33,364
718,81	31,755
718,99	30,070
719,17	30,472
719,35	31,475
719,53	32,007
719,72	31,457
719,90	32,396
720,08	33,172
720,26	32,246
720,44	29,588
720,62	32,381
720,81	33,080
720,99	33,451
721,17	30,051
721,35	32,127
721,53	32,367
721,72	32,088
721,90	33,522
722,08	30,626
722,26	31,912
722,44	31,738
722,62	30,797
722,81	31,339
722,99	32,347
723,17	32,018
723,35	34,043
723,53	31,572
723,71	32,467
723,89	32,921
724,08	31,831
724,26	32,248
724,44	32,088
724,62	33,462
724,80	29,978
724,98	30,692
725,16	32,504
725,35	31,527
725,53	31,175
725,71	31,214
725,89	32,465
726,07	33,295
726,25	32,177
726,43	31,597
726,61	32,727
726,80	33,467
726,98	30,524
727,16	31,321
727,34	33,773
727,52	33,286
727,70	30,808
727,88	31,154
728,06	30,371
728,25	30,789
728,43	31,362
728,61	31,867
728,79	31,237
728,97	32,251
729,15	31,496
729,33	33,250
729,51	32,745
729,69	34,093
729,87	32,079
730,06	31,366
730,24	31,940
730,42	33,160
730,60	29,814
730,78	33,699
730,96	32,014
731,14	34,340
731,32	31,809
731,50	30,117
731,68	32,555
731,86	31,950
732,04	33,513
732,22	29,500
732,41	34,077
732,59	32,525
732,77	31,848
732,95	31,309
733,13	32,910
733,31	32,825
733,49	30,923
733,67	33,350
733,85	34,427
734,03	34,771
734,21	31,961
734,39	31,444
734,57	35,289
734,75	32,623
734,93	29,123
735,11	33,644
735,29	32,315
735,47	34,226
735,65	33,034
735,84	29,452
736,02	32,976
736,20	33,572
736,38	29,954
736,56	30,764
736,74	32,378
736,92	32,046
737,10	32,882
737,28	32,979
737,46	31,149
737,64	31,797
737,82	31,275
738,00	32,840
738,18	33,367
738,36	33,333
738,54	31,532
738,72	30,060
738,90	31,954
739,08	31,496
739,26	30,050
739,44	28,374
739,62	32,984
739,80	30,513
739,98	31,678
740,16	31,106
740,34	32,153
740,52	34,483
740,70	31,573
740,88	30,939
741,06	32,061
741,24	33,101
741,42	32,606
741,60	29,834
741,78	32,931
741,96	30,231
742,14	30,571
742,32	29,341
742,50	30,436
742,68	32,748
742,86	31,345
743,04	31,166
743,21	34,150
743,39	33,509
743,57	31,091
743,75	32,519
743,93	31,909
744,11	29,952
744,29	30,920
744,47	32,204
744,65	32,253
744,83	30,750
745,01	31,249
745,19	32,974
745,37	33,283
745,55	32,432
745,73	34,981
745,91	31,568
746,09	32,361
746,27	29,956
746,45	30,652
746,62	31,557
746,80	30,879
746,98	31,301
747,16	30,917
747,34	31,434
747,52	31,169
747,70	32,462
747,88	28,908
748,06	32,118
748,24	31,041
748,42	33,295
748,60	30,984
748,78	30,926
748,95	33,708
749,13	35,553
749,31	31,399
749,49	31,253
749,67	31,713
749,85	34,250
750,03	31,516
750,21	31,885
750,39	32,114
750,57	35,039
750,74	31,624
750,92	31,306
751,10	33,152
751,28	30,121
751,46	31,363
751,64	30,665
751,82	31,498
752,00	32,138
752,17	32,636
752,35	31,463
752,53	31,357
752,71	30,509
752,89	31,717
753,07	31,500
753,25	33,349
753,43	29,773
753,60	32,707
753,78	31,161
753,96	34,151
754,14	31,965
754,32	32,064
754,50	32,137
754,68	33,994
754,85	31,779
755,03	32,982
755,21	31,671
755,39	32,898
755,57	32,450
755,75	31,596
755,92	32,354
756,10	32,509
756,28	32,643
756,46	30,951
756,64	30,752
756,82	30,868
756,99	31,920
757,17	31,416
757,35	30,184
757,53	34,332
757,71	34,657
757,89	31,324
758,06	31,904
758,24	32,516
758,42	33,212
758,60	30,991
758,78	31,253
758,95	32,498
759,13	32,947
759,31	31,791
759,49	29,918
759,67	33,302
759,84	32,710
760,02	31,103
760,20	32,030
760,38	31,578
760,56	30,963
760,73	32,445
760,91	33,597
761,09	32,377
761,27	31,831
761,45	32,737
761,62	31,661
761,80	32,340
761,98	31,671
762,16	33,063
762,33	31,923
762,51	34,392
762,69	32,197
762,87	30,889
763,05	31,141
763,22	33,059
763,40	32,081
763,58	31,035
763,76	31,566
763,93	33,893
764,11	33,687
764,29	29,004
764,47	30,743
764,64	32,426
764,82	32,878
765,00	30,053
765,18	30,128
765,35	32,684
765,53	32,176
765,71	33,166
765,89	31,771
766,06	30,889
766,24	32,389
766,42	31,694
766,60	31,680
766,77	32,621
766,95	29,987
767,13	30,194
767,30	31,412
767,48	31,308
767,66	30,615
767,84	30,661
768,01	30,761
768,19	33,132
768,37	29,074
768,54	30,452
768,72	32,897
768,90	34,310
769,08	31,658
769,25	34,215
769,43	31,687
769,61	29,585
769,78	32,982
769,96	30,084
770,14	34,148
770,31	32,022
770,49	33,722
770,67	33,707
770,85	28,407
771,02	32,391
771,20	32,025
771,38	31,877
771,55	30,031
771,73	30,145
771,91	32,635
772,08	34,387
772,26	31,091
772,44	30,736
772,61	30,319
772,79	31,447
772,97	31,875
773,14	28,846
773,32	33,617
773,50	30,604
773,67	28,896
773,85	34,146
774,03	30,429
774,20	31,396
774,38	31,691
774,56	32,408
774,73	31,120
774,91	30,101
775,09	30,424
775,26	31,858
775,44	31,555
775,61	32,582
775,79	31,529
775,97	34,634
776,14	28,172
776,32	31,281
776,50	33,741
776,67	30,738
776,85	31,083
777,03	29,559
777,20	30,252
777,38	32,501
777,55	30,802
777,73	29,271
777,91	30,367
778,08	32,595
778,26	33,110
778,43	32,002
778,61	28,065
778,79	31,518
778,96	27,965
779,14	30,614
779,32	31,651
779,49	32,862
779,67	34,047
779,84	32,418
780,02	32,151
780,20	30,112
780,37	34,043
780,55	26,659
780,72	33,832
780,90	31,060
781,07	31,416
781,25	31,093
781,43	33,226
781,60	30,757
781,78	32,508
781,95	31,738
782,13	29,906
782,30	33,961
782,48	31,665
782,66	31,786
782,83	28,098
783,01	34,763
783,18	32,990
783,36	33,269
783,53	32,453
783,71	30,789
783,89	32,564
784,06	32,140
784,24	32,376
784,41	32,141
784,59	31,700
784,76	30,660
784,94	31,247
785,11	32,639
785,29	31,128
785,46	31,725
785,64	32,722
785,82	32,122
785,99	31,065
786,17	33,834
786,34	31,234
786,52	32,860
786,69	35,410
786,87	31,492
787,04	31,399
787,22	31,225
787,39	34,797
787,57	32,938
787,74	31,890
787,92	33,178
788,09	31,656
788,27	31,386
788,44	32,573
788,62	31,951
788,79	31,917
788,97	34,989
789,14	32,636
789,32	31,892
789,49	30,556
789,67	33,049
789,84	31,533
790,02	32,128
790,19	32,514
790,37	33,013
790,54	33,275
790,72	34,105
790,89	36,618
791,07	35,324
791,24	28,602
791,42	33,358
791,59	33,818
791,77	31,700
791,94	29,963
792,12	30,990
792,29	34,325
792,47	37,193
792,64	33,722
792,81	32,586
792,99	30,880
793,16	32,032
793,34	34,002
793,51	31,679
793,69	35,215
793,86	31,192
794,04	33,817
794,21	34,884
794,39	30,348
794,56	30,635
794,73	33,960
794,91	33,707
795,08	34,776
795,26	30,507
795,43	32,287
795,61	33,342
795,78	33,845
795,95	33,873
796,13	32,045
796,30	34,505
796,48	30,626
796,65	33,456
796,83	34,997
797,00	35,105
797,17	33,157
797,35	32,624
797,52	34,809
797,70	34,827
797,87	31,753
798,04	28,894
798,22	33,038
798,39	30,204
798,57	32,160
798,74	32,369
798,91	30,297
799,09	32,206
799,26	34,556
799,44	32,407
799,61	33,233
799,78	31,232
799,96	33,501
800,13	34,943
800,31	32,388
800,48	36,918
800,65	35,992
800,83	32,713
801,00	31,697
801,17	30,805
801,35	30,778
801,52	33,353
801,70	33,383
801,87	33,323
802,04	34,161
802,22	29,273
802,39	33,016
802,56	37,136
802,74	32,743
802,91	33,524
803,08	31,987
803,26	33,302
803,43	36,647
803,61	32,625
803,78	29,145
803,95	34,792
804,13	31,887
804,30	32,586
804,47	35,299
804,65	35,891
804,82	33,281
804,99	31,246
805,17	35,840
805,34	37,226
805,51	36,165
805,69	32,232
805,86	33,008
806,03	37,140
806,21	32,276
806,38	32,276
806,55	39,975
806,72	37,706
806,90	33,709
807,07	30,595
807,24	31,155
807,42	33,650
807,59	36,189
807,76	28,300
807,94	32,559
808,11	32,334
808,28	39,871
808,45	33,869
808,63	35,888
808,80	38,448
808,97	34,237
809,15	32,381
809,32	37,613
809,49	30,310
809,67	31,386
809,84	34,626
810,01	35,281
810,18	38,211
810,36	35,858
810,53	34,990
810,70	33,867
810,87	36,280
811,05	34,636
811,22	33,370
811,39	33,545
811,57	35,625
811,74	35,582
811,91	27,910
812,08	31,552
812,26	34,320
812,43	33,074
812,60	34,016
812,77	30,454
812,95	35,632
813,12	33,613
813,29	28,350
813,46	35,314
813,64	33,899
813,81	34,744
813,98	33,054
814,15	33,938
814,32	36,044
814,50	34,803
814,67	35,140
814,84	34,566
815,01	33,917
815,19	34,214
815,36	28,742
815,53	33,046
815,70	31,343
815,87	34,815
816,05	33,345
816,22	33,385
816,39	36,371
816,56	34,737
816,74	33,885
816,91	36,523
817,08	39,351
817,25	35,030
817,42	35,592
817,60	31,552
817,77	36,893
817,94	37,439
818,11	37,860
818,28	33,168
818,45	38,182
818,63	36,614
818,80	36,039
818,97	34,748
819,14	35,225
819,31	42,580
819,49	38,043
819,66	33,130
819,83	36,184
820,00	34,835
820,17	34,588
820,34	30,156
820,52	40,626
820,69	38,455
820,86	32,932
821,03	34,452
821,20	36,936
821,37	36,871
821,55	30,092
821,72	37,201
821,89	35,453
822,06	37,154
822,23	32,107
822,40	35,993
822,57	36,553
822,75	38,319
822,92	31,692
823,09	32,098
823,26	35,070
823,43	38,437
823,60	32,256
823,77	34,278
823,94	33,232
824,12	39,395
824,29	32,201
824,46	32,744
824,63	38,612
824,80	36,662
824,97	36,941
825,14	36,182
825,31	37,218
825,49	35,339
825,66	32,256
825,83	32,340
826,00	33,719
826,17	44,408
826,34	33,630
826,51	31,581
826,68	31,383
826,85	37,914
827,02	32,886
827,20	30,092
827,37	35,207
827,54	38,387
827,71	33,513
827,88	35,613
828,05	38,371
828,22	35,309
828,39	34,655
828,56	32,779
828,73	39,232
828,90	37,804
829,07	36,894
829,25	34,523
829,42	36,918
829,59	30,964
829,76	31,501
829,93	30,432
830,10	33,386
830,27	31,845
830,44	34,911
830,61	38,641
830,78	39,848
830,95	31,767
831,12	29,784
831,29	36,190
831,46	33,168
831,63	34,478
831,80	36,535
831,97	38,421
832,14	36,734
832,31	39,691
832,48	32,420
832,65	36,820
832,83	39,635
833,00	42,766
833,17	32,095
833,34	32,960
833,51	35,960
833,68	41,266
833,85	39,164
834,02	30,026
834,19	34,117
834,36	37,546
834,53	31,423
834,70	38,443
834,87	37,787
835,04	35,430
835,21	36,679
835,38	29,860
835,55	39,661
835,72	40,223
835,89	34,334
836,06	38,512
836,23	48,724
836,40	31,422
836,57	29,093
836,74	36,812
836,91	38,296
837,08	41,973
837,25	35,994
837,42	30,614
837,59	40,726
837,76	35,241
837,93	37,587
838,09	38,437
838,26	39,740
838,43	49,119
838,60	41,082
838,77	34,214
838,94	42,695
839,11	37,753
839,28	37,447
839,45	37,327
839,62	34,021
839,79	38,295
839,96	38,913
840,13	35,310
840,30	37,345
840,47	25,332
840,64	39,586
840,81	34,833
840,98	32,027
841,15	41,545
841,32	31,664
841,48	39,347
841,65	43,719
841,82	32,152
841,99	37,983
842,16	36,197
842,33	50,039
842,50	45,325
842,67	37,596
842,84	44,151
843,01	42,539
843,18	36,834
843,35	37,201
843,52	28,044
843,68	35,777
843,85	40,666
844,02	34,642
844,19	27,097
844,36	41,640
844,53	40,505
844,70	34,768
844,87	37,916
845,04	35,625
845,21	26,895
845,37	41,075
845,54	33,076
845,71	32,626
845,88	48,567
846,05	26,551
846,22	30,768
846,39	37,992
846,56	41,080
846,72	26,434
846,89	32,078
847,06	47,281
847,23	41,247
847,40	27,811
847,57	32,770
847,74	38,055
847,90	46,797
848,07	34,385
848,24	39,027
848,41	35,474
848,58	47,048
848,75	43,176
848,92	31,461
849,08	31,511
849,25	35,989
849,42	31,532
849,59	35,980
849,76	37,548
849,93	34,769
850,09	37,931
850,26	28,419
850,43	51,644
850,60	47,387
850,77	35,127
850,94	41,721
851,10	32,213
851,27	46,947
851,44	26,559
851,61	37,487
851,78	43,782
851,95	34,121
852,11	30,144
852,28	32,434
852,45	41,598
852,62	35,346
852,79	28,114
852,95	31,756
853,12	38,080
853,29	33,818
853,46	29,209
853,63	41,036
853,79	33,975
853,96	42,517
854,13	42,052
854,30	35,798
854,46	60,119
854,63	44,009
854,80	36,549
854,97	34,224
855,14	49,947
855,30	45,395
855,47	21,336
855,64	36,658
855,81	37,365
855,97	50,166
856,14	36,616
856,31	31,514
856,48	56,224
856,65	60,696
856,81	27,927
856,98	29,132
857,15	40,950
857,32	43,690
857,48	33,289
857,65	49,941
857,82	43,148
857,99	45,621
858,15	36,199
858,32	26,656
858,49	41,647
858,65	51,019
858,82	34,910
858,99	40,414
859,16	52,809
859,32	44,224
859,49	41,045
859,66	38,678
859,83	47,602
859,99	31,360
860,16	36,132
860,33	42,392
860,49	53,397
860,66	49,412
860,83	50,473
861,00	41,455
861,16	47,029
861,33	46,491
861,50	39,203
861,66	38,270
861,83	65,945
862,00	37,728
862,16	39,165
862,33	47,827
862,50	54,502
862,67	45,278
862,83	45,678
863,00	32,894
863,17	46,806
863,33	52,434
863,50	28,667
863,67	38,967
863,83	43,852
864,00	56,154
864,17	28,820
864,33	43,907
864,50	55,741
864,67	37,558
864,83	32,912
865,00	39,281
865,17	31,594
865,33	56,586
865,50	30,137
865,67	46,436
865,83	49,674
866,00	57,291
866,17	48,831
866,33	38,610
866,50	65,582
866,66	51,587
866,83	20,408
867,00	44,719
867,16	63,212
867,33	69,649
867,50	13,920
867,66	15,751
867,83	73,004
868,00	45,001
868,16	49,212
868,33	32,722
868,49	41,835
868,66	58,321
868,83	39,122
868,99	49,911
869,16	44,982
869,32	54,509
869,49	38,571
869,66	18,175
869,82	63,624
869,99	61,928
870,15	15,859
870,32	53,425
870,49	82,207
870,65	78,209
870,82	50,222
870,98	41,944
871,15	49,360
871,32	39,827
871,48	16,319
871,65	16,171
871,81	62,422
871,98	22,704
872,15	18,114
872,31	58,737
872,48	100,632
872,64	56,173
872,81	5,819
872,97	34,836
873,14	72,292
873,31	66,235
873,47	43,221
873,64	46,449
873,80	25,762
873,97	92,555
874,13	16,909
874,30	52,061
874,46	56,235
874,63	35,387
874,80	35,634
874,96	23,643
875,13	88,773
875,29	55,347
875,46	74,086
875,62	5,021
875,79	77,512
875,95	52,835
876,12	45,323
876,28	43,433
876,45	62,210
876,61	58,014
876,78	48,390
876,94	48,624
877,11	88,124
877,27	63,593
877,44	70,134
877,60	38,343
877,77	115,610
877,94	96,712
878,10	33,714
878,27	42,701
878,43	113,083
878,60	43,506
878,76	49,736
878,93	44,328
879,09	57,742
879,26	46,669
879,42	71,442
879,58	26,269
879,75	93,178
879,91	72,215
880,08	-1,094
880,24	87,141
880,41	53,155
880,57	82,489
880,74	33,585
880,90	41,105
881,07	73,509
881,23	39,010
881,40	66,676
881,56	80,603
881,73	79,415
881,89	63,573
882,06	40,523
882,22	103,403
882,38	110,396
882,55	86,879
882,71	-0,024
882,88	69,969
883,04	166,809
883,21	145,012
883,37	70,578
883,54	46,980
883,70	120,943
883,86	68,683
884,03	61,209
884,19	49,397
884,36	-42,512
884,52	179,083
884,69	43,336
884,85	43,078
885,01	206,651
885,18	109,050
885,34	55,429
885,51	-2,839
885,67	65,228
>>>>> Data<<<<< Espectral Procesado Extremo
