Fichero De Datos De SpectraSuite
++++++++++++++++++++++++++++++++++++
Fecha: Wed Apr 22 11:08:48 CEST 2009
Usuario: evoflor
Presente Oscuro Del Espectro: Sí
La Referencia de Presente Del Espectro De: Sí
Muestreados de los componentes de Número de espectros: 1
Espectrómetros: USB4F02353
Tiempo de integración (usec): 500000 (USB4F02353)
Promedio de Espectros Hechos un: 5 (USB4F02353)
El Alisar Del Furgón: 0 (USB4F02353)
Párrafo de de Corregir del la del del de Eléctrica del obscuridad: Sí (USB4F02353)
Estrobo/Lámpara Permitido: No (USB4F02353)
Correct for Detector Non-linearity: No (USB4F02353)
Párrafo de de Corregir del la del del de Externa del luz: No (USB4F02353)
Procesado del espectro de Número de pixeles en: 3648
>>>>> Comienza Data<<<<< Espectral Procesado Del EL
177,79	206,698
178,00	206,698
178,22	206,698
178,44	1015,934
178,66	-4,111
178,88	183,876
179,09	-357,234
179,31	275,913
179,53	427,090
179,75	90,211
179,96	467,672
180,18	-189,077
180,40	241,561
180,62	389,788
180,83	-125,413
181,05	-727,439
181,27	-71350,000
181,49	-55,326
181,70	302,115
181,92	348,477
182,14	225,753
182,36	264,532
182,58	762,500
182,79	503,348
183,01	72,590
183,23	116,543
183,45	-316,462
183,66	98,451
183,88	530,882
184,10	-1428,182
184,32	123,144
184,53	226,662
184,75	-180,769
184,97	18,961
185,18	-225,470
185,40	-282,452
185,62	27,806
185,84	177,402
186,05	134,897
186,27	-119,051
186,49	5548,077
186,71	17,568
186,92	120,012
187,14	-231,196
187,36	87,599
187,58	36,845
187,79	-8,587
188,01	181,221
188,23	-159,233
188,45	134,164
188,66	495,313
188,88	-806,364
189,10	-1037,500
189,31	48,720
189,53	-75,091
189,75	387,159
189,97	174,038
190,18	132,403
190,40	515,000
190,62	124,055
190,83	-266,634
191,05	94,833
191,27	386,429
191,49	203,342
191,70	-204,567
191,92	623,305
192,14	-5,018
192,35	418,435
192,57	2938,571
192,79	39,079
193,01	32,571
193,22	56,939
193,44	74,829
193,66	100,256
193,87	23,662
194,09	-7,127
194,31	171,775
194,53	568,182
194,74	100,565
194,96	-58,376
195,18	113,249
195,39	-171,636
195,61	-131,514
195,83	-233,370
196,04	97,836
196,26	170,603
196,48	-27,244
196,70	215,209
196,91	-89,528
197,13	189,747
197,35	-54,216
197,56	789,319
197,78	1002,612
198,00	473,776
198,21	149,757
198,43	-59,012
198,65	151,692
198,86	327,878
199,08	-2,131
199,30	149,899
199,51	-264,658
199,73	123,609
199,95	254,579
200,16	513,269
200,38	331,955
200,60	83,809
200,81	249,143
201,03	328,397
201,25	-767,500
201,46	137,220
201,68	132,564
201,90	946,591
202,11	-461,260
202,33	5,296
202,55	171,875
202,76	-19,851
202,98	101,220
203,20	-35,817
203,41	-313,947
203,63	-25,000
203,85	-96550,000
204,06	-1,508
204,28	-83,012
204,50	121,415
204,71	246,908
204,93	-228,400
205,15	117,319
205,36	-191,491
205,58	278,599
205,80	83,274
206,01	33,829
206,23	115,525
206,45	207,335
206,66	117,339
206,88	-45,798
207,10	323,750
207,31	182,715
207,53	152,429
207,75	13,218
207,96	666,791
208,18	-200,085
208,39	30,218
208,61	2475,714
208,83	-274,959
209,04	67,987
209,26	-237,558
209,48	86,382
209,69	218,145
209,91	231,926
210,13	71,572
210,34	-66,949
210,56	151,882
210,77	-597,244
210,99	55,660
211,21	1814,706
211,42	-56,861
211,64	39,095
211,86	188,953
212,07	173,338
212,29	140,028
212,50	97,570
212,72	156,731
212,94	129,466
213,15	63,525
213,37	45,499
213,58	-12,528
213,80	-298,214
214,02	3985,294
214,23	146,624
214,45	590,984
214,67	-1144,512
214,88	138,087
215,10	-182,658
215,31	79,148
215,53	53,750
215,75	88,087
215,96	1410,248
216,18	561,268
216,39	72,949
216,61	368,013
216,83	499,330
217,04	882,584
217,26	33,790
217,47	147,080
217,69	223,526
217,91	61,985
218,12	-128050,000
218,34	122,076
218,55	268,037
218,77	88,202
218,99	134,619
219,20	69,452
219,42	289,863
219,63	76,226
219,85	-161,373
220,06	-317,500
220,28	55,372
220,50	1,454
220,71	124,425
220,93	2483,962
221,14	-1370,500
221,36	58,031
221,58	12,636
221,79	98,668
222,01	-98,707
222,22	-99,013
222,44	-593,820
222,65	79,968
222,87	543,007
223,09	146,858
223,30	89,357
223,52	147,756
223,73	-44,844
223,95	-35,141
224,16	130,412
224,38	169,076
224,60	71,579
224,81	-141,415
225,03	108,315
225,24	53,075
225,46	55,731
225,67	-8,904
225,89	17,997
226,10	225,753
226,32	1118,000
226,54	-12,306
226,75	-40,998
226,97	148,052
227,18	102,323
227,40	42,983
227,61	14,527
227,83	-5,045
228,04	45,768
228,26	24,863
228,47	61,970
228,69	93,894
228,91	97,666
229,12	54,412
229,34	16,249
229,55	69,905
229,77	21,489
229,98	-25,121
230,20	22,013
230,41	-42,124
230,63	85,459
230,84	18,360
231,06	1,317
231,27	-1,737
231,49	48,261
231,71	25,371
231,92	28,504
232,14	10,520
232,35	55,062
232,57	52,019
232,78	10,236
233,00	18,880
233,21	25,720
233,43	19,975
233,64	9,548
233,86	28,502
234,07	29,352
234,29	18,501
234,50	18,060
234,72	41,558
234,93	4,781
235,15	15,814
235,36	23,560
235,58	16,301
235,79	31,238
236,01	29,353
236,22	10,110
236,44	38,190
236,65	26,772
236,87	11,948
237,08	13,042
237,30	8,546
237,51	8,313
237,73	10,969
237,94	2,975
238,16	4,508
238,37	-0,355
238,59	0,978
238,80	24,529
239,02	7,810
239,23	7,699
239,45	-8,392
239,66	32,509
239,88	21,063
240,09	12,492
240,31	0,563
240,52	11,522
240,74	17,438
240,95	9,654
241,17	0,140
241,38	6,199
241,60	10,369
241,81	15,000
242,03	4,753
242,24	13,470
242,46	18,312
242,67	6,773
242,89	11,508
243,10	18,527
243,32	20,961
243,53	6,842
243,75	14,202
243,96	8,862
244,18	10,356
244,39	7,211
244,60	2,541
244,82	5,006
245,03	21,176
245,25	4,995
245,46	20,828
245,68	6,841
245,89	13,218
246,11	8,414
246,32	9,363
246,54	-1,892
246,75	5,590
246,97	6,683
247,18	16,896
247,39	12,589
247,61	10,344
247,82	5,037
248,04	5,885
248,25	6,893
248,47	11,826
248,68	10,691
248,90	-4,856
249,11	10,047
249,33	14,847
249,54	9,279
249,75	9,350
249,97	3,361
250,18	12,317
250,40	13,689
250,61	-5,581
250,83	6,069
251,04	7,452
251,25	11,194
251,47	0,819
251,68	8,085
251,90	5,916
252,11	10,799
252,33	3,434
252,54	6,097
252,76	7,018
252,97	3,394
253,18	-0,132
253,40	9,770
253,61	2,389
253,83	9,480
254,04	9,905
254,25	7,295
254,47	3,202
254,68	11,487
254,90	8,579
255,11	9,670
255,33	8,004
255,54	5,644
255,75	7,888
255,97	8,914
256,18	4,592
256,40	5,904
256,61	8,510
256,82	0,838
257,04	9,901
257,25	4,851
257,47	5,073
257,68	3,418
257,89	8,784
258,11	7,529
258,32	6,241
258,54	7,553
258,75	9,532
258,96	11,288
259,18	7,717
259,39	2,890
259,61	9,323
259,82	1,346
260,03	8,335
260,25	9,967
260,46	4,135
260,68	7,143
260,89	6,931
261,10	5,599
261,32	6,020
261,53	5,319
261,75	7,163
261,96	-0,155
262,17	9,603
262,39	13,686
262,60	1,801
262,81	2,711
263,03	10,167
263,24	4,525
263,46	3,374
263,67	4,334
263,88	6,387
264,10	7,330
264,31	4,076
264,52	7,959
264,74	8,755
264,95	4,791
265,17	7,321
265,38	4,425
265,59	12,434
265,81	6,236
266,02	4,432
266,23	1,200
266,45	13,807
266,66	11,046
266,87	10,875
267,09	7,887
267,30	9,668
267,52	7,063
267,73	5,946
267,94	8,449
268,16	9,600
268,37	6,604
268,58	3,758
268,80	5,966
269,01	5,443
269,22	7,948
269,44	8,847
269,65	7,137
269,86	3,927
270,08	9,144
270,29	1,790
270,50	6,829
270,72	6,789
270,93	4,774
271,14	3,772
271,36	2,578
271,57	3,894
271,78	3,104
272,00	8,769
272,21	6,408
272,42	6,764
272,64	10,137
272,85	4,776
273,06	3,867
273,28	6,219
273,49	5,787
273,70	11,432
273,92	5,880
274,13	9,342
274,34	5,751
274,56	7,951
274,77	2,004
274,98	8,426
275,20	9,886
275,41	7,919
275,62	6,892
275,84	4,080
276,05	11,400
276,26	6,604
276,47	2,556
276,69	9,013
276,90	7,744
277,11	4,879
277,33	6,115
277,54	6,693
277,75	7,877
277,97	2,720
278,18	6,554
278,39	7,529
278,61	6,923
278,82	6,760
279,03	8,264
279,24	7,441
279,46	3,633
279,67	7,424
279,88	4,552
280,10	9,061
280,31	3,150
280,52	6,962
280,73	4,162
280,95	6,712
281,16	9,317
281,37	5,373
281,59	11,160
281,80	9,912
282,01	4,196
282,22	3,996
282,44	3,458
282,65	10,645
282,86	7,559
283,08	6,185
283,29	6,272
283,50	8,165
283,71	5,113
283,93	6,301
284,14	10,275
284,35	3,948
284,56	6,603
284,78	2,853
284,99	7,039
285,20	7,100
285,42	8,274
285,63	5,369
285,84	3,209
286,05	5,606
286,27	5,731
286,48	3,578
286,69	5,650
286,90	4,047
287,12	4,079
287,33	4,083
287,54	2,698
287,75	4,672
287,97	7,677
288,18	2,458
288,39	4,379
288,60	4,760
288,82	4,096
289,03	5,614
289,24	7,320
289,45	8,986
289,67	4,475
289,88	3,189
290,09	5,734
290,30	6,779
290,52	6,644
290,73	5,633
290,94	1,986
291,15	6,956
291,37	6,009
291,58	6,505
291,79	6,626
292,00	6,829
292,21	8,232
292,43	1,440
292,64	5,340
292,85	3,891
293,06	8,127
293,28	5,186
293,49	3,913
293,70	8,745
293,91	6,495
294,12	4,140
294,34	2,254
294,55	5,262
294,76	5,904
294,97	7,067
295,19	1,833
295,40	6,098
295,61	7,257
295,82	2,018
296,03	6,691
296,25	7,460
296,46	2,436
296,67	4,164
296,88	3,297
297,09	6,248
297,31	4,859
297,52	2,734
297,73	2,290
297,94	8,447
298,15	4,455
298,37	5,051
298,58	7,318
298,79	6,445
299,00	4,620
299,21	4,723
299,43	3,313
299,64	9,047
299,85	4,244
300,06	3,403
300,27	4,016
300,49	10,351
300,70	4,512
300,91	5,865
301,12	3,562
301,33	8,456
301,54	3,383
301,76	5,377
301,97	3,842
302,18	3,092
302,39	8,244
302,60	6,158
302,82	5,533
303,03	7,885
303,24	6,615
303,45	4,117
303,66	5,644
303,87	4,503
304,09	6,584
304,30	3,944
304,51	3,704
304,72	2,478
304,93	7,735
305,14	7,442
305,36	2,398
305,57	2,773
305,78	5,355
305,99	4,237
306,20	5,251
306,41	3,375
306,62	5,131
306,84	4,245
307,05	3,898
307,26	7,559
307,47	7,569
307,68	5,230
307,89	5,501
308,11	6,552
308,32	2,349
308,53	4,834
308,74	2,050
308,95	4,538
309,16	5,736
309,37	9,403
309,59	2,934
309,80	5,301
310,01	4,686
310,22	5,919
310,43	3,541
310,64	4,614
310,85	5,262
311,06	5,052
311,28	6,504
311,49	6,325
311,70	10,355
311,91	3,349
312,12	5,930
312,33	5,862
312,54	6,330
312,75	3,772
312,97	2,728
313,18	5,744
313,39	3,001
313,60	3,557
313,81	3,376
314,02	6,317
314,23	5,502
314,44	5,188
314,65	6,703
314,87	4,972
315,08	3,379
315,29	7,723
315,50	6,880
315,71	5,764
315,92	8,817
316,13	6,611
316,34	3,652
316,55	7,900
316,77	2,984
316,98	4,828
317,19	2,109
317,40	6,125
317,61	7,132
317,82	5,494
318,03	3,979
318,24	4,541
318,45	5,744
318,66	3,166
318,87	3,574
319,09	7,203
319,30	7,226
319,51	6,643
319,72	7,833
319,93	5,992
320,14	8,695
320,35	8,133
320,56	5,096
320,77	4,468
320,98	9,216
321,19	4,614
321,40	1,948
321,62	8,976
321,83	5,879
322,04	7,964
322,25	3,578
322,46	8,301
322,67	7,759
322,88	5,634
323,09	4,443
323,30	7,223
323,51	5,487
323,72	6,914
323,93	6,154
324,14	2,748
324,35	3,404
324,56	2,510
324,77	5,830
324,99	3,362
325,20	-1,182
325,41	7,007
325,62	6,322
325,83	4,053
326,04	4,597
326,25	7,305
326,46	3,508
326,67	4,718
326,88	5,903
327,09	3,695
327,30	4,003
327,51	4,620
327,72	5,158
327,93	5,241
328,14	1,577
328,35	3,585
328,56	5,110
328,77	3,357
328,98	6,976
329,19	5,011
329,40	5,419
329,61	6,234
329,82	1,453
330,04	2,511
330,25	2,241
330,46	6,549
330,67	3,552
330,88	3,555
331,09	5,859
331,30	3,297
331,51	5,831
331,72	6,607
331,93	5,680
332,14	4,636
332,35	7,561
332,56	6,449
332,77	5,424
332,98	1,715
333,19	2,241
333,40	5,772
333,61	5,427
333,82	5,727
334,03	5,746
334,24	6,343
334,45	6,067
334,66	7,694
334,87	6,397
335,08	3,982
335,29	6,634
335,50	4,639
335,71	2,577
335,92	4,981
336,13	5,847
336,34	0,947
336,55	6,264
336,76	5,420
336,97	5,658
337,18	2,855
337,39	5,676
337,60	4,180
337,81	4,914
338,02	0,884
338,23	5,611
338,44	5,680
338,65	3,958
338,86	4,591
339,07	1,924
339,28	6,634
339,49	5,739
339,70	0,567
339,91	4,808
340,11	5,863
340,32	2,531
340,53	4,670
340,74	3,617
340,95	3,396
341,16	5,533
341,37	3,512
341,58	2,748
341,79	5,171
342,00	5,247
342,21	5,043
342,42	3,817
342,63	5,730
342,84	2,697
343,05	6,786
343,26	7,131
343,47	5,965
343,68	1,051
343,89	5,216
344,10	6,202
344,31	5,206
344,52	4,214
344,73	5,219
344,94	4,030
345,14	4,640
345,35	7,466
345,56	7,107
345,77	2,000
345,98	3,766
346,19	6,103
346,40	4,104
346,61	4,717
346,82	1,641
347,03	3,724
347,24	6,794
347,45	5,413
347,66	6,767
347,87	2,826
348,08	4,452
348,28	-0,391
348,49	5,578
348,70	6,089
348,91	2,326
349,12	1,662
349,33	19,013
349,54	2,966
349,75	5,648
349,96	4,404
350,17	4,754
350,38	4,013
350,59	6,063
350,80	4,587
351,00	7,698
351,21	6,228
351,42	3,303
351,63	2,233
351,84	6,003
352,05	4,721
352,26	6,116
352,47	6,373
352,68	4,822
352,89	7,340
353,09	7,053
353,30	2,446
353,51	4,742
353,72	5,418
353,93	6,963
354,14	1,087
354,35	4,936
354,56	8,325
354,77	5,596
354,98	0,248
355,18	3,535
355,39	8,679
355,60	2,202
355,81	3,616
356,02	3,258
356,23	4,064
356,44	2,977
356,65	5,900
356,85	7,611
357,06	5,667
357,27	9,112
357,48	3,907
357,69	5,785
357,90	8,079
358,11	2,475
358,32	2,395
358,52	5,761
358,73	5,001
358,94	3,090
359,15	5,815
359,36	6,731
359,57	2,345
359,78	4,817
359,98	3,671
360,19	2,358
360,40	6,530
360,61	6,131
360,82	1,508
361,03	8,906
361,24	6,604
361,44	3,457
361,65	4,156
361,86	4,952
362,07	5,388
362,28	5,695
362,49	6,671
362,70	3,474
362,90	6,139
363,11	2,322
363,32	2,659
363,53	3,381
363,74	6,295
363,95	6,097
364,15	5,341
364,36	11,230
364,57	5,256
364,78	3,426
364,99	3,583
365,20	4,216
365,40	8,577
365,61	3,218
365,82	6,833
366,03	3,675
366,24	6,081
366,45	3,925
366,65	2,244
366,86	1,471
367,07	5,036
367,28	4,308
367,49	4,700
367,69	7,336
367,90	4,805
368,11	5,880
368,32	0,701
368,53	5,866
368,73	9,566
368,94	3,099
369,15	3,820
369,36	6,655
369,57	5,612
369,78	4,286
369,98	5,855
370,19	8,769
370,40	4,146
370,61	5,136
370,82	3,048
371,02	5,727
371,23	5,047
371,44	2,913
371,65	4,848
371,85	7,620
372,06	4,134
372,27	2,225
372,48	4,910
372,69	2,824
372,89	2,388
373,10	6,362
373,31	2,728
373,52	6,108
373,73	7,782
373,93	4,163
374,14	4,112
374,35	9,441
374,56	5,485
374,76	4,512
374,97	5,424
375,18	4,440
375,39	4,062
375,60	6,767
375,80	4,860
376,01	4,198
376,22	4,094
376,43	5,341
376,63	6,730
376,84	2,885
377,05	6,659
377,26	4,934
377,46	3,410
377,67	2,639
377,88	6,679
378,09	3,904
378,29	1,212
378,50	5,702
378,71	7,652
378,92	4,716
379,12	5,051
379,33	1,810
379,54	5,706
379,75	8,635
379,95	4,886
380,16	6,163
380,37	5,967
380,58	3,755
380,78	7,265
380,99	3,151
381,20	5,550
381,41	5,860
381,61	5,413
381,82	5,240
382,03	4,782
382,24	8,628
382,44	5,299
382,65	3,133
382,86	5,578
383,06	2,064
383,27	3,521
383,48	2,211
383,69	5,983
383,89	7,914
384,10	7,301
384,31	2,608
384,51	5,444
384,72	7,182
384,93	4,679
385,14	6,440
385,34	3,987
385,55	2,104
385,76	3,883
385,96	7,192
386,17	3,409
386,38	6,627
386,59	7,955
386,79	5,847
387,00	5,070
387,21	5,984
387,41	6,251
387,62	2,556
387,83	9,305
388,03	4,650
388,24	2,874
388,45	5,087
388,66	5,255
388,86	6,285
389,07	1,160
389,28	11,280
389,48	5,795
389,69	5,467
389,90	4,270
390,10	7,329
390,31	7,242
390,52	1,071
390,72	0,988
390,93	4,119
391,14	3,935
391,34	6,575
391,55	7,477
391,76	7,731
391,96	7,184
392,17	4,772
392,38	7,170
392,58	6,324
392,79	8,123
393,00	4,616
393,20	6,019
393,41	5,865
393,62	5,283
393,82	4,357
394,03	6,151
394,24	7,430
394,44	8,790
394,65	9,806
394,86	4,199
395,06	6,949
395,27	3,006
395,48	6,957
395,68	8,203
395,89	8,332
396,10	8,947
396,30	5,424
396,51	1,254
396,72	12,660
396,92	5,138
397,13	6,990
397,34	5,572
397,54	7,981
397,75	8,571
397,95	3,040
398,16	8,830
398,37	7,248
398,57	6,591
398,78	11,343
398,99	7,555
399,19	10,563
399,40	10,389
399,60	8,346
399,81	7,351
400,02	9,713
400,22	12,950
400,43	7,878
400,64	11,727
400,84	5,300
401,05	9,665
401,25	13,592
401,46	11,777
401,67	7,186
401,87	9,900
402,08	7,595
402,29	8,014
402,49	10,273
402,70	11,879
402,90	8,190
403,11	8,712
403,32	10,664
403,52	9,596
403,73	14,710
403,93	12,288
404,14	15,539
404,35	9,518
404,55	10,706
404,76	12,519
404,96	11,372
405,17	19,374
405,38	19,209
405,58	9,542
405,79	14,993
405,99	13,783
406,20	14,242
406,40	9,562
406,61	13,011
406,82	13,191
407,02	12,608
407,23	13,273
407,43	11,574
407,64	8,874
407,85	12,450
408,05	11,145
408,26	18,907
408,46	15,662
408,67	13,399
408,87	12,341
409,08	13,888
409,29	17,544
409,49	15,785
409,70	16,118
409,90	19,829
410,11	17,679
410,31	19,101
410,52	16,753
410,72	15,141
410,93	18,355
411,14	14,296
411,34	13,815
411,55	14,403
411,75	20,789
411,96	19,354
412,16	19,732
412,37	18,594
412,57	17,325
412,78	18,666
412,99	18,750
413,19	17,649
413,40	21,270
413,60	16,941
413,81	19,724
414,01	20,785
414,22	17,340
414,42	19,700
414,63	17,339
414,83	22,412
415,04	24,638
415,24	21,194
415,45	19,573
415,65	23,452
415,86	24,046
416,07	16,713
416,27	20,823
416,48	23,517
416,68	22,416
416,89	18,523
417,09	19,477
417,30	26,509
417,50	19,740
417,71	23,004
417,91	21,916
418,12	17,781
418,32	20,474
418,53	21,602
418,73	19,617
418,94	20,038
419,14	20,273
419,35	15,457
419,55	23,456
419,76	22,414
419,96	21,922
420,17	19,921
420,37	20,429
420,58	23,247
420,78	20,236
420,99	24,582
421,19	21,361
421,40	22,446
421,60	28,428
421,81	23,575
422,01	24,004
422,22	24,133
422,42	26,560
422,63	23,446
422,83	26,684
423,04	26,045
423,24	28,881
423,45	24,939
423,65	24,812
423,86	28,240
424,06	26,181
424,27	23,315
424,47	21,339
424,67	24,079
424,88	26,651
425,08	22,602
425,29	27,338
425,49	24,274
425,70	19,348
425,90	27,710
426,11	24,085
426,31	23,867
426,52	24,769
426,72	25,141
426,93	22,266
427,13	24,915
427,33	23,439
427,54	29,881
427,74	27,642
427,95	26,733
428,15	23,376
428,36	25,960
428,56	25,355
428,77	27,379
428,97	25,897
429,18	29,861
429,38	25,882
429,58	27,025
429,79	27,203
429,99	26,212
430,20	21,592
430,40	31,447
430,61	22,685
430,81	24,430
431,01	28,646
431,22	29,780
431,42	28,707
431,63	22,183
431,83	24,819
432,04	27,219
432,24	30,664
432,44	24,366
432,65	22,730
432,85	23,716
433,06	26,486
433,26	23,532
433,47	25,308
433,67	26,410
433,87	24,438
434,08	21,581
434,28	22,280
434,49	24,484
434,69	27,434
434,89	23,305
435,10	24,059
435,30	28,303
435,51	25,066
435,71	26,771
435,91	23,516
436,12	24,392
436,32	23,847
436,53	26,053
436,73	24,141
436,93	24,762
437,14	26,831
437,34	30,460
437,55	24,942
437,75	27,833
437,95	28,256
438,16	25,225
438,36	23,707
438,57	22,861
438,77	28,014
438,97	30,149
439,18	30,061
439,38	27,039
439,58	24,974
439,79	24,965
439,99	25,206
440,20	30,696
440,40	25,293
440,60	28,882
440,81	27,023
441,01	24,244
441,21	28,980
441,42	28,469
441,62	31,174
441,83	29,741
442,03	26,209
442,23	28,418
442,44	25,415
442,64	28,132
442,84	23,704
443,05	27,136
443,25	22,774
443,45	29,147
443,66	28,058
443,86	23,698
444,06	25,642
444,27	24,231
444,47	27,895
444,67	23,490
444,88	28,530
445,08	26,926
445,28	27,465
445,49	23,114
445,69	21,511
445,90	27,524
446,10	32,338
446,30	28,408
446,51	29,680
446,71	34,445
446,91	30,663
447,12	28,936
447,32	26,940
447,52	27,680
447,72	29,181
447,93	28,218
448,13	25,625
448,33	34,331
448,54	29,695
448,74	24,440
448,94	27,437
449,15	31,200
449,35	29,203
449,55	27,121
449,76	30,784
449,96	29,774
450,16	32,645
450,37	22,032
450,57	27,672
450,77	25,717
450,98	30,950
451,18	27,342
451,38	28,659
451,58	27,948
451,79	28,749
451,99	29,811
452,19	27,434
452,40	28,314
452,60	22,843
452,80	27,746
453,00	30,478
453,21	26,753
453,41	28,461
453,61	30,925
453,82	28,424
454,02	24,012
454,22	30,539
454,42	33,995
454,63	24,168
454,83	23,523
455,03	29,372
455,24	26,533
455,44	25,588
455,64	26,180
455,84	24,310
456,05	29,508
456,25	25,319
456,45	30,860
456,65	24,735
456,86	28,481
457,06	24,464
457,26	28,107
457,47	30,614
457,67	26,740
457,87	25,385
458,07	25,731
458,28	29,706
458,48	30,223
458,68	23,359
458,88	27,189
459,09	30,950
459,29	32,282
459,49	32,980
459,69	30,280
459,90	28,681
460,10	30,974
460,30	29,523
460,50	26,449
460,71	29,155
460,91	26,942
461,11	30,469
461,31	23,712
461,52	32,219
461,72	26,498
461,92	29,011
462,12	32,133
462,32	22,988
462,53	26,607
462,73	25,139
462,93	28,454
463,13	28,767
463,34	26,598
463,54	28,914
463,74	26,060
463,94	27,197
464,14	27,051
464,35	24,038
464,55	31,693
464,75	32,201
464,95	28,714
465,16	25,901
465,36	31,610
465,56	30,412
465,76	30,984
465,96	25,295
466,17	28,776
466,37	26,537
466,57	31,174
466,77	27,740
466,97	25,964
467,18	29,536
467,38	29,773
467,58	27,325
467,78	27,956
467,98	32,886
468,19	31,860
468,39	32,348
468,59	27,798
468,79	31,695
468,99	29,664
469,19	29,046
469,40	30,070
469,60	21,159
469,80	24,875
470,00	27,471
470,20	28,961
470,41	24,782
470,61	33,682
470,81	27,062
471,01	29,520
471,21	27,758
471,41	27,535
471,62	25,103
471,82	28,707
472,02	25,753
472,22	27,806
472,42	26,862
472,62	28,839
472,83	26,640
473,03	32,693
473,23	24,437
473,43	30,821
473,63	29,619
473,83	29,948
474,03	26,175
474,24	32,269
474,44	28,244
474,64	26,312
474,84	29,697
475,04	27,057
475,24	25,274
475,45	30,286
475,65	25,597
475,85	28,906
476,05	22,868
476,25	29,482
476,45	27,634
476,65	32,916
476,85	30,028
477,06	24,606
477,26	24,881
477,46	28,885
477,66	27,961
477,86	28,762
478,06	27,011
478,26	31,192
478,46	25,300
478,67	28,886
478,87	26,295
479,07	27,428
479,27	28,454
479,47	24,824
479,67	24,692
479,87	25,495
480,07	27,540
480,28	25,472
480,48	24,322
480,68	27,507
480,88	30,176
481,08	27,403
481,28	28,611
481,48	28,806
481,68	25,118
481,88	27,319
482,08	25,971
482,29	29,300
482,49	24,982
482,69	27,578
482,89	26,321
483,09	29,983
483,29	26,021
483,49	23,775
483,69	25,857
483,89	23,185
484,09	26,603
484,29	23,469
484,50	24,827
484,70	26,239
484,90	25,018
485,10	23,635
485,30	28,411
485,50	28,151
485,70	28,470
485,90	26,407
486,10	22,780
486,30	25,564
486,50	24,224
486,70	25,342
486,90	26,511
487,10	27,723
487,30	23,790
487,51	25,529
487,71	23,863
487,91	24,445
488,11	26,317
488,31	22,065
488,51	26,102
488,71	23,907
488,91	27,147
489,11	23,704
489,31	26,851
489,51	24,425
489,71	23,816
489,91	24,760
490,11	23,777
490,31	25,772
490,51	26,185
490,71	23,646
490,91	23,514
491,11	26,445
491,31	27,701
491,51	23,271
491,72	25,671
491,92	27,415
492,12	29,101
492,32	26,545
492,52	28,436
492,72	26,614
492,92	27,071
493,12	29,036
493,32	25,722
493,52	21,501
493,72	24,678
493,92	27,029
494,12	24,043
494,32	26,515
494,52	25,547
494,72	25,225
494,92	23,930
495,12	28,274
495,32	29,041
495,52	26,197
495,72	26,488
495,92	27,183
496,12	26,599
496,32	25,362
496,52	26,537
496,72	23,951
496,92	27,612
497,12	25,597
497,32	26,187
497,52	27,373
497,72	29,565
497,92	27,709
498,12	26,373
498,32	24,661
498,52	28,053
498,72	24,641
498,92	23,268
499,12	28,146
499,32	23,762
499,52	26,307
499,72	27,223
499,92	27,482
500,12	27,569
500,32	28,029
500,52	26,011
500,72	29,773
500,91	26,521
501,11	26,455
501,31	22,830
501,51	29,141
501,71	25,049
501,91	26,669
502,11	26,424
502,31	25,590
502,51	26,792
502,71	26,874
502,91	27,649
503,11	24,553
503,31	27,354
503,51	25,908
503,71	25,360
503,91	27,853
504,11	25,168
504,31	27,816
504,51	29,101
504,71	28,730
504,91	27,135
505,10	26,056
505,30	25,794
505,50	26,476
505,70	24,844
505,90	25,237
506,10	22,621
506,30	27,339
506,50	26,953
506,70	27,880
506,90	27,396
507,10	27,975
507,30	24,763
507,50	24,816
507,70	26,655
507,89	25,013
508,09	24,978
508,29	27,469
508,49	24,424
508,69	26,394
508,89	25,957
509,09	26,179
509,29	26,484
509,49	27,393
509,69	28,655
509,89	25,106
510,09	25,977
510,28	27,351
510,48	24,532
510,68	26,049
510,88	23,449
511,08	23,597
511,28	25,255
511,48	24,702
511,68	22,757
511,88	21,365
512,07	28,935
512,27	25,116
512,47	26,394
512,67	22,630
512,87	24,330
513,07	26,413
513,27	23,362
513,47	22,909
513,67	23,001
513,86	27,634
514,06	25,127
514,26	23,328
514,46	27,045
514,66	22,655
514,86	24,566
515,06	27,556
515,26	24,806
515,45	24,623
515,65	22,960
515,85	24,871
516,05	22,894
516,25	24,870
516,45	23,250
516,65	25,373
516,84	26,162
517,04	28,823
517,24	22,259
517,44	22,904
517,64	25,309
517,84	26,651
518,04	25,741
518,23	27,903
518,43	26,423
518,63	25,197
518,83	24,024
519,03	23,167
519,23	24,701
519,42	22,772
519,62	23,296
519,82	24,781
520,02	26,281
520,22	23,053
520,42	22,636
520,61	25,866
520,81	28,261
521,01	25,799
521,21	23,270
521,41	21,768
521,61	23,681
521,80	23,213
522,00	23,491
522,20	24,093
522,40	23,537
522,60	24,705
522,79	23,161
522,99	25,322
523,19	21,745
523,39	23,918
523,59	23,664
523,78	27,267
523,98	20,712
524,18	25,711
524,38	23,816
524,58	25,442
524,77	24,916
524,97	25,960
525,17	23,994
525,37	22,685
525,57	23,975
525,76	23,328
525,96	25,281
526,16	22,423
526,36	24,699
526,56	23,247
526,75	22,680
526,95	25,257
527,15	23,425
527,35	23,810
527,55	22,943
527,74	23,142
527,94	20,600
528,14	23,428
528,34	22,997
528,53	21,138
528,73	23,134
528,93	19,886
529,13	22,065
529,32	24,466
529,52	25,974
529,72	20,135
529,92	21,237
530,12	21,887
530,31	20,683
530,51	24,424
530,71	22,914
530,91	21,965
531,10	19,799
531,30	23,739
531,50	22,807
531,70	23,801
531,89	23,738
532,09	21,315
532,29	20,876
532,49	22,306
532,68	23,271
532,88	21,827
533,08	23,800
533,28	19,998
533,47	21,658
533,67	26,275
533,87	21,828
534,06	25,283
534,26	20,504
534,46	22,667
534,66	22,921
534,85	24,875
535,05	17,600
535,25	21,335
535,45	21,493
535,64	23,385
535,84	20,279
536,04	18,682
536,23	21,404
536,43	24,423
536,63	20,660
536,83	20,587
537,02	19,869
537,22	19,563
537,42	19,675
537,61	21,870
537,81	19,629
538,01	20,186
538,20	20,905
538,40	17,080
538,60	20,786
538,80	18,304
538,99	20,178
539,19	19,554
539,39	18,470
539,58	21,780
539,78	17,877
539,98	18,307
540,17	16,961
540,37	17,864
540,57	18,051
540,76	17,100
540,96	15,220
541,16	18,098
541,36	16,042
541,55	12,666
541,75	14,042
541,95	15,172
542,14	14,949
542,34	14,685
542,54	13,847
542,73	14,819
542,93	14,249
543,13	14,045
543,32	14,087
543,52	13,908
543,72	12,843
543,91	14,437
544,11	12,759
544,31	13,447
544,50	13,327
544,70	14,873
544,89	14,828
545,09	15,949
545,29	15,110
545,48	15,034
545,68	14,060
545,88	15,470
546,07	14,903
546,27	14,888
546,47	15,524
546,66	17,373
546,86	16,505
547,06	15,837
547,25	15,366
547,45	17,629
547,64	19,590
547,84	18,466
548,04	15,084
548,23	19,908
548,43	17,962
548,63	18,947
548,82	20,052
549,02	18,293
549,21	17,806
549,41	20,101
549,61	17,171
549,80	19,077
550,00	18,869
550,20	17,080
550,39	20,095
550,59	20,259
550,78	18,648
550,98	17,344
551,18	19,880
551,37	18,347
551,57	20,646
551,76	20,075
551,96	18,788
552,16	19,344
552,35	16,355
552,55	19,982
552,74	19,750
552,94	20,728
553,14	20,623
553,33	20,129
553,53	19,540
553,72	20,514
553,92	21,516
554,12	19,554
554,31	20,763
554,51	19,234
554,70	19,114
554,90	20,251
555,09	21,328
555,29	20,900
555,49	20,323
555,68	21,299
555,88	19,424
556,07	21,515
556,27	20,023
556,46	17,179
556,66	18,593
556,86	21,456
557,05	22,312
557,25	20,380
557,44	19,868
557,64	17,060
557,83	18,619
558,03	18,483
558,22	19,256
558,42	20,242
558,62	20,635
558,81	20,409
559,01	20,612
559,20	21,092
559,40	17,480
559,59	19,050
559,79	18,538
559,98	21,979
560,18	19,902
560,37	20,240
560,57	20,284
560,76	17,718
560,96	20,429
561,16	19,653
561,35	21,223
561,55	22,269
561,74	22,757
561,94	20,425
562,13	21,791
562,33	22,028
562,52	21,935
562,72	20,073
562,91	20,724
563,11	20,396
563,30	21,890
563,50	17,023
563,69	19,272
563,89	19,640
564,08	21,664
564,28	20,859
564,47	20,390
564,67	19,836
564,86	21,686
565,06	19,087
565,25	20,623
565,45	20,240
565,64	25,064
565,84	20,804
566,03	18,522
566,23	21,275
566,42	21,225
566,62	23,631
566,81	21,369
567,01	21,335
567,20	21,698
567,40	20,047
567,59	21,804
567,79	22,160
567,98	22,222
568,18	20,939
568,37	21,426
568,57	22,593
568,76	22,214
568,96	19,721
569,15	19,796
569,35	21,509
569,54	22,010
569,73	22,337
569,93	20,169
570,12	21,461
570,32	22,356
570,51	21,942
570,71	21,731
570,90	20,856
571,10	21,295
571,29	20,917
571,49	19,324
571,68	21,648
571,87	21,727
572,07	20,645
572,26	19,054
572,46	21,703
572,65	19,983
572,85	20,251
573,04	21,917
573,24	22,014
573,43	21,821
573,62	23,006
573,82	21,783
574,01	20,231
574,21	22,519
574,40	20,623
574,60	19,618
574,79	22,479
574,98	21,776
575,18	21,496
575,37	21,582
575,57	22,433
575,76	21,677
575,96	22,005
576,15	22,216
576,34	23,000
576,54	21,949
576,73	21,678
576,93	22,822
577,12	22,484
577,31	22,139
577,51	20,551
577,70	20,157
577,90	21,281
578,09	20,515
578,28	21,102
578,48	22,645
578,67	23,529
578,87	23,460
579,06	23,532
579,25	22,548
579,45	22,531
579,64	21,064
579,84	21,418
580,03	21,661
580,22	22,247
580,42	20,727
580,61	21,313
580,81	21,923
581,00	23,902
581,19	21,733
581,39	21,063
581,58	20,485
581,77	23,019
581,97	23,054
582,16	22,883
582,35	21,239
582,55	22,391
582,74	25,266
582,94	22,403
583,13	20,719
583,32	22,269
583,52	22,400
583,71	22,868
583,90	22,454
584,10	22,853
584,29	23,649
584,48	22,347
584,68	23,134
584,87	21,834
585,06	23,633
585,26	21,716
585,45	22,722
585,65	24,779
585,84	22,291
586,03	22,857
586,23	22,152
586,42	23,207
586,61	23,949
586,81	22,730
587,00	23,853
587,19	22,080
587,39	25,172
587,58	24,549
587,77	24,403
587,97	22,902
588,16	23,091
588,35	25,192
588,54	24,328
588,74	23,816
588,93	24,851
589,12	23,474
589,32	24,115
589,51	24,413
589,70	21,701
589,90	24,057
590,09	24,862
590,28	27,334
590,48	23,424
590,67	25,098
590,86	24,835
591,06	24,498
591,25	25,630
591,44	24,790
591,63	24,271
591,83	24,902
592,02	25,674
592,21	24,198
592,41	25,198
592,60	26,379
592,79	25,853
592,98	24,910
593,18	25,297
593,37	25,543
593,56	27,154
593,76	25,279
593,95	25,623
594,14	25,260
594,33	28,102
594,53	24,821
594,72	26,833
594,91	28,112
595,10	26,821
595,30	25,856
595,49	25,062
595,68	28,147
595,88	27,205
596,07	27,537
596,26	26,325
596,45	27,257
596,65	26,246
596,84	25,711
597,03	26,708
597,22	27,339
597,42	29,144
597,61	27,585
597,80	27,448
597,99	28,007
598,19	27,941
598,38	29,008
598,57	27,504
598,76	28,124
598,95	28,916
599,15	28,076
599,34	28,237
599,53	28,429
599,72	27,737
599,92	29,368
600,11	27,865
600,30	28,283
600,49	29,220
600,69	27,269
600,88	29,272
601,07	28,391
601,26	28,583
601,45	29,698
601,65	28,929
601,84	30,877
602,03	28,103
602,22	27,982
602,42	28,168
602,61	28,415
602,80	28,497
602,99	29,596
603,18	27,299
603,38	29,489
603,57	29,246
603,76	28,739
603,95	27,504
604,14	28,765
604,34	30,444
604,53	29,180
604,72	30,048
604,91	28,395
605,10	29,335
605,29	30,033
605,49	26,948
605,68	29,661
605,87	29,522
606,06	29,969
606,25	27,685
606,45	31,575
606,64	29,230
606,83	27,948
607,02	29,352
607,21	30,492
607,40	29,734
607,60	28,447
607,79	27,598
607,98	26,192
608,17	27,197
608,36	28,345
608,55	28,486
608,75	28,961
608,94	27,625
609,13	24,774
609,32	24,201
609,51	25,221
609,70	24,143
609,89	24,619
610,09	23,758
610,28	27,246
610,47	24,359
610,66	24,801
610,85	24,028
611,04	26,240
611,23	22,862
611,43	24,650
611,62	22,986
611,81	24,736
612,00	23,897
612,19	24,348
612,38	24,772
612,57	26,872
612,77	25,645
612,96	26,398
613,15	25,509
613,34	27,464
613,53	28,151
613,72	28,074
613,91	27,573
614,10	27,143
614,29	28,944
614,49	27,932
614,68	26,930
614,87	29,312
615,06	31,425
615,25	27,954
615,44	30,582
615,63	30,123
615,82	29,286
616,01	29,284
616,21	30,289
616,40	30,943
616,59	31,771
616,78	30,895
616,97	30,875
617,16	31,705
617,35	30,479
617,54	30,498
617,73	31,498
617,92	29,819
618,11	30,946
618,31	29,044
618,50	31,889
618,69	31,857
618,88	29,896
619,07	30,723
619,26	29,279
619,45	30,842
619,64	30,905
619,83	29,514
620,02	29,824
620,21	32,307
620,40	32,338
620,59	30,812
620,78	28,728
620,97	31,738
621,17	32,742
621,36	30,391
621,55	31,895
621,74	30,798
621,93	31,153
622,12	30,600
622,31	31,642
622,50	31,450
622,69	32,764
622,88	32,315
623,07	32,872
623,26	32,131
623,45	33,719
623,64	32,628
623,83	30,381
624,02	34,349
624,21	34,196
624,40	31,776
624,59	30,496
624,78	32,530
624,97	33,541
625,16	30,744
625,35	30,334
625,54	30,878
625,73	31,586
625,92	33,400
626,12	33,923
626,31	33,576
626,50	33,523
626,69	31,596
626,88	29,894
627,07	33,367
627,26	34,372
627,45	30,643
627,64	30,602
627,83	33,170
628,02	32,853
628,21	30,331
628,40	31,037
628,59	33,102
628,78	31,849
628,97	29,868
629,16	31,034
629,35	32,041
629,54	33,826
629,73	31,983
629,92	29,949
630,10	32,657
630,29	33,494
630,48	32,782
630,67	31,215
630,86	33,671
631,05	32,841
631,24	34,714
631,43	30,772
631,62	33,490
631,81	33,352
632,00	31,943
632,19	29,663
632,38	33,846
632,57	34,503
632,76	31,622
632,95	33,725
633,14	34,507
633,33	33,858
633,52	34,706
633,71	33,864
633,90	32,474
634,09	34,009
634,28	34,621
634,47	33,639
634,66	34,361
634,85	34,211
635,04	35,862
635,22	33,971
635,41	34,861
635,60	35,007
635,79	33,366
635,98	33,649
636,17	34,777
636,36	32,666
636,55	34,122
636,74	34,087
636,93	33,811
637,12	35,979
637,31	33,328
637,50	33,005
637,69	33,417
637,87	33,607
638,06	31,734
638,25	32,680
638,44	33,767
638,63	32,505
638,82	34,284
639,01	35,280
639,20	34,177
639,39	34,004
639,58	33,304
639,77	34,367
639,95	32,497
640,14	34,759
640,33	31,784
640,52	32,485
640,71	36,494
640,90	34,872
641,09	36,903
641,28	33,626
641,47	35,737
641,66	34,662
641,84	34,850
642,03	34,795
642,22	35,306
642,41	36,472
642,60	35,469
642,79	34,590
642,98	35,161
643,17	31,769
643,35	35,311
643,54	34,726
643,73	35,266
643,92	33,906
644,11	34,184
644,30	33,256
644,49	36,244
644,67	34,388
644,86	33,063
645,05	36,025
645,24	33,479
645,43	34,582
645,62	35,121
645,81	35,058
645,99	36,753
646,18	35,320
646,37	34,030
646,56	34,662
646,75	35,951
646,94	34,979
647,13	31,947
647,31	33,106
647,50	33,706
647,69	36,798
647,88	36,470
648,07	33,176
648,26	37,320
648,44	35,096
648,63	33,704
648,82	35,123
649,01	35,985
649,20	33,600
649,38	35,002
649,57	34,301
649,76	33,287
649,95	35,288
650,14	33,074
650,33	33,415
650,51	34,407
650,70	35,095
650,89	33,258
651,08	34,086
651,27	33,832
651,45	33,713
651,64	34,536
651,83	35,589
652,02	33,779
652,21	34,193
652,39	33,950
652,58	35,271
652,77	33,436
652,96	35,678
653,15	35,137
653,33	34,485
653,52	35,146
653,71	37,484
653,90	35,519
654,09	35,047
654,27	34,276
654,46	35,861
654,65	35,290
654,84	33,928
655,02	35,412
655,21	34,993
655,40	38,144
655,59	34,884
655,77	36,507
655,96	36,326
656,15	37,189
656,34	36,222
656,53	34,834
656,71	36,057
656,90	36,364
657,09	36,951
657,28	37,331
657,46	34,838
657,65	35,596
657,84	34,971
658,03	36,556
658,21	35,335
658,40	36,569
658,59	35,288
658,78	37,455
658,96	34,979
659,15	35,191
659,34	35,399
659,52	35,718
659,71	35,752
659,90	33,659
660,09	34,325
660,27	33,385
660,46	36,444
660,65	35,232
660,84	34,260
661,02	33,975
661,21	35,381
661,40	34,486
661,58	35,539
661,77	35,210
661,96	33,435
662,15	35,212
662,33	32,280
662,52	33,091
662,71	33,829
662,89	34,099
663,08	33,263
663,27	34,714
663,45	33,966
663,64	33,695
663,83	33,595
664,02	34,788
664,20	34,898
664,39	34,386
664,58	32,925
664,76	33,933
664,95	35,866
665,14	33,008
665,32	36,148
665,51	34,010
665,70	35,149
665,88	35,323
666,07	34,735
666,26	36,765
666,44	34,914
666,63	33,841
666,82	34,383
667,00	35,305
667,19	32,896
667,38	34,334
667,56	35,740
667,75	35,109
667,94	33,392
668,12	32,414
668,31	34,974
668,50	35,365
668,68	34,207
668,87	34,837
669,06	34,900
669,24	34,648
669,43	34,199
669,62	32,283
669,80	33,137
669,99	35,087
670,18	34,846
670,36	33,025
670,55	33,898
670,74	34,375
670,92	33,232
671,11	35,321
671,29	33,417
671,48	34,253
671,67	35,088
671,85	35,106
672,04	33,310
672,23	33,786
672,41	33,627
672,60	34,906
672,78	34,080
672,97	34,052
673,16	35,117
673,34	34,004
673,53	35,634
673,71	35,254
673,90	35,360
674,09	35,486
674,27	34,206
674,46	35,428
674,64	35,681
674,83	35,360
675,02	32,181
675,20	33,973
675,39	33,338
675,57	34,925
675,76	35,271
675,95	36,766
676,13	34,673
676,32	35,055
676,50	34,916
676,69	33,266
676,88	33,501
677,06	34,480
677,25	35,196
677,43	37,439
677,62	34,303
677,80	34,674
677,99	33,342
678,18	35,114
678,36	34,175
678,55	33,123
678,73	35,316
678,92	36,426
679,10	35,870
679,29	34,145
679,48	34,516
679,66	33,953
679,85	35,486
680,03	34,812
680,22	36,570
680,40	33,121
680,59	35,498
680,77	34,468
680,96	35,386
681,15	33,855
681,33	34,031
681,52	33,830
681,70	33,777
681,89	35,542
682,07	35,949
682,26	34,937
682,44	34,811
682,63	34,458
682,81	34,555
683,00	36,698
683,18	33,916
683,37	34,721
683,55	33,891
683,74	35,350
683,92	39,585
684,11	35,468
684,29	34,909
684,48	32,958
684,67	34,780
684,85	36,271
685,04	35,747
685,22	35,245
685,41	33,843
685,59	35,846
685,78	34,707
685,96	35,313
686,15	34,840
686,33	35,974
686,52	34,000
686,70	34,985
686,89	36,185
687,07	36,115
687,26	36,223
687,44	35,821
687,62	35,053
687,81	36,241
687,99	34,937
688,18	36,047
688,36	35,166
688,55	35,126
688,73	35,712
688,92	34,622
689,10	35,180
689,29	36,027
689,47	37,171
689,66	34,834
689,84	34,695
690,03	37,176
690,21	34,694
690,40	35,287
690,58	34,162
690,76	32,762
690,95	35,793
691,13	34,722
691,32	35,236
691,50	36,121
691,69	36,442
691,87	35,762
692,06	35,140
692,24	34,843
692,43	35,111
692,61	32,463
692,79	35,324
692,98	33,681
693,16	37,206
693,35	34,831
693,53	35,693
693,72	34,219
693,90	35,378
694,08	34,683
694,27	33,586
694,45	36,422
694,64	38,977
694,82	35,218
695,01	35,431
695,19	34,569
695,37	34,006
695,56	35,153
695,74	36,215
695,93	36,124
696,11	34,310
696,29	36,271
696,48	34,611
696,66	36,528
696,85	37,292
697,03	33,462
697,21	35,302
697,40	35,216
697,58	35,072
697,77	34,966
697,95	36,978
698,13	35,614
698,32	34,361
698,50	36,238
698,69	34,313
698,87	36,448
699,05	34,975
699,24	34,366
699,42	36,186
699,60	32,933
699,79	34,243
699,97	35,943
700,16	33,831
700,34	36,835
700,52	34,079
700,71	35,757
700,89	34,984
701,07	37,560
701,26	35,466
701,44	35,563
701,63	34,846
701,81	37,517
701,99	37,172
702,18	35,238
702,36	34,215
702,54	35,078
702,73	35,539
702,91	35,571
703,09	34,653
703,28	37,499
703,46	35,997
703,64	36,687
703,83	36,407
704,01	35,824
704,19	36,263
704,38	35,939
704,56	35,108
704,74	35,835
704,93	36,431
705,11	35,478
705,29	34,803
705,48	37,005
705,66	35,104
705,84	35,566
706,03	32,574
706,21	35,524
706,39	33,451
706,58	35,364
706,76	33,794
706,94	36,718
707,12	35,590
707,31	35,003
707,49	33,271
707,67	34,303
707,86	35,697
708,04	34,825
708,22	35,385
708,41	36,027
708,59	35,900
708,77	33,875
708,95	36,114
709,14	37,346
709,32	34,488
709,50	33,057
709,69	34,930
709,87	36,608
710,05	35,657
710,23	33,997
710,42	33,980
710,60	36,481
710,78	36,338
710,97	34,777
711,15	34,712
711,33	37,012
711,51	33,547
711,70	32,062
711,88	33,711
712,06	35,319
712,24	36,316
712,43	36,145
712,61	32,958
712,79	34,413
712,97	33,984
713,16	33,215
713,34	36,402
713,52	35,570
713,70	35,373
713,89	34,573
714,07	34,992
714,25	35,423
714,43	37,822
714,62	35,063
714,80	35,783
714,98	33,467
715,16	35,328
715,35	35,002
715,53	35,433
715,71	39,010
715,89	37,618
716,07	34,569
716,26	38,748
716,44	35,938
716,62	35,489
716,80	35,011
716,99	34,974
717,17	36,031
717,35	36,576
717,53	34,942
717,71	33,539
717,90	35,790
718,08	34,334
718,26	34,879
718,44	33,948
718,62	36,620
718,81	37,336
718,99	34,993
719,17	35,698
719,35	34,214
719,53	35,149
719,72	35,353
719,90	35,535
720,08	34,661
720,26	36,098
720,44	32,913
720,62	36,082
720,81	36,490
720,99	38,148
721,17	35,410
721,35	36,241
721,53	35,700
721,72	38,312
721,90	35,507
722,08	35,279
722,26	38,162
722,44	36,084
722,62	35,004
722,81	34,241
722,99	33,581
723,17	36,479
723,35	35,878
723,53	36,519
723,71	35,904
723,89	37,886
724,08	36,196
724,26	35,736
724,44	34,156
724,62	35,388
724,80	36,210
724,98	35,363
725,16	37,246
725,35	34,741
725,53	36,243
725,71	37,176
725,89	36,628
726,07	38,341
726,25	36,027
726,43	34,962
726,61	36,116
726,80	35,499
726,98	34,735
727,16	34,961
727,34	36,270
727,52	32,803
727,70	34,727
727,88	34,037
728,06	35,192
728,25	34,400
728,43	35,151
728,61	35,295
728,79	34,028
728,97	37,979
729,15	35,551
729,33	36,517
729,51	35,355
729,69	35,337
729,87	36,144
730,06	33,955
730,24	33,954
730,42	36,180
730,60	34,524
730,78	36,979
730,96	35,407
731,14	35,298
731,32	35,705
731,50	34,555
731,68	35,646
731,86	34,288
732,04	37,043
732,22	34,556
732,41	38,468
732,59	36,856
732,77	35,819
732,95	36,935
733,13	35,244
733,31	34,066
733,49	35,637
733,67	37,304
733,85	35,350
734,03	34,890
734,21	34,502
734,39	35,802
734,57	36,311
734,75	35,750
734,93	35,837
735,11	36,922
735,29	35,291
735,47	35,911
735,65	35,968
735,84	34,534
736,02	36,535
736,20	38,498
736,38	34,772
736,56	36,309
736,74	36,820
736,92	35,962
737,10	36,244
737,28	36,997
737,46	36,502
737,64	35,161
737,82	34,550
738,00	37,014
738,18	35,929
738,36	35,697
738,54	35,106
738,72	36,852
738,90	36,759
739,08	37,684
739,26	33,080
739,44	33,692
739,62	35,709
739,80	38,117
739,98	36,022
740,16	35,194
740,34	37,418
740,52	37,766
740,70	35,895
740,88	32,937
741,06	35,595
741,24	36,813
741,42	36,460
741,60	35,296
741,78	36,952
741,96	35,395
742,14	36,856
742,32	34,857
742,50	35,335
742,68	36,947
742,86	35,399
743,04	34,736
743,21	37,232
743,39	37,898
743,57	37,243
743,75	35,155
743,93	34,394
744,11	35,410
744,29	33,869
744,47	33,818
744,65	36,036
744,83	34,879
745,01	35,582
745,19	35,756
745,37	37,493
745,55	36,731
745,73	35,331
745,91	35,337
746,09	35,433
746,27	34,560
746,45	32,780
746,62	35,087
746,80	34,734
746,98	37,112
747,16	33,752
747,34	35,771
747,52	36,044
747,70	37,353
747,88	35,378
748,06	34,968
748,24	35,299
748,42	34,676
748,60	34,111
748,78	34,342
748,95	36,124
749,13	38,813
749,31	34,322
749,49	35,468
749,67	35,128
749,85	36,796
750,03	36,702
750,21	35,686
750,39	37,234
750,57	38,191
750,74	37,318
750,92	35,848
751,10	34,803
751,28	33,119
751,46	36,373
751,64	34,894
751,82	37,172
752,00	37,208
752,17	34,891
752,35	34,569
752,53	35,565
752,71	37,039
752,89	35,588
753,07	35,876
753,25	35,412
753,43	33,596
753,60	37,971
753,78	36,955
753,96	37,040
754,14	34,524
754,32	36,933
754,50	35,354
754,68	36,379
754,85	38,027
755,03	36,811
755,21	36,232
755,39	38,392
755,57	36,164
755,75	36,565
755,92	33,275
756,10	36,420
756,28	37,234
756,46	33,555
756,64	35,132
756,82	35,126
756,99	39,008
757,17	35,563
757,35	35,279
757,53	37,286
757,71	39,183
757,89	35,243
758,06	34,992
758,24	35,383
758,42	36,792
758,60	35,882
758,78	35,775
758,95	37,531
759,13	35,347
759,31	34,902
759,49	35,313
759,67	35,867
759,84	36,616
760,02	34,962
760,20	35,735
760,38	36,476
760,56	36,232
760,73	36,313
760,91	34,905
761,09	36,184
761,27	34,825
761,45	37,027
761,62	36,054
761,80	36,813
761,98	35,028
762,16	35,094
762,33	35,461
762,51	36,918
762,69	33,915
762,87	35,156
763,05	37,047
763,22	34,577
763,40	35,331
763,58	36,550
763,76	35,627
763,93	37,471
764,11	36,844
764,29	35,470
764,47	35,607
764,64	39,030
764,82	36,026
765,00	35,667
765,18	32,855
765,35	34,073
765,53	35,637
765,71	34,764
765,89	35,333
766,06	36,212
766,24	34,850
766,42	35,675
766,60	35,678
766,77	36,437
766,95	35,279
767,13	36,188
767,30	34,971
767,48	36,007
767,66	34,957
767,84	34,018
768,01	35,747
768,19	37,432
768,37	36,046
768,54	35,865
768,72	35,807
768,90	35,716
769,08	38,197
769,25	36,114
769,43	34,550
769,61	34,100
769,78	34,899
769,96	34,946
770,14	36,051
770,31	38,494
770,49	38,082
770,67	36,640
770,85	33,946
771,02	36,289
771,20	35,156
771,38	36,955
771,55	36,221
771,73	37,605
771,91	35,038
772,08	38,566
772,26	36,396
772,44	33,666
772,61	35,553
772,79	34,848
772,97	37,487
773,14	33,987
773,32	36,600
773,50	34,821
773,67	34,478
773,85	37,771
774,03	33,619
774,20	36,232
774,38	34,575
774,56	36,802
774,73	34,426
774,91	32,898
775,09	36,151
775,26	34,655
775,44	36,372
775,61	36,705
775,79	36,056
775,97	39,297
776,14	35,487
776,32	33,881
776,50	34,155
776,67	37,380
776,85	37,959
777,03	33,997
777,20	37,771
777,38	37,499
777,55	37,096
777,73	34,547
777,91	35,269
778,08	37,519
778,26	37,568
778,43	37,669
778,61	34,854
778,79	37,147
778,96	34,900
779,14	35,415
779,32	35,350
779,49	37,069
779,67	39,029
779,84	38,831
780,02	37,752
780,20	34,496
780,37	36,201
780,55	28,720
780,72	37,741
780,90	37,601
781,07	35,229
781,25	37,293
781,43	36,183
781,60	36,388
781,78	36,661
781,95	37,625
782,13	36,614
782,30	37,821
782,48	33,631
782,66	35,306
782,83	34,000
783,01	37,778
783,18	35,504
783,36	34,943
783,53	36,420
783,71	34,677
783,89	34,766
784,06	36,391
784,24	34,492
784,41	38,323
784,59	35,984
784,76	36,952
784,94	36,775
785,11	36,351
785,29	34,558
785,46	35,601
785,64	37,358
785,82	36,059
785,99	35,353
786,17	35,053
786,34	34,426
786,52	36,746
786,69	39,399
786,87	33,749
787,04	35,856
787,22	35,032
787,39	36,089
787,57	34,566
787,74	36,898
787,92	38,569
788,09	37,668
788,27	36,006
788,44	34,155
788,62	36,685
788,79	36,675
788,97	39,386
789,14	38,588
789,32	36,063
789,49	33,995
789,67	37,346
789,84	36,743
790,02	37,677
790,19	35,220
790,37	37,060
790,54	36,524
790,72	39,852
790,89	38,239
791,07	36,012
791,24	35,389
791,42	37,774
791,59	38,436
791,77	37,328
791,94	34,533
792,12	35,086
792,29	36,939
792,47	38,232
792,64	39,730
792,81	37,723
792,99	36,582
793,16	38,005
793,34	37,232
793,51	36,144
793,69	37,321
793,86	35,979
794,04	37,699
794,21	37,155
794,39	33,976
794,56	35,962
794,73	38,220
794,91	39,519
795,08	37,879
795,26	38,043
795,43	37,096
795,61	40,141
795,78	38,114
795,95	37,792
796,13	38,441
796,30	36,948
796,48	37,909
796,65	34,309
796,83	37,612
797,00	39,492
797,17	34,306
797,35	38,034
797,52	37,347
797,70	36,873
797,87	38,170
798,04	33,474
798,22	40,751
798,39	36,894
798,57	37,254
798,74	37,072
798,91	39,679
799,09	37,415
799,26	40,009
799,44	38,225
799,61	37,922
799,78	37,429
799,96	40,333
800,13	35,609
800,31	36,972
800,48	40,727
800,65	40,758
800,83	36,300
801,00	37,999
801,17	36,547
801,35	37,479
801,52	37,510
801,70	37,152
801,87	37,798
802,04	40,189
802,22	34,257
802,39	37,361
802,56	36,185
802,74	36,143
802,91	39,161
803,08	36,661
803,26	35,580
803,43	36,533
803,61	36,218
803,78	40,862
803,95	37,038
804,13	40,763
804,30	35,397
804,47	40,809
804,65	39,875
804,82	36,943
804,99	34,387
805,17	38,556
805,34	40,494
805,51	41,548
805,69	36,591
805,86	32,530
806,03	42,655
806,21	42,555
806,38	34,641
806,55	40,911
806,72	41,723
806,90	38,167
807,07	38,032
807,24	38,129
807,42	35,116
807,59	40,257
807,76	36,827
807,94	37,212
808,11	40,356
808,28	41,545
808,45	40,552
808,63	40,688
808,80	39,165
808,97	39,402
809,15	34,307
809,32	38,077
809,49	37,097
809,67	37,382
809,84	38,730
810,01	37,752
810,18	42,040
810,36	39,056
810,53	40,073
810,70	38,254
810,87	40,393
811,05	38,338
811,22	39,426
811,39	37,025
811,57	40,536
811,74	38,967
811,91	37,213
812,08	38,180
812,26	38,060
812,43	39,295
812,60	40,941
812,77	35,243
812,95	37,300
813,12	42,019
813,29	34,968
813,46	39,314
813,64	38,848
813,81	37,577
813,98	37,065
814,15	38,766
814,32	41,097
814,50	42,975
814,67	40,736
814,84	37,700
815,01	37,391
815,19	36,471
815,36	36,046
815,53	41,095
815,70	37,799
815,87	39,997
816,05	34,024
816,22	42,663
816,39	42,526
816,56	43,633
816,74	37,291
816,91	37,092
817,08	47,051
817,25	41,656
817,42	39,523
817,60	45,065
817,77	40,298
817,94	40,977
818,11	42,400
818,28	41,093
818,45	42,297
818,63	39,249
818,80	39,793
818,97	36,163
819,14	44,642
819,31	45,967
819,49	40,449
819,66	36,057
819,83	41,637
820,00	39,832
820,17	37,243
820,34	40,505
820,52	45,617
820,69	41,525
820,86	41,892
821,03	37,779
821,20	39,527
821,37	40,624
821,55	38,105
821,72	40,891
821,89	40,801
822,06	39,208
822,23	37,526
822,40	36,350
822,57	42,661
822,75	47,995
822,92	37,943
823,09	36,445
823,26	38,247
823,43	43,401
823,60	33,489
823,77	39,686
823,94	40,471
824,12	42,530
824,29	37,197
824,46	35,205
824,63	51,643
824,80	41,034
824,97	41,959
825,14	39,647
825,31	42,034
825,49	43,091
825,66	35,787
825,83	38,804
826,00	41,562
826,17	47,980
826,34	34,833
826,51	35,001
826,68	33,432
826,85	40,846
827,02	41,447
827,20	36,459
827,37	39,414
827,54	38,863
827,71	39,423
827,88	37,742
828,05	41,688
828,22	40,844
828,39	40,622
828,56	43,238
828,73	41,117
828,90	44,450
829,07	40,726
829,25	37,138
829,42	40,539
829,59	33,633
829,76	35,382
829,93	39,818
830,10	38,862
830,27	37,796
830,44	38,826
830,61	37,572
830,78	50,072
830,95	39,890
831,12	36,807
831,29	36,881
831,46	34,483
831,63	38,749
831,80	42,494
831,97	44,186
832,14	49,600
832,31	46,239
832,48	39,192
832,65	39,016
832,83	38,257
833,00	39,705
833,17	39,416
833,34	41,161
833,51	40,671
833,68	47,555
833,85	49,077
834,02	28,183
834,19	37,607
834,36	47,790
834,53	33,962
834,70	40,276
834,87	53,781
835,04	38,993
835,21	46,796
835,38	32,027
835,55	38,598
835,72	51,417
835,89	38,769
836,06	40,574
836,23	48,947
836,40	37,241
836,57	39,873
836,74	50,021
836,91	48,513
837,08	46,830
837,25	43,312
837,42	31,505
837,59	46,931
837,76	44,550
837,93	40,836
838,09	39,354
838,26	48,997
838,43	47,716
838,60	33,826
838,77	38,727
838,94	47,967
839,11	39,729
839,28	40,135
839,45	45,973
839,62	41,366
839,79	44,328
839,96	42,315
840,13	40,771
840,30	40,884
840,47	34,221
840,64	44,023
840,81	39,646
840,98	34,817
841,15	52,767
841,32	37,358
841,48	48,532
841,65	41,804
841,82	42,393
841,99	39,221
842,16	37,211
842,33	48,923
842,50	50,185
842,67	39,778
842,84	39,689
843,01	46,275
843,18	46,981
843,35	43,648
843,52	39,197
843,68	42,399
843,85	50,917
844,02	45,352
844,19	43,289
844,36	53,564
844,53	40,990
844,70	34,215
844,87	49,591
845,04	45,119
845,21	38,032
845,37	43,121
845,54	42,717
845,71	37,449
845,88	51,202
846,05	32,297
846,22	40,966
846,39	45,328
846,56	44,872
846,72	36,310
846,89	44,732
847,06	52,507
847,23	38,068
847,40	34,040
847,57	36,618
847,74	42,437
847,90	50,787
848,07	39,021
848,24	42,362
848,41	41,450
848,58	53,175
848,75	40,618
848,92	30,330
849,08	41,924
849,25	43,070
849,42	39,314
849,59	36,107
849,76	39,015
849,93	48,221
850,09	43,677
850,26	33,567
850,43	51,111
850,60	42,014
850,77	34,402
850,94	53,130
851,10	45,882
851,27	41,729
851,44	33,066
851,61	33,197
851,78	47,993
851,95	46,997
852,11	45,252
852,28	43,945
852,45	45,885
852,62	46,369
852,79	40,212
852,95	37,579
853,12	48,228
853,29	44,987
853,46	40,085
853,63	51,826
853,79	40,296
853,96	39,731
854,13	62,722
854,30	38,887
854,46	61,319
854,63	48,285
854,80	39,310
854,97	44,407
855,14	54,135
855,30	41,922
855,47	36,600
855,64	43,183
855,81	51,980
855,97	50,202
856,14	55,891
856,31	36,402
856,48	62,030
856,65	49,171
856,81	29,267
856,98	40,037
857,15	39,066
857,32	63,028
857,48	32,548
857,65	43,207
857,82	55,677
857,99	58,679
858,15	47,436
858,32	40,216
858,49	47,892
858,65	62,987
858,82	48,274
858,99	50,805
859,16	56,864
859,32	47,720
859,49	49,154
859,66	37,616
859,83	44,233
859,99	51,490
860,16	45,561
860,33	41,484
860,49	57,460
860,66	52,870
860,83	52,516
861,00	43,433
861,16	57,021
861,33	44,812
861,50	45,543
861,66	60,168
861,83	58,063
862,00	52,922
862,16	53,024
862,33	50,207
862,50	70,179
862,67	52,974
862,83	54,704
863,00	50,487
863,17	56,881
863,33	60,387
863,50	40,157
863,67	42,461
863,83	56,528
864,00	48,160
864,17	46,709
864,33	36,317
864,50	50,874
864,67	51,056
864,83	32,610
865,00	38,772
865,17	44,989
865,33	54,755
865,50	34,027
865,67	32,402
865,83	46,611
866,00	84,893
866,17	63,847
866,33	49,650
866,50	80,263
866,66	58,159
866,83	50,474
867,00	49,707
867,16	66,481
867,33	89,559
867,50	5,088
867,66	36,832
867,83	59,777
868,00	50,060
868,16	46,102
868,33	53,809
868,49	62,718
868,66	53,219
868,83	42,428
868,99	46,144
869,16	66,091
869,32	52,821
869,49	55,609
869,66	42,600
869,82	65,924
869,99	70,068
870,15	47,195
870,32	50,626
870,49	73,885
870,65	93,218
870,82	79,028
870,98	54,562
871,15	72,329
871,32	53,320
871,48	17,288
871,65	26,115
871,81	68,312
871,98	20,896
872,15	49,847
872,31	44,401
872,48	72,587
872,64	45,230
872,81	29,210
872,97	50,961
873,14	62,594
873,31	75,029
873,47	29,466
873,64	56,685
873,80	94,289
873,97	84,290
874,13	39,881
874,30	54,804
874,46	88,005
874,63	43,682
874,80	46,776
874,96	31,187
875,13	80,582
875,29	23,645
875,46	50,103
875,62	47,762
875,79	74,545
875,95	51,363
876,12	30,208
876,28	21,797
876,45	75,405
876,61	62,401
876,78	66,379
876,94	25,278
877,11	97,541
877,27	86,379
877,44	70,895
877,60	58,694
877,77	66,432
877,94	111,130
878,10	41,503
878,27	97,076
878,43	91,841
878,60	39,372
878,76	64,532
878,93	33,800
879,09	110,000
879,26	82,359
879,42	66,012
879,58	68,374
879,75	73,521
879,91	119,077
880,08	12,990
880,24	62,080
880,41	47,768
880,57	93,379
880,74	65,401
880,90	33,936
881,07	42,299
881,23	74,374
881,40	45,972
881,56	52,871
881,73	89,560
881,89	101,373
882,06	9,339
882,22	108,993
882,38	137,581
882,55	128,366
882,71	82,169
882,88	86,561
883,04	85,225
883,21	115,512
883,37	38,839
883,54	66,210
883,70	115,447
883,86	111,331
884,03	45,731
884,19	27,366
884,36	-57,400
884,52	168,829
884,69	108,933
884,85	63,211
885,01	151,017
885,18	87,990
885,34	62,632
885,51	5,297
885,67	89,267
>>>>> Data<<<<< Espectral Procesado Extremo
