Fichero De Datos De SpectraSuite
++++++++++++++++++++++++++++++++++++
Fecha: Wed Apr 22 11:06:03 CEST 2009
Usuario: evoflor
Presente Oscuro Del Espectro: Sí
La Referencia de Presente Del Espectro De: Sí
Muestreados de los componentes de Número de espectros: 1
Espectrómetros: USB4F02353
Tiempo de integración (usec): 500000 (USB4F02353)
Promedio de Espectros Hechos un: 5 (USB4F02353)
El Alisar Del Furgón: 0 (USB4F02353)
Párrafo de de Corregir del la del del de Eléctrica del obscuridad: Sí (USB4F02353)
Estrobo/Lámpara Permitido: No (USB4F02353)
Correct for Detector Non-linearity: No (USB4F02353)
Párrafo de de Corregir del la del del de Externa del luz: No (USB4F02353)
Procesado del espectro de Número de pixeles en: 3648
>>>>> Comienza Data<<<<< Espectral Procesado Del EL
177,79	239,587
178,00	239,587
178,22	239,587
178,44	56,648
178,66	-121,101
178,88	72,492
179,09	-77,638
179,31	149,122
179,53	429,861
179,75	220,316
179,96	762,457
180,18	21,400
180,40	198,551
180,62	282,347
180,83	86,550
181,05	-606,646
181,27	-38045,000
181,49	142,293
181,70	135,942
181,92	480,939
182,14	326,039
182,36	199,149
182,58	-254,450
182,79	475,201
183,01	-30,417
183,23	169,948
183,45	-175,215
183,66	170,155
183,88	-543,853
184,10	-1346,273
184,32	149,864
184,53	183,736
184,75	-47,129
184,97	39,747
185,18	-24,145
185,40	98,341
185,62	58,107
185,84	-21,081
186,05	133,458
186,27	-126,813
186,49	1013,269
186,71	29,006
186,92	103,682
187,14	-43,148
187,36	97,127
187,58	51,278
187,79	58,442
188,01	135,309
188,23	-18,594
188,45	57,484
188,66	210,022
188,88	-740,818
189,10	-497,450
189,31	30,299
189,53	54,644
189,75	194,875
189,97	73,635
190,18	-91,652
190,40	520,265
190,62	-129,836
190,83	-187,831
191,05	139,181
191,27	149,843
191,49	254,567
191,70	-187,236
191,92	348,771
192,14	-16,203
192,35	575,981
192,57	-301,571
192,79	-22,602
193,01	120,451
193,22	28,588
193,44	-44,957
193,66	105,519
193,87	21,724
194,09	39,886
194,31	229,284
194,53	335,280
194,74	74,427
194,96	83,178
195,18	88,552
195,39	-185,871
195,61	-54,720
195,83	-221,620
196,04	98,432
196,26	-281,633
196,48	58,049
196,70	138,260
196,91	92,160
197,13	164,671
197,35	176,467
197,56	602,616
197,78	1183,918
198,00	1,713
198,21	407,500
198,43	-655,494
198,65	83,796
198,86	279,299
199,08	289,984
199,30	166,285
199,51	-144,446
199,73	209,622
199,95	207,785
200,16	565,173
200,38	291,346
200,60	105,628
200,81	316,585
201,03	83,818
201,25	-902,450
201,46	208,337
201,68	36,706
201,90	1866,932
202,11	-365,057
202,33	205,646
202,55	1038,062
202,76	3,839
202,98	-155,941
203,20	258,438
203,41	-830,237
203,63	125,643
203,85	-60545,000
204,06	63,213
204,28	64,470
204,50	121,410
204,71	167,394
204,93	-329,240
205,15	-7,395
205,36	-174,273
205,58	218,129
205,80	-93,819
206,01	63,621
206,23	129,133
206,45	190,935
206,66	78,044
206,88	-42,765
207,10	151,920
207,31	317,411
207,53	49,557
207,75	-29,850
207,96	1089,888
208,18	-256,903
208,39	81,818
208,61	2732,714
208,83	-241,183
209,04	-11,039
209,26	-262,419
209,48	324,344
209,69	6,202
209,91	605,895
210,13	30,871
210,34	70,327
210,56	81,048
210,77	-434,213
210,99	58,337
211,21	7690,882
211,42	-73,934
211,64	83,711
211,86	188,944
212,07	222,753
212,29	140,850
212,50	109,694
212,72	-40,596
212,94	166,502
213,15	127,804
213,37	70,914
213,58	-164,180
213,80	-2001,607
214,02	8908,529
214,23	268,148
214,45	458,180
214,67	798,232
214,88	-438,742
215,10	-212,755
215,31	-30,906
215,53	57,830
215,75	89,643
215,96	1499,658
216,18	-123,310
216,39	278,227
216,61	228,483
216,83	33,237
217,04	1721,854
217,26	-73,637
217,47	126,916
217,69	150,439
217,91	55,039
218,12	-57845,000
218,34	67,368
218,55	50,782
218,77	71,357
218,99	157,159
219,20	-54,472
219,42	262,416
219,63	110,778
219,85	-24,057
220,06	35,558
220,28	57,912
220,50	183,496
220,71	138,915
220,93	3417,830
221,14	-920,450
221,36	35,669
221,58	-3,718
221,79	109,552
222,01	746,940
222,22	546,349
222,44	-563,539
222,65	99,401
222,87	-218,566
223,09	140,639
223,30	74,496
223,52	104,727
223,73	57,727
223,95	-28,810
224,16	98,856
224,38	260,770
224,60	92,570
224,81	84,095
225,03	17,120
225,24	196,698
225,46	22,832
225,67	-18,705
225,89	26,237
226,10	412,786
226,32	-156,440
226,54	-15,989
226,75	1,313
226,97	110,443
227,18	111,230
227,40	65,065
227,61	20,605
227,83	-2,156
228,04	49,498
228,26	-42,800
228,47	73,190
228,69	167,890
228,91	96,768
229,12	120,907
229,34	57,725
229,55	48,964
229,77	24,924
229,98	-17,353
230,20	12,808
230,41	-33,789
230,63	48,066
230,84	19,219
231,06	24,217
231,27	9,663
231,49	39,974
231,71	-9,031
231,92	24,367
232,14	-3,167
232,35	43,000
232,57	50,287
232,78	12,324
233,00	23,573
233,21	38,680
233,43	16,288
233,64	-3,923
233,86	14,023
234,07	5,224
234,29	21,630
234,50	5,439
234,72	37,169
234,93	6,217
235,15	29,403
235,36	21,903
235,58	5,925
235,79	35,851
236,01	20,754
236,22	11,707
236,44	34,120
236,65	18,081
236,87	23,854
237,08	6,897
237,30	-1,191
237,51	33,595
237,73	-0,099
237,94	4,977
238,16	15,748
238,37	3,430
238,59	11,463
238,80	-0,220
239,02	7,083
239,23	3,197
239,45	1,743
239,66	23,874
239,88	19,419
240,09	17,119
240,31	6,433
240,52	4,241
240,74	1,651
240,95	14,779
241,17	-0,298
241,38	10,538
241,60	13,974
241,81	9,482
242,03	7,811
242,24	4,451
242,46	17,866
242,67	4,731
242,89	10,512
243,10	15,696
243,32	11,561
243,53	3,163
243,75	8,911
243,96	6,261
244,18	5,915
244,39	6,917
244,60	6,602
244,82	4,254
245,03	14,147
245,25	9,826
245,46	16,310
245,68	1,997
245,89	14,135
246,11	15,869
246,32	7,838
246,54	7,020
246,75	11,844
246,97	10,601
247,18	19,679
247,39	2,165
247,61	5,633
247,82	3,891
248,04	6,901
248,25	6,273
248,47	8,945
248,68	11,576
248,90	-1,232
249,11	10,258
249,33	14,899
249,54	5,819
249,75	8,730
249,97	5,432
250,18	13,426
250,40	14,733
250,61	0,872
250,83	7,380
251,04	-1,656
251,25	10,321
251,47	3,636
251,68	8,612
251,90	14,063
252,11	9,265
252,33	3,048
252,54	8,249
252,76	3,469
252,97	5,108
253,18	-0,473
253,40	3,623
253,61	0,536
253,83	11,707
254,04	7,510
254,25	5,892
254,47	4,067
254,68	8,353
254,90	8,534
255,11	12,491
255,33	5,127
255,54	3,157
255,75	3,368
255,97	3,910
256,18	0,805
256,40	7,790
256,61	10,012
256,82	2,442
257,04	13,211
257,25	0,013
257,47	4,209
257,68	3,712
257,89	9,999
258,11	10,576
258,32	3,774
258,54	5,835
258,75	13,449
258,96	9,065
259,18	7,717
259,39	5,081
259,61	8,613
259,82	6,434
260,03	7,581
260,25	5,070
260,46	1,993
260,68	4,599
260,89	4,971
261,10	4,384
261,32	5,898
261,53	5,358
261,75	9,400
261,96	0,760
262,17	8,943
262,39	9,279
262,60	3,795
262,81	-2,439
263,03	7,976
263,24	8,733
263,46	2,635
263,67	6,017
263,88	6,959
264,10	6,647
264,31	2,832
264,52	4,742
264,74	7,838
264,95	5,435
265,17	6,017
265,38	7,645
265,59	7,756
265,81	5,071
266,02	3,476
266,23	4,882
266,45	8,797
266,66	8,689
266,87	9,730
267,09	3,670
267,30	5,864
267,52	7,342
267,73	5,833
267,94	5,140
268,16	5,869
268,37	5,431
268,58	5,279
268,80	3,147
269,01	4,869
269,22	9,337
269,44	7,610
269,65	8,670
269,86	3,090
270,08	6,051
270,29	2,206
270,50	4,834
270,72	9,731
270,93	5,946
271,14	4,977
271,36	7,567
271,57	7,364
271,78	4,839
272,00	5,896
272,21	8,625
272,42	6,256
272,64	10,318
272,85	3,273
273,06	4,699
273,28	6,114
273,49	6,756
273,70	10,787
273,92	6,091
274,13	4,919
274,34	5,495
274,56	3,491
274,77	7,272
274,98	4,765
275,20	4,145
275,41	9,123
275,62	7,483
275,84	7,027
276,05	9,576
276,26	2,584
276,47	3,475
276,69	7,392
276,90	6,781
277,11	6,340
277,33	5,837
277,54	7,911
277,75	5,334
277,97	3,440
278,18	6,847
278,39	10,059
278,61	5,911
278,82	4,715
279,03	5,139
279,24	2,128
279,46	3,367
279,67	4,898
279,88	2,970
280,10	7,475
280,31	5,093
280,52	7,025
280,73	2,283
280,95	5,204
281,16	11,604
281,37	4,575
281,59	5,180
281,80	9,165
282,01	5,703
282,22	5,741
282,44	4,977
282,65	6,087
282,86	7,590
283,08	5,606
283,29	4,939
283,50	6,391
283,71	6,121
283,93	5,326
284,14	7,868
284,35	5,177
284,56	5,390
284,78	3,984
284,99	4,535
285,20	6,743
285,42	6,207
285,63	6,268
285,84	1,085
286,05	1,529
286,27	7,075
286,48	3,518
286,69	2,931
286,90	4,075
287,12	4,022
287,33	8,299
287,54	2,813
287,75	7,181
287,97	7,812
288,18	7,079
288,39	4,957
288,60	5,705
288,82	2,855
289,03	2,977
289,24	3,577
289,45	6,954
289,67	4,063
289,88	4,978
290,09	5,592
290,30	4,775
290,52	5,641
290,73	2,376
290,94	2,618
291,15	4,182
291,37	8,161
291,58	3,546
291,79	3,477
292,00	7,362
292,21	6,686
292,43	3,088
292,64	2,234
292,85	5,230
293,06	6,381
293,28	3,241
293,49	5,022
293,70	7,249
293,91	3,729
294,12	4,888
294,34	3,325
294,55	5,156
294,76	5,088
294,97	8,730
295,19	1,027
295,40	7,657
295,61	5,782
295,82	3,564
296,03	6,181
296,25	3,682
296,46	1,643
296,67	4,089
296,88	3,272
297,09	7,452
297,31	4,249
297,52	7,227
297,73	4,695
297,94	7,097
298,15	5,151
298,37	6,044
298,58	7,994
298,79	6,815
299,00	1,469
299,21	4,446
299,43	2,438
299,64	10,043
299,85	8,946
300,06	3,780
300,27	2,612
300,49	9,375
300,70	5,754
300,91	5,007
301,12	4,307
301,33	5,794
301,54	4,673
301,76	5,816
301,97	6,669
302,18	4,410
302,39	8,315
302,60	6,206
302,82	6,245
303,03	9,161
303,24	6,935
303,45	5,800
303,66	4,771
303,87	5,350
304,09	9,670
304,30	3,579
304,51	2,047
304,72	6,398
304,93	7,069
305,14	4,177
305,36	3,569
305,57	1,851
305,78	3,987
305,99	5,365
306,20	5,958
306,41	3,546
306,62	3,738
306,84	5,065
307,05	3,433
307,26	2,682
307,47	8,305
307,68	5,959
307,89	3,987
308,11	6,388
308,32	3,260
308,53	6,332
308,74	2,567
308,95	7,607
309,16	6,288
309,37	8,788
309,59	4,595
309,80	5,821
310,01	5,988
310,22	6,943
310,43	4,413
310,64	5,306
310,85	5,992
311,06	4,186
311,28	9,624
311,49	6,155
311,70	9,581
311,91	1,786
312,12	3,631
312,33	8,085
312,54	7,809
312,75	3,579
312,97	4,113
313,18	4,776
313,39	3,561
313,60	4,300
313,81	6,429
314,02	5,883
314,23	6,546
314,44	2,874
314,65	2,351
314,87	5,824
315,08	6,071
315,29	7,074
315,50	5,421
315,71	6,243
315,92	8,890
316,13	5,801
316,34	5,028
316,55	6,092
316,77	2,858
316,98	6,245
317,19	4,888
317,40	6,395
317,61	7,985
317,82	4,751
318,03	4,198
318,24	4,842
318,45	7,317
318,66	4,259
318,87	3,525
319,09	8,652
319,30	5,266
319,51	6,520
319,72	6,446
319,93	10,331
320,14	5,730
320,35	7,672
320,56	4,203
320,77	3,603
320,98	9,038
321,19	2,709
321,40	5,311
321,62	7,420
321,83	5,720
322,04	6,633
322,25	4,115
322,46	7,718
322,67	6,915
322,88	6,207
323,09	6,507
323,30	7,722
323,51	7,278
323,72	7,116
323,93	3,731
324,14	4,688
324,35	4,988
324,56	0,740
324,77	6,393
324,99	3,558
325,20	0,488
325,41	4,943
325,62	5,741
325,83	3,656
326,04	3,693
326,25	7,281
326,46	2,239
326,67	6,195
326,88	4,850
327,09	3,312
327,30	3,763
327,51	4,156
327,72	6,332
327,93	8,210
328,14	2,605
328,35	4,719
328,56	6,485
328,77	4,671
328,98	7,331
329,19	7,122
329,40	7,548
329,61	4,267
329,82	2,485
330,04	4,304
330,25	2,977
330,46	6,069
330,67	1,559
330,88	5,643
331,09	4,826
331,30	6,453
331,51	6,598
331,72	4,842
331,93	7,395
332,14	2,347
332,35	7,459
332,56	4,293
332,77	6,634
332,98	3,501
333,19	4,659
333,40	6,115
333,61	5,374
333,82	6,887
334,03	6,092
334,24	6,290
334,45	4,887
334,66	5,571
334,87	4,885
335,08	2,392
335,29	4,301
335,50	1,292
335,71	3,180
335,92	6,092
336,13	8,596
336,34	2,772
336,55	5,230
336,76	7,596
336,97	2,611
337,18	5,069
337,39	2,698
337,60	4,127
337,81	7,395
338,02	5,019
338,23	5,043
338,44	4,156
338,65	4,379
338,86	6,252
339,07	3,281
339,28	6,948
339,49	4,704
339,70	1,491
339,91	2,118
340,11	9,328
340,32	5,136
340,53	1,508
340,74	3,109
340,95	4,461
341,16	8,498
341,37	4,653
341,58	5,073
341,79	4,594
342,00	5,219
342,21	8,373
342,42	3,137
342,63	5,130
342,84	1,876
343,05	5,729
343,26	5,450
343,47	5,711
343,68	3,505
343,89	5,243
344,10	5,290
344,31	8,243
344,52	4,799
344,73	4,609
344,94	4,751
345,14	5,191
345,35	10,246
345,56	5,505
345,77	4,665
345,98	5,549
346,19	5,875
346,40	6,654
346,61	4,995
346,82	4,260
347,03	2,710
347,24	6,542
347,45	2,976
347,66	8,811
347,87	5,819
348,08	6,093
348,28	4,542
348,49	6,963
348,70	5,425
348,91	4,672
349,12	1,120
349,33	16,714
349,54	7,836
349,75	8,511
349,96	5,223
350,17	5,897
350,38	5,124
350,59	5,657
350,80	5,284
351,00	6,834
351,21	7,607
351,42	3,957
351,63	4,149
351,84	5,397
352,05	5,435
352,26	4,939
352,47	5,497
352,68	7,242
352,89	6,700
353,09	9,266
353,30	4,011
353,51	5,191
353,72	4,969
353,93	7,022
354,14	-0,022
354,35	4,756
354,56	7,799
354,77	5,365
354,98	2,072
355,18	3,064
355,39	10,889
355,60	3,559
355,81	6,256
356,02	6,567
356,23	6,497
356,44	4,176
356,65	8,770
356,85	10,535
357,06	6,917
357,27	6,372
357,48	3,307
357,69	6,021
357,90	6,380
358,11	2,126
358,32	2,753
358,52	5,438
358,73	6,714
358,94	3,898
359,15	5,724
359,36	7,096
359,57	4,165
359,78	4,786
359,98	7,003
360,19	5,008
360,40	5,002
360,61	6,648
360,82	5,149
361,03	9,911
361,24	7,757
361,44	4,909
361,65	5,579
361,86	5,075
362,07	5,942
362,28	6,885
362,49	2,838
362,70	4,807
362,90	7,133
363,11	2,292
363,32	3,460
363,53	4,436
363,74	6,646
363,95	8,116
364,15	5,253
364,36	8,191
364,57	7,951
364,78	3,396
364,99	5,546
365,20	7,979
365,40	8,754
365,61	3,044
365,82	7,071
366,03	4,487
366,24	4,866
366,45	4,128
366,65	5,243
366,86	7,593
367,07	7,474
367,28	3,549
367,49	6,125
367,69	10,544
367,90	5,203
368,11	5,536
368,32	5,673
368,53	5,659
368,73	8,774
368,94	3,129
369,15	5,984
369,36	8,242
369,57	6,593
369,78	3,443
369,98	9,351
370,19	9,208
370,40	4,146
370,61	7,063
370,82	3,109
371,02	6,379
371,23	8,436
371,44	5,154
371,65	3,974
371,85	9,448
372,06	4,165
372,27	4,627
372,48	5,549
372,69	5,232
372,89	5,353
373,10	7,813
373,31	5,446
373,52	6,953
373,73	7,070
373,93	6,209
374,14	2,514
374,35	5,228
374,56	9,196
374,76	4,241
374,97	4,140
375,18	8,086
375,39	5,825
375,60	6,767
375,80	5,201
376,01	7,372
376,22	8,458
376,43	7,187
376,63	5,270
376,84	5,604
377,05	5,663
377,26	4,518
377,46	2,213
377,67	6,167
377,88	8,031
378,09	5,714
378,29	3,814
378,50	7,986
378,71	8,804
378,92	3,991
379,12	6,564
379,33	1,968
379,54	7,948
379,75	8,070
379,95	3,892
380,16	9,745
380,37	11,056
380,58	6,909
380,78	5,396
380,99	5,912
381,20	6,936
381,41	8,085
381,61	6,896
381,82	8,963
382,03	5,272
382,24	6,609
382,44	4,222
382,65	4,878
382,86	5,279
383,06	6,605
383,27	5,752
383,48	4,413
383,69	8,298
383,89	7,914
384,10	8,036
384,31	7,082
384,51	8,771
384,72	7,213
384,93	4,416
385,14	6,082
385,34	10,243
385,55	5,246
385,76	6,554
385,96	10,835
386,17	8,557
386,38	10,963
386,59	8,573
386,79	5,814
387,00	10,228
387,21	9,355
387,41	10,190
387,62	8,886
387,83	10,546
388,03	6,088
388,24	6,338
388,45	10,320
388,66	7,037
388,86	6,352
389,07	2,412
389,28	11,484
389,48	10,571
389,69	8,898
389,90	9,449
390,10	11,944
390,31	13,625
390,52	5,253
390,72	5,392
390,93	9,091
391,14	8,315
391,34	8,401
391,55	11,784
391,76	13,634
391,96	8,963
392,17	9,696
392,38	12,760
392,58	9,803
392,79	10,054
393,00	6,952
393,20	9,218
393,41	13,562
393,62	10,262
393,82	11,725
394,03	8,988
394,24	10,895
394,44	10,898
394,65	13,356
394,86	8,066
395,06	12,212
395,27	11,727
395,48	13,568
395,68	11,063
395,89	11,903
396,10	11,156
396,30	11,535
396,51	9,324
396,72	15,171
396,92	11,885
397,13	12,737
397,34	10,203
397,54	16,256
397,75	12,401
397,95	12,689
398,16	13,418
398,37	14,613
398,57	11,568
398,78	17,025
398,99	15,234
399,19	18,758
399,40	17,443
399,60	11,046
399,81	12,771
400,02	16,250
400,22	15,715
400,43	12,792
400,64	14,124
400,84	15,426
401,05	15,596
401,25	19,168
401,46	16,151
401,67	18,182
401,87	16,239
402,08	14,783
402,29	14,451
402,49	19,355
402,70	23,046
402,90	14,180
403,11	15,549
403,32	20,885
403,52	16,439
403,73	21,335
403,93	18,830
404,14	22,138
404,35	19,818
404,55	20,467
404,76	19,441
404,96	20,205
405,17	22,814
405,38	23,616
405,58	18,760
405,79	20,076
405,99	20,720
406,20	20,640
406,40	18,490
406,61	22,936
406,82	23,794
407,02	22,674
407,23	21,765
407,43	23,807
407,64	21,429
407,85	22,259
408,05	17,643
408,26	30,597
408,46	25,939
408,67	21,966
408,87	24,351
409,08	20,757
409,29	29,395
409,49	25,299
409,70	23,191
409,90	24,671
410,11	26,282
410,31	28,732
410,52	22,996
410,72	24,249
410,93	27,183
411,14	25,558
411,34	22,492
411,55	28,081
411,75	28,208
411,96	26,742
412,16	23,773
412,37	26,413
412,57	28,456
412,78	28,979
412,99	25,398
413,19	25,707
413,40	23,860
413,60	22,034
413,81	26,807
414,01	29,694
414,22	27,665
414,42	29,266
414,63	29,494
414,83	29,716
415,04	34,078
415,24	31,102
415,45	28,369
415,65	30,202
415,86	30,172
416,07	29,374
416,27	30,867
416,48	32,799
416,68	31,937
416,89	28,494
417,09	31,862
417,30	32,233
417,50	29,017
417,71	31,982
417,91	33,601
418,12	33,097
418,32	30,761
418,53	30,102
418,73	32,541
418,94	31,084
419,14	31,298
419,35	29,054
419,55	31,641
419,76	31,560
419,96	30,280
420,17	33,655
420,37	30,532
420,58	36,444
420,78	30,640
420,99	31,002
421,19	35,277
421,40	33,897
421,60	36,810
421,81	30,524
422,01	32,534
422,22	33,846
422,42	33,585
422,63	35,019
422,83	32,368
423,04	37,149
423,24	35,782
423,45	27,257
423,65	39,404
423,86	36,469
424,06	37,747
424,27	30,884
424,47	31,928
424,67	31,763
424,88	32,342
425,08	33,332
425,29	39,511
425,49	36,182
425,70	30,039
425,90	34,508
426,11	32,418
426,31	34,354
426,52	35,897
426,72	33,899
426,93	33,066
427,13	38,544
427,33	33,984
427,54	37,402
427,74	42,355
427,95	36,390
428,15	34,319
428,36	39,372
428,56	35,270
428,77	36,790
428,97	34,752
429,18	38,777
429,38	33,354
429,58	38,269
429,79	39,485
429,99	38,621
430,20	32,366
430,40	37,241
430,61	36,131
430,81	36,658
431,01	36,071
431,22	34,696
431,42	36,069
431,63	35,365
431,83	39,364
432,04	38,386
432,24	38,845
432,44	33,875
432,65	34,385
432,85	36,557
433,06	35,454
433,26	33,083
433,47	32,982
433,67	33,139
433,87	37,241
434,08	31,303
434,28	33,631
434,49	33,210
434,69	34,330
434,89	32,865
435,10	32,230
435,30	36,448
435,51	30,495
435,71	32,882
435,91	30,488
436,12	33,792
436,32	34,659
436,53	34,789
436,73	34,255
436,93	35,713
437,14	35,114
437,34	38,790
437,55	36,331
437,75	38,940
437,95	35,671
438,16	33,095
438,36	35,108
438,57	31,972
438,77	33,426
438,97	35,342
439,18	38,662
439,38	38,835
439,58	33,308
439,79	35,634
439,99	33,510
440,20	37,177
440,40	38,898
440,60	41,027
440,81	35,293
441,01	35,403
441,21	37,186
441,42	38,401
441,62	36,318
441,83	36,011
442,03	38,733
442,23	38,331
442,44	36,429
442,64	38,081
442,84	31,091
443,05	35,741
443,25	34,430
443,45	38,860
443,66	37,105
443,86	34,093
444,06	35,989
444,27	35,791
444,47	36,281
444,67	33,509
444,88	37,925
445,08	39,571
445,28	39,142
445,49	33,096
445,69	29,016
445,90	38,515
446,10	42,167
446,30	34,171
446,51	37,151
446,71	39,754
446,91	39,218
447,12	39,658
447,32	38,656
447,52	33,490
447,72	40,227
447,93	38,136
448,13	31,509
448,33	40,282
448,54	40,995
448,74	33,937
448,94	36,782
449,15	41,139
449,35	35,532
449,55	37,241
449,76	41,283
449,96	33,357
450,16	38,759
450,37	36,488
450,57	37,955
450,77	31,717
450,98	38,483
451,18	38,433
451,38	38,679
451,58	36,947
451,79	39,478
451,99	40,186
452,19	33,727
452,40	32,730
452,60	32,307
452,80	34,623
453,00	40,857
453,21	35,703
453,41	38,900
453,61	34,346
453,82	37,406
454,02	34,922
454,22	36,855
454,42	39,295
454,63	32,660
454,83	33,166
455,03	36,856
455,24	34,455
455,44	37,537
455,64	35,760
455,84	34,540
456,05	31,302
456,25	37,850
456,45	35,158
456,65	35,577
456,86	38,974
457,06	35,883
457,26	41,707
457,47	39,443
457,67	36,264
457,87	35,756
458,07	33,773
458,28	39,468
458,48	35,871
458,68	33,077
458,88	41,429
459,09	39,573
459,29	38,664
459,49	35,626
459,69	39,910
459,90	40,309
460,10	37,425
460,30	35,065
460,50	34,623
460,71	37,682
460,91	35,674
461,11	36,816
461,31	35,419
461,52	39,705
461,72	34,998
461,92	37,292
462,12	39,332
462,32	34,497
462,53	35,764
462,73	34,667
462,93	39,151
463,13	35,166
463,34	34,302
463,54	37,493
463,74	38,054
463,94	35,907
464,14	34,845
464,35	33,080
464,55	41,350
464,75	39,633
464,95	37,940
465,16	30,884
465,36	39,362
465,56	34,378
465,76	34,262
465,96	35,839
466,17	36,235
466,37	34,213
466,57	35,953
466,77	37,639
466,97	34,945
467,18	39,511
467,38	37,577
467,58	37,922
467,78	39,990
467,98	35,836
468,19	35,669
468,39	36,930
468,59	39,095
468,79	36,189
468,99	33,975
469,19	33,504
469,40	36,742
469,60	30,250
469,80	35,637
470,00	38,695
470,20	38,334
470,41	35,577
470,61	37,198
470,81	35,448
471,01	32,966
471,21	37,920
471,41	38,299
471,62	34,131
471,82	37,461
472,02	35,917
472,22	34,816
472,42	37,528
472,62	38,378
472,83	34,298
473,03	38,551
473,23	35,214
473,43	36,632
473,63	36,331
473,83	33,918
474,03	34,831
474,24	37,175
474,44	33,267
474,64	33,125
474,84	32,198
475,04	35,629
475,24	37,858
475,45	34,697
475,65	35,993
475,85	34,556
476,05	32,492
476,25	34,662
476,45	32,637
476,65	40,766
476,85	36,432
477,06	37,087
477,26	36,193
477,46	34,832
477,66	35,113
477,86	36,168
478,06	32,970
478,26	39,724
478,46	33,577
478,67	36,831
478,87	34,056
479,07	34,970
479,27	36,087
479,47	34,272
479,67	27,229
479,87	32,532
480,07	37,270
480,28	33,711
480,48	31,344
480,68	35,360
480,88	34,774
481,08	36,166
481,28	34,135
481,48	35,097
481,68	32,761
481,88	32,395
482,08	34,105
482,29	36,198
482,49	33,734
482,69	32,417
482,89	33,432
483,09	37,732
483,29	33,799
483,49	31,458
483,69	33,911
483,89	31,744
484,09	29,457
484,29	31,028
484,50	34,233
484,70	32,735
484,90	30,980
485,10	33,859
485,30	34,260
485,50	36,212
485,70	31,231
485,90	31,652
486,10	29,757
486,30	33,311
486,50	31,118
486,70	33,553
486,90	34,019
487,10	33,623
487,30	31,912
487,51	32,907
487,71	31,468
487,91	32,280
488,11	33,135
488,31	26,872
488,51	31,569
488,71	30,587
488,91	31,392
489,11	30,669
489,31	30,621
489,51	29,400
489,71	31,061
489,91	32,749
490,11	30,980
490,31	31,247
490,51	30,782
490,71	28,838
490,91	28,872
491,11	32,480
491,31	33,149
491,51	28,980
491,72	33,448
491,92	32,760
492,12	34,522
492,32	31,152
492,52	35,317
492,72	32,529
492,92	31,739
493,12	32,833
493,32	29,978
493,52	28,651
493,72	30,996
493,92	31,441
494,12	30,388
494,32	33,237
494,52	31,692
494,72	32,485
494,92	30,021
495,12	33,603
495,32	35,397
495,52	30,957
495,72	32,911
495,92	32,756
496,12	32,875
496,32	27,569
496,52	33,441
496,72	28,938
496,92	32,554
497,12	31,049
497,32	33,053
497,52	31,802
497,72	33,801
497,92	31,500
498,12	31,126
498,32	33,049
498,52	33,565
498,72	29,700
498,92	31,721
499,12	33,396
499,32	31,431
499,52	34,141
499,72	34,560
499,92	34,956
500,12	32,566
500,32	35,173
500,52	32,494
500,72	37,748
500,91	33,044
501,11	32,109
501,31	28,444
501,51	32,165
501,71	30,866
501,91	33,251
502,11	32,419
502,31	30,680
502,51	33,218
502,71	30,851
502,91	32,002
503,11	30,043
503,31	33,472
503,51	27,417
503,71	29,187
503,91	33,176
504,11	33,158
504,31	31,366
504,51	31,526
504,71	32,533
504,91	30,943
505,10	32,104
505,30	30,371
505,50	29,098
505,70	31,555
505,90	30,985
506,10	29,586
506,30	30,463
506,50	33,216
506,70	32,956
506,90	30,755
507,10	32,752
507,30	31,027
507,50	31,562
507,70	30,938
507,89	31,183
508,09	28,363
508,29	29,601
508,49	30,559
508,69	28,712
508,89	32,903
509,09	29,224
509,29	29,986
509,49	32,210
509,69	34,008
509,89	30,967
510,09	28,358
510,28	31,826
510,48	29,812
510,68	29,601
510,88	28,002
511,08	30,236
511,28	30,646
511,48	30,612
511,68	28,005
511,88	27,758
512,07	31,955
512,27	29,565
512,47	31,330
512,67	26,576
512,87	25,601
513,07	29,512
513,27	25,927
513,47	29,809
513,67	30,241
513,86	28,217
514,06	28,899
514,26	27,968
514,46	29,034
514,66	27,312
514,86	27,409
515,06	31,064
515,26	30,317
515,45	28,941
515,65	24,628
515,85	29,906
516,05	24,453
516,25	27,899
516,45	29,029
516,65	27,959
516,84	28,520
517,04	33,491
517,24	25,615
517,44	27,619
517,64	29,220
517,84	29,988
518,04	32,241
518,23	28,952
518,43	29,525
518,63	27,025
518,83	27,269
519,03	27,691
519,23	28,079
519,42	26,511
519,62	25,845
519,82	26,818
520,02	27,315
520,22	26,899
520,42	25,156
520,61	29,348
520,81	30,314
521,01	31,239
521,21	26,035
521,41	24,760
521,61	29,108
521,80	24,594
522,00	24,689
522,20	27,551
522,40	28,159
522,60	27,729
522,79	25,175
522,99	27,486
523,19	26,061
523,39	25,195
523,59	27,794
523,78	28,467
523,98	25,844
524,18	25,711
524,38	26,792
524,58	27,156
524,77	28,369
524,97	25,193
525,17	26,045
525,37	24,945
525,57	29,636
525,76	24,729
525,96	25,529
526,16	23,872
526,36	24,674
526,56	26,914
526,75	24,879
526,95	27,176
527,15	25,391
527,35	25,647
527,55	25,039
527,74	26,475
527,94	25,408
528,14	21,831
528,34	26,213
528,53	22,734
528,73	24,703
528,93	24,114
529,13	24,559
529,32	24,740
529,52	27,965
529,72	24,817
529,92	25,947
530,12	23,786
530,31	23,963
530,51	23,059
530,71	25,303
530,91	24,894
531,10	20,154
531,30	25,013
531,50	22,490
531,70	24,785
531,89	21,570
532,09	22,510
532,29	24,538
532,49	23,252
532,68	23,507
532,88	22,879
533,08	23,190
533,28	21,490
533,47	24,242
533,67	24,399
533,87	21,067
534,06	27,303
534,26	21,664
534,46	22,878
534,66	23,579
534,85	25,980
535,05	20,379
535,25	23,625
535,45	22,063
535,64	22,199
535,84	21,919
536,04	21,087
536,23	23,062
536,43	22,763
536,63	22,088
536,83	22,859
537,02	22,088
537,22	21,736
537,42	22,466
537,61	23,768
537,81	23,299
538,01	23,236
538,20	21,443
538,40	21,370
538,60	23,404
538,80	19,962
538,99	21,527
539,19	18,041
539,39	21,127
539,58	21,260
539,78	18,819
539,98	20,366
540,17	17,484
540,37	19,355
540,57	17,726
540,76	16,911
540,96	15,545
541,16	19,875
541,36	16,415
541,55	13,237
541,75	14,153
541,95	16,687
542,14	16,661
542,34	14,255
542,54	14,599
542,73	14,984
542,93	15,379
543,13	14,725
543,32	14,789
543,52	15,120
543,72	14,332
543,91	15,638
544,11	15,537
544,31	14,549
544,50	14,952
544,70	14,857
544,89	15,176
545,09	18,010
545,29	14,197
545,48	15,233
545,68	15,560
545,88	13,695
546,07	14,776
546,27	15,517
546,47	15,507
546,66	17,920
546,86	17,607
547,06	15,854
547,25	16,843
547,45	18,722
547,64	18,808
547,84	20,024
548,04	18,524
548,23	19,945
548,43	19,897
548,63	21,371
548,82	18,214
549,02	19,276
549,21	20,316
549,41	20,519
549,61	20,257
549,80	20,169
550,00	20,423
550,20	16,630
550,39	20,738
550,59	19,587
550,78	19,469
550,98	16,292
551,18	21,938
551,37	22,158
551,57	20,685
551,76	20,325
551,96	19,220
552,16	18,496
552,35	18,895
552,55	20,463
552,74	21,941
552,94	19,760
553,14	20,623
553,33	20,544
553,53	20,931
553,72	21,130
553,92	21,207
554,12	20,018
554,31	22,358
554,51	21,437
554,70	19,440
554,90	21,739
555,09	23,170
555,29	20,794
555,49	19,615
555,68	23,692
555,88	19,994
556,07	19,226
556,27	23,463
556,46	17,516
556,66	18,529
556,86	22,800
557,05	20,582
557,25	19,960
557,44	18,308
557,64	20,785
557,83	22,142
558,03	21,479
558,22	18,921
558,42	19,435
558,62	20,104
558,81	20,287
559,01	19,925
559,20	20,789
559,40	20,978
559,59	20,556
559,79	20,999
559,98	20,675
560,18	20,048
560,37	21,244
560,57	19,847
560,76	20,548
560,96	19,026
561,16	22,359
561,35	20,923
561,55	24,736
561,74	19,582
561,94	21,782
562,13	20,264
562,33	23,208
562,52	21,024
562,72	21,014
562,91	20,401
563,11	20,376
563,30	21,248
563,50	21,030
563,69	19,864
563,89	19,104
564,08	21,975
564,28	19,531
564,47	22,150
564,67	19,380
564,86	20,816
565,06	19,445
565,25	20,981
565,45	20,513
565,64	24,793
565,84	20,823
566,03	19,900
566,23	19,719
566,42	20,055
566,62	20,346
566,81	19,416
567,01	21,335
567,20	22,527
567,40	19,542
567,59	19,743
567,79	23,215
567,98	23,774
568,18	20,344
568,37	23,367
568,57	23,160
568,76	23,329
568,96	22,701
569,15	21,669
569,35	22,323
569,54	23,054
569,73	22,472
569,93	19,595
570,12	21,203
570,32	23,306
570,51	21,051
570,71	22,836
570,90	23,894
571,10	21,389
571,29	21,089
571,49	20,464
571,68	22,303
571,87	21,681
572,07	22,872
572,26	20,876
572,46	21,106
572,65	22,804
572,85	20,814
573,04	20,994
573,24	23,567
573,43	22,704
573,62	23,299
573,82	21,347
574,01	22,981
574,21	23,923
574,40	20,551
574,60	22,127
574,79	24,031
574,98	22,963
575,18	23,581
575,37	21,172
575,57	23,231
575,76	23,298
575,96	22,299
576,15	22,175
576,34	25,131
576,54	23,947
576,73	23,536
576,93	22,742
577,12	21,384
577,31	24,177
577,51	22,671
577,70	23,571
577,90	23,962
578,09	22,794
578,28	23,427
578,48	22,383
578,67	26,549
578,87	23,397
579,06	22,608
579,25	23,830
579,45	23,960
579,64	22,834
579,84	22,626
580,03	22,192
580,22	25,551
580,42	21,983
580,61	24,391
580,81	24,899
581,00	24,100
581,19	24,581
581,39	24,649
581,58	22,932
581,77	23,362
581,97	23,975
582,16	23,315
582,35	22,647
582,55	23,570
582,74	24,698
582,94	24,313
583,13	22,017
583,32	26,051
583,52	23,843
583,71	22,792
583,90	23,662
584,10	24,758
584,29	24,766
584,48	23,627
584,68	24,281
584,87	25,744
585,06	24,530
585,26	24,883
585,45	25,959
585,65	25,666
585,84	25,397
586,03	24,639
586,23	22,296
586,42	24,529
586,61	25,512
586,81	24,052
587,00	24,321
587,19	23,621
587,39	27,021
587,58	25,659
587,77	26,539
587,97	25,646
588,16	25,279
588,35	26,308
588,54	26,399
588,74	24,980
588,93	27,487
589,12	26,584
589,32	26,149
589,51	25,263
589,70	25,243
589,90	26,150
590,09	24,605
590,28	28,982
590,48	26,878
590,67	27,561
590,86	26,797
591,06	26,000
591,25	27,547
591,44	26,656
591,63	26,955
591,83	27,344
592,02	27,846
592,21	25,817
592,41	26,664
592,60	28,038
592,79	28,168
592,98	27,321
593,18	28,723
593,37	29,197
593,56	26,739
593,76	28,841
593,95	27,192
594,14	28,398
594,33	29,296
594,53	28,178
594,72	28,105
594,91	31,651
595,10	29,433
595,30	30,590
595,49	29,190
595,68	31,119
595,88	28,144
596,07	29,023
596,26	29,479
596,45	29,471
596,65	27,868
596,84	29,153
597,03	30,507
597,22	30,107
597,42	31,884
597,61	31,495
597,80	29,564
597,99	30,950
598,19	30,819
598,38	30,987
598,57	30,737
598,76	32,658
598,95	31,416
599,15	31,559
599,34	31,716
599,53	33,502
599,72	31,277
599,92	32,031
600,11	31,760
600,30	32,655
600,49	32,776
600,69	31,255
600,88	32,226
601,07	33,692
601,26	32,224
601,45	32,062
601,65	31,603
601,84	31,679
602,03	31,516
602,22	33,295
602,42	34,156
602,61	32,138
602,80	34,374
602,99	32,845
603,18	31,622
603,38	33,224
603,57	32,089
603,76	33,496
603,95	32,198
604,14	32,616
604,34	34,054
604,53	33,479
604,72	33,493
604,91	33,784
605,10	33,011
605,29	33,862
605,49	31,219
605,68	33,342
605,87	32,809
606,06	34,382
606,25	31,351
606,45	32,750
606,64	32,314
606,83	33,513
607,02	32,063
607,21	33,316
607,40	32,591
607,60	32,092
607,79	31,883
607,98	30,250
608,17	30,422
608,36	30,854
608,55	30,646
608,75	31,273
608,94	29,927
609,13	28,410
609,32	28,261
609,51	28,133
609,70	27,643
609,89	29,042
610,09	28,091
610,28	29,301
610,47	27,060
610,66	27,137
610,85	26,571
611,04	28,866
611,23	26,575
611,43	28,092
611,62	28,343
611,81	27,510
612,00	28,700
612,19	27,617
612,38	28,304
612,57	28,907
612,77	29,076
612,96	28,790
613,15	29,189
613,34	30,435
613,53	32,190
613,72	32,300
613,91	31,966
614,10	30,334
614,29	33,566
614,49	32,245
614,68	31,374
614,87	32,404
615,06	36,409
615,25	32,500
615,44	35,362
615,63	33,144
615,82	33,150
616,01	32,304
616,21	33,192
616,40	34,663
616,59	35,812
616,78	35,363
616,97	34,927
617,16	35,473
617,35	36,248
617,54	35,354
617,73	37,720
617,92	33,716
618,11	35,810
618,31	33,501
618,50	36,081
618,69	33,871
618,88	34,873
619,07	33,632
619,26	32,822
619,45	36,195
619,64	35,187
619,83	32,828
620,02	33,084
620,21	35,213
620,40	36,275
620,59	34,502
620,78	33,592
620,97	37,669
621,17	36,065
621,36	34,711
621,55	35,019
621,74	35,294
621,93	36,398
622,12	35,386
622,31	34,557
622,50	34,700
622,69	37,793
622,88	37,312
623,07	36,665
623,26	35,972
623,45	38,362
623,64	34,062
623,83	34,781
624,02	36,834
624,21	38,505
624,40	35,583
624,59	34,674
624,78	36,094
624,97	39,212
625,16	35,325
625,35	34,162
625,54	34,686
625,73	36,615
625,92	36,428
626,12	37,060
626,31	37,457
626,50	37,778
626,69	36,677
626,88	34,021
627,07	37,733
627,26	37,515
627,45	36,480
627,64	35,909
627,83	35,921
628,02	34,349
628,21	36,579
628,40	35,666
628,59	38,778
628,78	36,372
628,97	37,202
629,16	36,406
629,35	35,366
629,54	38,960
629,73	35,852
629,92	35,539
630,10	37,049
630,29	36,996
630,48	36,214
630,67	35,871
630,86	37,872
631,05	38,823
631,24	37,692
631,43	35,971
631,62	37,081
631,81	36,923
632,00	36,299
632,19	36,543
632,38	38,177
632,57	38,291
632,76	38,590
632,95	38,615
633,14	39,559
633,33	36,777
633,52	38,690
633,71	39,823
633,90	38,594
634,09	37,181
634,28	38,731
634,47	36,905
634,66	38,762
634,85	38,829
635,04	39,269
635,22	36,856
635,41	37,743
635,60	38,145
635,79	38,152
635,98	35,294
636,17	38,702
636,36	38,258
636,55	37,961
636,74	38,769
636,93	38,960
637,12	38,606
637,31	37,381
637,50	38,374
637,69	37,332
637,87	39,767
638,06	38,145
638,25	37,994
638,44	38,789
638,63	36,463
638,82	37,549
639,01	38,041
639,20	38,315
639,39	38,070
639,58	36,844
639,77	38,693
639,95	38,526
640,14	39,401
640,33	37,850
640,52	37,024
640,71	40,090
640,90	40,685
641,09	39,888
641,28	38,295
641,47	39,490
641,66	38,705
641,84	38,554
642,03	37,323
642,22	40,028
642,41	39,086
642,60	40,321
642,79	39,221
642,98	39,654
643,17	37,335
643,35	36,853
643,54	39,186
643,73	40,962
643,92	39,650
644,11	39,276
644,30	38,720
644,49	41,154
644,67	38,255
644,86	36,276
645,05	40,788
645,24	39,366
645,43	39,129
645,62	38,880
645,81	39,555
645,99	41,100
646,18	39,038
646,37	37,853
646,56	38,964
646,75	39,707
646,94	40,799
647,13	38,094
647,31	38,961
647,50	40,446
647,69	41,564
647,88	38,041
648,07	39,960
648,26	43,804
648,44	40,054
648,63	39,655
648,82	40,869
649,01	41,257
649,20	38,967
649,38	40,357
649,57	40,178
649,76	39,024
649,95	38,859
650,14	38,946
650,33	37,640
650,51	39,547
650,70	40,747
650,89	39,170
651,08	38,147
651,27	38,929
651,45	37,969
651,64	37,798
651,83	38,399
652,02	39,014
652,21	40,151
652,39	40,643
652,58	40,630
652,77	39,893
652,96	41,992
653,15	40,895
653,33	40,785
653,52	42,220
653,71	42,053
653,90	42,078
654,09	42,313
654,27	42,040
654,46	43,170
654,65	42,550
654,84	42,235
655,02	43,459
655,21	43,073
655,40	42,693
655,59	41,844
655,77	42,199
655,96	42,766
656,15	42,175
656,34	43,546
656,53	41,467
656,71	42,320
656,90	43,386
657,09	43,134
657,28	43,024
657,46	40,969
657,65	40,927
657,84	41,710
658,03	41,093
658,21	41,516
658,40	40,250
658,59	41,386
658,78	40,795
658,96	39,848
659,15	40,624
659,34	40,362
659,52	41,365
659,71	39,479
659,90	38,623
660,09	41,068
660,27	39,062
660,46	40,324
660,65	37,959
660,84	39,233
661,02	40,057
661,21	39,116
661,40	38,981
661,58	39,167
661,77	39,231
661,96	36,005
662,15	39,367
662,33	39,876
662,52	38,596
662,71	38,922
662,89	38,948
663,08	39,213
663,27	37,921
663,45	39,063
663,64	39,001
663,83	37,528
664,02	38,618
664,20	38,766
664,39	38,564
664,58	38,822
664,76	39,260
664,95	38,961
665,14	38,431
665,32	38,999
665,51	40,975
665,70	38,907
665,88	39,811
666,07	40,606
666,26	39,888
666,44	38,462
666,63	37,879
666,82	40,991
667,00	41,753
667,19	37,776
667,38	40,174
667,56	39,720
667,75	39,819
667,94	40,404
668,12	39,879
668,31	39,300
668,50	40,308
668,68	39,753
668,87	39,801
669,06	39,395
669,24	40,559
669,43	37,525
669,62	38,307
669,80	38,503
669,99	39,414
670,18	39,628
670,36	37,548
670,55	38,330
670,74	40,179
670,92	38,179
671,11	40,223
671,29	38,335
671,48	39,394
671,67	39,907
671,85	39,965
672,04	38,852
672,23	38,228
672,41	38,382
672,60	39,666
672,78	39,317
672,97	38,764
673,16	40,630
673,34	38,099
673,53	40,075
673,71	38,424
673,90	39,260
674,09	39,173
674,27	38,156
674,46	39,451
674,64	41,485
674,83	39,501
675,02	36,587
675,20	38,648
675,39	39,337
675,57	40,002
675,76	37,984
675,95	42,466
676,13	40,574
676,32	40,642
676,50	37,882
676,69	37,284
676,88	39,325
677,06	37,988
677,25	39,600
677,43	41,432
677,62	38,350
677,80	40,225
677,99	39,669
678,18	40,981
678,36	42,221
678,55	37,913
678,73	37,222
678,92	39,363
679,10	38,900
679,29	39,438
679,48	39,406
679,66	38,239
679,85	39,822
680,03	38,470
680,22	40,737
680,40	38,572
680,59	39,460
680,77	39,195
680,96	39,926
681,15	38,939
681,33	40,513
681,52	38,807
681,70	39,420
681,89	40,733
682,07	40,612
682,26	38,996
682,44	40,042
682,63	40,955
682,81	40,309
683,00	40,583
683,18	38,084
683,37	39,941
683,55	38,241
683,74	40,194
683,92	41,494
684,11	40,476
684,29	39,797
684,48	37,221
684,67	38,042
684,85	38,603
685,04	40,480
685,22	39,256
685,41	39,883
685,59	38,656
685,78	38,403
685,96	39,538
686,15	38,396
686,33	39,929
686,52	38,080
686,70	39,207
686,89	39,454
687,07	40,677
687,26	40,376
687,44	40,187
687,62	38,392
687,81	39,830
687,99	38,871
688,18	38,891
688,36	40,026
688,55	41,020
688,73	38,966
688,92	37,862
689,10	37,832
689,29	39,680
689,47	41,247
689,66	39,324
689,84	40,151
690,03	39,696
690,21	39,624
690,40	40,407
690,58	37,558
690,76	37,578
690,95	41,399
691,13	37,992
691,32	38,039
691,50	39,363
691,69	40,549
691,87	38,613
692,06	39,435
692,24	38,780
692,43	40,403
692,61	38,188
692,79	39,083
692,98	37,767
693,16	40,674
693,35	37,706
693,53	38,645
693,72	39,130
693,90	39,593
694,08	38,694
694,27	38,165
694,45	41,607
694,64	41,584
694,82	38,629
695,01	37,622
695,19	40,260
695,37	39,011
695,56	38,645
695,74	39,370
695,93	39,495
696,11	39,223
696,29	38,440
696,48	39,742
696,66	41,328
696,85	40,659
697,03	38,553
697,21	40,570
697,40	38,880
697,58	38,576
697,77	38,987
697,95	41,429
698,13	41,990
698,32	40,215
698,50	38,723
698,69	38,110
698,87	38,893
699,05	37,773
699,24	38,844
699,42	38,837
699,60	36,411
699,79	36,534
699,97	38,405
700,16	37,127
700,34	40,039
700,52	39,490
700,71	39,401
700,89	38,310
701,07	40,553
701,26	39,083
701,44	39,394
701,63	37,527
701,81	39,047
701,99	38,592
702,18	37,366
702,36	38,484
702,54	37,497
702,73	38,136
702,91	37,629
703,09	38,140
703,28	39,202
703,46	40,768
703,64	38,550
703,83	38,699
704,01	40,054
704,19	38,218
704,38	37,390
704,56	37,433
704,74	40,159
704,93	37,957
705,11	37,107
705,29	38,475
705,48	41,158
705,66	38,175
705,84	38,510
706,03	35,751
706,21	39,460
706,39	37,846
706,58	38,222
706,76	37,267
706,94	40,247
707,12	39,862
707,31	38,682
707,49	37,172
707,67	38,391
707,86	40,498
708,04	40,400
708,22	36,808
708,41	37,773
708,59	38,599
708,77	38,645
708,95	38,613
709,14	41,142
709,32	39,431
709,50	38,250
709,69	37,156
709,87	37,898
710,05	38,710
710,23	38,685
710,42	36,258
710,60	38,387
710,78	38,160
710,97	37,996
711,15	38,724
711,33	39,378
711,51	38,155
711,70	37,810
711,88	38,278
712,06	40,116
712,24	38,931
712,43	36,759
712,61	37,199
712,79	39,976
712,97	39,035
713,16	38,656
713,34	36,217
713,52	40,362
713,70	37,912
713,89	39,099
714,07	37,863
714,25	38,287
714,43	41,197
714,62	39,538
714,80	38,769
714,98	36,655
715,16	38,572
715,35	37,107
715,53	37,318
715,71	40,856
715,89	39,325
716,07	38,804
716,26	41,571
716,44	39,067
716,62	39,291
716,80	39,415
716,99	39,104
717,17	40,176
717,35	39,764
717,53	37,169
717,71	38,155
717,90	38,927
718,08	39,588
718,26	36,073
718,44	39,133
718,62	38,448
718,81	40,584
718,99	37,535
719,17	38,642
719,35	39,561
719,53	38,272
719,72	36,599
719,90	37,347
720,08	38,380
720,26	40,639
720,44	36,966
720,62	38,465
720,81	40,373
720,99	39,578
721,17	38,180
721,35	39,544
721,53	38,550
721,72	40,179
721,90	39,012
722,08	38,046
722,26	39,983
722,44	38,040
722,62	38,525
722,81	36,298
722,99	37,994
723,17	37,338
723,35	39,238
723,53	37,856
723,71	39,014
723,89	40,852
724,08	38,622
724,26	38,795
724,44	38,540
724,62	39,376
724,80	37,791
724,98	38,849
725,16	39,194
725,35	39,047
725,53	39,846
725,71	39,488
725,89	39,022
726,07	41,325
726,25	41,752
726,43	39,992
726,61	38,029
726,80	40,661
726,98	37,691
727,16	38,239
727,34	40,552
727,52	38,395
727,70	37,631
727,88	37,430
728,06	37,057
728,25	37,489
728,43	38,459
728,61	37,375
728,79	38,598
728,97	39,748
729,15	40,098
729,33	38,132
729,51	39,689
729,69	38,871
729,87	37,678
730,06	37,862
730,24	39,348
730,42	39,081
730,60	37,127
730,78	38,504
730,96	37,450
731,14	41,432
731,32	37,769
731,50	37,969
731,68	38,940
731,86	39,347
732,04	41,520
732,22	36,936
732,41	40,668
732,59	39,969
732,77	40,648
732,95	40,827
733,13	40,764
733,31	39,392
733,49	37,741
733,67	39,894
733,85	38,877
734,03	40,339
734,21	38,339
734,39	37,962
734,57	40,912
734,75	40,342
734,93	38,513
735,11	37,495
735,29	38,193
735,47	40,117
735,65	39,130
735,84	37,851
736,02	39,603
736,20	42,951
736,38	39,053
736,56	38,138
736,74	38,227
736,92	38,669
737,10	39,267
737,28	38,954
737,46	39,591
737,64	36,815
737,82	38,269
738,00	40,179
738,18	40,466
738,36	38,981
738,54	37,958
738,72	37,623
738,90	37,726
739,08	41,153
739,26	35,799
739,44	37,433
739,62	39,323
739,80	42,511
739,98	38,751
740,16	36,851
740,34	39,337
740,52	42,699
740,70	37,254
740,88	37,708
741,06	38,801
741,24	38,139
741,42	38,882
741,60	38,213
741,78	40,622
741,96	36,955
742,14	37,302
742,32	36,495
742,50	38,791
742,68	37,731
742,86	37,600
743,04	36,994
743,21	39,123
743,39	40,336
743,57	38,609
743,75	35,715
743,93	37,275
744,11	39,169
744,29	38,300
744,47	37,204
744,65	38,168
744,83	39,532
745,01	38,376
745,19	38,969
745,37	40,525
745,55	39,485
745,73	39,189
745,91	35,336
746,09	36,966
746,27	38,342
746,45	35,766
746,62	37,586
746,80	38,584
746,98	38,539
747,16	37,278
747,34	38,603
747,52	38,625
747,70	38,343
747,88	37,769
748,06	39,626
748,24	38,623
748,42	39,691
748,60	38,333
748,78	39,419
748,95	39,855
749,13	39,776
749,31	36,705
749,49	37,922
749,67	39,744
749,85	39,995
750,03	38,764
750,21	38,467
750,39	40,374
750,57	40,128
750,74	37,720
750,92	35,800
751,10	38,877
751,28	36,720
751,46	38,086
751,64	39,627
751,82	41,077
752,00	37,352
752,17	38,566
752,35	37,095
752,53	38,234
752,71	38,239
752,89	38,713
753,07	37,344
753,25	38,440
753,43	36,114
753,60	39,032
753,78	37,683
753,96	41,415
754,14	36,514
754,32	40,197
754,50	39,448
754,68	39,813
754,85	39,433
755,03	40,335
755,21	39,621
755,39	40,541
755,57	39,360
755,75	39,093
755,92	37,223
756,10	39,098
756,28	39,259
756,46	37,596
756,64	39,363
756,82	38,519
756,99	38,182
757,17	37,860
757,35	38,952
757,53	38,593
757,71	41,631
757,89	38,217
758,06	38,074
758,24	38,370
758,42	39,611
758,60	39,140
758,78	38,824
758,95	39,207
759,13	39,596
759,31	37,248
759,49	37,346
759,67	37,953
759,84	38,294
760,02	38,470
760,20	38,004
760,38	39,166
760,56	37,801
760,73	39,676
760,91	38,680
761,09	37,682
761,27	37,356
761,45	38,472
761,62	40,247
761,80	38,966
761,98	39,508
762,16	38,303
762,33	38,475
762,51	39,750
762,69	36,631
762,87	38,558
763,05	38,940
763,22	38,440
763,40	37,549
763,58	37,348
763,76	37,427
763,93	40,847
764,11	39,514
764,29	38,481
764,47	37,232
764,64	41,236
764,82	41,474
765,00	37,656
765,18	35,625
765,35	38,943
765,53	39,231
765,71	37,326
765,89	37,376
766,06	38,346
766,24	37,529
766,42	40,835
766,60	38,686
766,77	38,573
766,95	38,269
767,13	38,730
767,30	38,277
767,48	38,398
767,66	37,526
767,84	36,504
768,01	37,408
768,19	36,226
768,37	38,613
768,54	37,039
768,72	39,410
768,90	38,093
769,08	37,820
769,25	38,484
769,43	39,082
769,61	36,180
769,78	37,955
769,96	36,899
770,14	39,389
770,31	40,559
770,49	41,106
770,67	38,918
770,85	38,604
771,02	36,712
771,20	36,216
771,38	39,691
771,55	36,629
771,73	35,805
771,91	37,813
772,08	39,842
772,26	35,025
772,44	37,460
772,61	38,593
772,79	36,490
772,97	38,737
773,14	37,635
773,32	40,215
773,50	39,460
773,67	38,102
773,85	39,171
774,03	39,967
774,20	36,893
774,38	38,792
774,56	36,476
774,73	38,606
774,91	38,083
775,09	37,616
775,26	38,064
775,44	38,292
775,61	38,489
775,79	36,116
775,97	38,703
776,14	37,398
776,32	34,950
776,50	36,172
776,67	37,239
776,85	38,158
777,03	37,189
777,20	39,563
777,38	37,798
777,55	38,280
777,73	35,597
777,91	36,493
778,08	39,003
778,26	39,321
778,43	39,192
778,61	36,483
778,79	37,543
778,96	37,210
779,14	37,811
779,32	40,581
779,49	38,504
779,67	40,099
779,84	38,607
780,02	38,543
780,20	36,463
780,37	42,154
780,55	33,284
780,72	40,336
780,90	40,113
781,07	39,055
781,25	36,598
781,43	39,499
781,60	39,715
781,78	39,981
781,95	37,878
782,13	39,361
782,30	39,834
782,48	40,020
782,66	37,052
782,83	36,990
783,01	41,559
783,18	39,510
783,36	39,814
783,53	40,920
783,71	38,386
783,89	36,334
784,06	41,828
784,24	38,082
784,41	37,457
784,59	38,724
784,76	39,881
784,94	39,815
785,11	38,389
785,29	37,361
785,46	39,789
785,64	37,473
785,82	39,989
785,99	38,034
786,17	38,082
786,34	40,937
786,52	40,828
786,69	40,851
786,87	37,713
787,04	37,599
787,22	36,468
787,39	40,292
787,57	40,089
787,74	40,797
787,92	41,075
788,09	38,949
788,27	38,417
788,44	39,396
788,62	38,816
788,79	40,351
788,97	40,808
789,14	36,990
789,32	38,351
789,49	39,900
789,67	39,883
789,84	39,096
790,02	38,581
790,19	36,905
790,37	41,401
790,54	40,409
790,72	42,621
790,89	41,565
791,07	38,973
791,24	35,536
791,42	42,826
791,59	39,139
791,77	39,366
791,94	36,802
792,12	38,253
792,29	41,095
792,47	39,679
792,64	42,011
792,81	38,494
792,99	39,988
793,16	41,024
793,34	40,727
793,51	38,701
793,69	41,841
793,86	39,705
794,04	39,126
794,21	43,436
794,39	35,455
794,56	37,570
794,73	42,317
794,91	41,531
795,08	38,403
795,26	39,179
795,43	37,847
795,61	43,469
795,78	44,068
795,95	38,142
796,13	41,593
796,30	37,218
796,48	39,139
796,65	37,739
796,83	40,821
797,00	42,931
797,17	37,839
797,35	40,188
797,52	40,427
797,70	41,819
797,87	42,682
798,04	37,283
798,22	41,578
798,39	40,003
798,57	36,555
798,74	40,129
798,91	38,618
799,09	37,834
799,26	39,866
799,44	38,252
799,61	39,992
799,78	39,899
799,96	36,922
800,13	37,695
800,31	39,930
800,48	44,189
800,65	43,948
800,83	38,990
801,00	41,762
801,17	40,252
801,35	43,319
801,52	39,508
801,70	40,280
801,87	40,495
802,04	42,854
802,22	37,845
802,39	39,974
802,56	45,546
802,74	41,366
802,91	38,348
803,08	39,196
803,26	41,440
803,43	42,924
803,61	39,198
803,78	37,674
803,95	40,249
804,13	43,314
804,30	38,945
804,47	41,116
804,65	43,238
804,82	40,029
804,99	39,020
805,17	40,664
805,34	43,075
805,51	46,439
805,69	38,356
805,86	39,626
806,03	45,597
806,21	39,808
806,38	41,704
806,55	41,774
806,72	43,403
806,90	39,069
807,07	42,623
807,24	38,492
807,42	39,991
807,59	39,283
807,76	38,857
807,94	38,126
808,11	42,505
808,28	46,397
808,45	42,502
808,63	43,562
808,80	41,493
808,97	43,719
809,15	38,808
809,32	41,486
809,49	37,167
809,67	42,648
809,84	40,296
810,01	40,817
810,18	47,272
810,36	44,188
810,53	42,163
810,70	41,776
810,87	45,202
811,05	43,490
811,22	43,638
811,39	37,555
811,57	41,790
811,74	45,423
811,91	38,058
812,08	40,142
812,26	42,702
812,43	38,112
812,60	42,952
812,77	39,638
812,95	44,350
813,12	41,027
813,29	36,204
813,46	37,972
813,64	37,999
813,81	42,662
813,98	37,598
814,15	42,988
814,32	43,540
814,50	43,168
814,67	39,491
814,84	40,552
815,01	46,142
815,19	39,676
815,36	39,788
815,53	39,095
815,70	39,617
815,87	43,883
816,05	40,278
816,22	42,663
816,39	43,449
816,56	45,593
816,74	40,559
816,91	38,715
817,08	42,647
817,25	43,861
817,42	42,789
817,60	41,131
817,77	41,878
817,94	42,274
818,11	41,289
818,28	46,408
818,45	44,157
818,63	44,492
818,80	39,367
818,97	42,946
819,14	46,375
819,31	45,503
819,49	43,536
819,66	39,883
819,83	45,058
820,00	40,092
820,17	41,226
820,34	45,715
820,52	42,528
820,69	46,024
820,86	39,355
821,03	40,562
821,20	41,689
821,37	43,716
821,55	37,265
821,72	42,264
821,89	41,315
822,06	46,277
822,23	40,841
822,40	39,353
822,57	43,453
822,75	47,112
822,92	39,677
823,09	43,663
823,26	49,829
823,43	48,396
823,60	41,120
823,77	42,199
823,94	44,511
824,12	47,856
824,29	38,782
824,46	36,608
824,63	47,288
824,80	44,558
824,97	38,207
825,14	46,495
825,31	44,874
825,49	45,288
825,66	39,302
825,83	44,080
826,00	43,735
826,17	55,608
826,34	41,757
826,51	41,407
826,68	41,364
826,85	44,801
827,02	43,036
827,20	37,241
827,37	44,493
827,54	38,199
827,71	49,639
827,88	49,815
828,05	47,383
828,22	43,501
828,39	42,866
828,56	45,264
828,73	45,839
828,90	46,107
829,07	42,361
829,25	49,044
829,42	47,191
829,59	45,760
829,76	40,768
829,93	39,042
830,10	43,260
830,27	37,034
830,44	43,002
830,61	42,735
830,78	52,298
830,95	38,069
831,12	41,441
831,29	44,500
831,46	41,450
831,63	41,777
831,80	42,439
831,97	38,091
832,14	48,159
832,31	56,835
832,48	43,876
832,65	39,257
832,83	44,700
833,00	44,934
833,17	43,695
833,34	45,928
833,51	47,988
833,68	49,016
833,85	47,133
834,02	44,895
834,19	46,490
834,36	49,463
834,53	30,183
834,70	40,627
834,87	53,843
835,04	44,308
835,21	47,465
835,38	44,970
835,55	45,378
835,72	52,597
835,89	46,249
836,06	51,635
836,23	55,869
836,40	44,356
836,57	39,331
836,74	44,333
836,91	46,836
837,08	47,281
837,25	42,761
837,42	37,187
837,59	45,049
837,76	44,168
837,93	43,711
838,09	41,340
838,26	48,791
838,43	50,769
838,60	44,837
838,77	40,444
838,94	52,151
839,11	46,429
839,28	36,137
839,45	42,417
839,62	48,224
839,79	42,720
839,96	46,867
840,13	43,384
840,30	47,489
840,47	39,954
840,64	43,608
840,81	42,621
840,98	44,956
841,15	44,581
841,32	45,900
841,48	47,537
841,65	52,213
841,82	45,662
841,99	46,802
842,16	41,545
842,33	54,626
842,50	41,230
842,67	47,791
842,84	44,337
843,01	54,665
843,18	46,143
843,35	44,636
843,52	46,942
843,68	49,144
843,85	43,944
844,02	46,844
844,19	38,284
844,36	52,599
844,53	63,579
844,70	42,659
844,87	54,495
845,04	55,833
845,21	42,170
845,37	49,840
845,54	42,178
845,71	41,596
845,88	53,808
846,05	42,265
846,22	38,843
846,39	47,416
846,56	56,349
846,72	31,933
846,89	47,947
847,06	57,467
847,23	59,609
847,40	38,203
847,57	39,016
847,74	54,846
847,90	62,255
848,07	47,639
848,24	42,270
848,41	50,271
848,58	55,079
848,75	40,439
848,92	45,433
849,08	53,946
849,25	54,334
849,42	41,491
849,59	51,323
849,76	43,996
849,93	42,735
850,09	55,205
850,26	44,424
850,43	57,121
850,60	46,021
850,77	37,707
850,94	49,799
851,10	58,433
851,27	57,379
851,44	44,985
851,61	47,068
851,78	49,286
851,95	57,696
852,11	40,989
852,28	50,232
852,45	46,195
852,62	45,081
852,79	54,370
852,95	51,866
853,12	56,485
853,29	48,109
853,46	51,982
853,63	53,121
853,79	42,832
853,96	44,395
854,13	60,579
854,30	45,460
854,46	57,830
854,63	50,406
854,80	49,640
854,97	49,423
855,14	64,409
855,30	52,887
855,47	52,518
855,64	53,657
855,81	39,235
855,97	56,362
856,14	51,139
856,31	41,251
856,48	61,690
856,65	62,698
856,81	50,690
856,98	40,615
857,15	44,971
857,32	55,623
857,48	45,081
857,65	59,049
857,82	53,505
857,99	56,245
858,15	55,694
858,32	51,731
858,49	52,068
858,65	54,990
858,82	53,599
858,99	53,977
859,16	57,933
859,32	64,322
859,49	43,033
859,66	48,143
859,83	56,103
859,99	49,976
860,16	49,649
860,33	50,316
860,49	41,098
860,66	53,695
860,83	54,638
861,00	50,949
861,16	71,492
861,33	52,494
861,50	33,073
861,66	60,900
861,83	68,950
862,00	54,745
862,16	61,371
862,33	50,051
862,50	78,329
862,67	54,623
862,83	43,282
863,00	58,236
863,17	90,565
863,33	47,770
863,50	38,279
863,67	45,903
863,83	55,394
864,00	61,410
864,17	58,812
864,33	44,100
864,50	66,778
864,67	62,959
864,83	51,138
865,00	38,909
865,17	41,920
865,33	76,702
865,50	34,375
865,67	43,186
865,83	51,038
866,00	89,346
866,17	65,107
866,33	59,505
866,50	77,377
866,66	74,887
866,83	67,273
867,00	60,975
867,16	67,235
867,33	60,186
867,50	25,639
867,66	51,540
867,83	68,006
868,00	51,130
868,16	51,554
868,33	40,277
868,49	76,590
868,66	68,709
868,83	64,760
868,99	63,633
869,16	72,076
869,32	52,160
869,49	54,339
869,66	50,088
869,82	66,669
869,99	82,570
870,15	43,346
870,32	64,977
870,49	76,328
870,65	111,468
870,82	63,672
870,98	57,119
871,15	100,356
871,32	61,979
871,48	16,411
871,65	35,360
871,81	47,052
871,98	48,401
872,15	18,186
872,31	49,775
872,48	91,858
872,64	70,171
872,81	51,825
872,97	47,951
873,14	78,902
873,31	62,887
873,47	47,267
873,64	31,804
873,80	43,964
873,97	96,233
874,13	23,955
874,30	56,740
874,46	68,467
874,63	60,580
874,80	54,512
874,96	20,370
875,13	103,073
875,29	35,976
875,46	87,768
875,62	55,481
875,79	61,483
875,95	74,325
876,12	68,230
876,28	55,049
876,45	90,289
876,61	56,347
876,78	49,069
876,94	50,458
877,11	51,424
877,27	88,339
877,44	78,942
877,60	45,805
877,77	71,142
877,94	95,972
878,10	46,101
878,27	64,558
878,43	128,158
878,60	35,744
878,76	49,285
878,93	51,890
879,09	70,284
879,26	129,413
879,42	62,040
879,58	57,779
879,75	124,871
879,91	84,697
880,08	-40,520
880,24	72,860
880,41	63,127
880,57	74,245
880,74	41,725
880,90	102,077
881,07	74,440
881,23	44,682
881,40	33,122
881,56	88,781
881,73	110,388
881,89	75,448
882,06	8,681
882,22	146,601
882,38	148,395
882,55	138,698
882,71	38,970
882,88	62,132
883,04	93,309
883,21	177,877
883,37	58,200
883,54	48,989
883,70	158,512
883,86	86,854
884,03	68,940
884,19	28,577
884,36	-15,644
884,52	219,751
884,69	164,303
884,85	51,665
885,01	92,877
885,18	91,127
885,34	81,571
885,51	-0,342
885,67	72,954
>>>>> Data<<<<< Espectral Procesado Extremo
