Fichero De Datos De SpectraSuite
++++++++++++++++++++++++++++++++++++
Fecha: Wed Apr 22 11:12:03 CEST 2009
Usuario: evoflor
Presente Oscuro Del Espectro: Sí
La Referencia de Presente Del Espectro De: Sí
Muestreados de los componentes de Número de espectros: 1
Espectrómetros: USB4F02353
Tiempo de integración (usec): 500000 (USB4F02353)
Promedio de Espectros Hechos un: 5 (USB4F02353)
El Alisar Del Furgón: 0 (USB4F02353)
Párrafo de de Corregir del la del del de Eléctrica del obscuridad: Sí (USB4F02353)
Estrobo/Lámpara Permitido: No (USB4F02353)
Correct for Detector Non-linearity: No (USB4F02353)
Párrafo de de Corregir del la del del de Externa del luz: No (USB4F02353)
Procesado del espectro de Número de pixeles en: 3648
>>>>> Comienza Data<<<<< Espectral Procesado Del EL
177,79	165,392
178,00	165,392
178,22	165,392
178,44	1165,110
178,66	-95,027
178,88	360,016
179,09	-310,957
179,31	192,826
179,53	457,508
179,75	355,648
179,96	575,647
180,18	-122,385
180,40	355,971
180,62	480,305
180,83	-255,888
181,05	-1341,159
181,27	-19975,000
181,49	-47,337
181,70	461,058
181,92	489,721
182,14	385,467
182,36	125,287
182,58	322,250
182,79	551,228
183,01	40,899
183,23	139,132
183,45	-144,538
183,66	86,836
183,88	212,794
184,10	-2817,727
184,32	205,384
184,53	157,623
184,75	-124,284
184,97	70,182
185,18	-98,449
185,40	-429,207
185,62	100,281
185,84	141,867
186,05	133,347
186,27	-10,203
186,49	1322,115
186,71	48,927
186,92	107,950
187,14	-83,249
187,36	82,767
187,58	159,973
187,79	2,470
188,01	149,111
188,23	-141,122
188,45	-14,751
188,66	370,424
188,88	-1934,091
189,10	-1153,750
189,31	39,633
189,53	-12,819
189,75	219,261
189,97	426,442
190,18	-115,129
190,40	509,265
190,62	-91,121
190,83	-107,150
191,05	170,548
191,27	-68,929
191,49	606,374
191,70	-96,034
191,92	-741,314
192,14	-102,464
192,35	365,716
192,57	1599,286
192,79	-82,495
193,01	91,440
193,22	87,869
193,44	24,275
193,66	114,685
193,87	13,865
194,09	-35,446
194,31	101,391
194,53	1102,622
194,74	106,250
194,96	69,277
195,18	163,881
195,39	-145,317
195,61	-16,674
195,83	-55,163
196,04	90,596
196,26	-150,126
196,48	33,448
196,70	211,481
196,91	83,538
197,13	64,241
197,35	-55,860
197,56	869,892
197,78	1586,381
198,00	265,559
198,21	367,840
198,43	-827,762
198,65	62,838
198,86	152,788
199,08	142,213
199,30	235,374
199,51	-100,244
199,73	219,793
199,95	192,017
200,16	388,365
200,38	219,511
200,60	212,090
200,81	85,171
201,03	22,486
201,25	-874,750
201,46	140,659
201,68	111,287
201,90	2601,705
202,11	-151,813
202,33	95,646
202,55	-819,062
202,76	-69,193
202,98	113,502
203,20	90,024
203,41	-375,132
203,63	115,848
203,85	-154075,000
204,06	48,434
204,28	-91,506
204,50	46,707
204,71	276,988
204,93	-13,000
205,15	-10,316
205,36	-139,723
205,58	190,355
205,80	-103,354
206,01	72,729
206,23	153,892
206,45	145,134
206,66	126,174
206,88	14,832
207,10	247,898
207,31	297,053
207,53	147,071
207,75	12,051
207,96	397,575
208,18	-146,203
208,39	116,829
208,61	2653,571
208,83	-183,809
209,04	195,021
209,26	102,880
209,48	150,646
209,69	93,185
209,91	566,132
210,13	74,852
210,34	-78,027
210,56	103,315
210,77	-1085,630
210,99	104,742
211,21	7475,000
211,42	-88,285
211,64	-0,711
211,86	81,301
212,07	257,767
212,29	161,466
212,50	120,922
212,72	246,442
212,94	52,955
213,15	188,847
213,37	193,182
213,58	-30,322
213,80	-263,393
214,02	10598,529
214,23	128,422
214,45	168,770
214,67	447,866
214,88	-9,648
215,10	-247,491
215,31	16,103
215,53	49,489
215,75	178,739
215,96	1476,863
216,18	129,225
216,39	185,501
216,61	308,897
216,83	73,103
217,04	2064,888
217,26	64,153
217,47	134,060
217,69	224,444
217,91	-2,771
218,12	-42475,000
218,34	69,352
218,55	322,745
218,77	74,090
218,99	84,043
219,20	-145,822
219,42	217,035
219,63	49,520
219,85	-82,628
220,06	42,212
220,28	87,535
220,50	67,351
220,71	69,843
220,93	2176,887
221,14	-1135,750
221,36	-7,218
221,58	178,045
221,79	-75,847
222,01	1592,026
222,22	439,309
222,44	-351,966
222,65	47,813
222,87	454,371
223,09	108,892
223,30	38,467
223,52	54,610
223,73	79,613
223,95	38,275
224,16	83,866
224,38	175,296
224,60	68,021
224,81	50,522
225,03	31,911
225,24	10,798
225,46	79,527
225,67	19,032
225,89	2,585
226,10	502,033
226,32	145,400
226,54	-63,880
226,75	60,063
226,97	74,062
227,18	106,379
227,40	54,659
227,61	34,936
227,83	23,249
228,04	75,581
228,26	83,301
228,47	21,865
228,69	134,069
228,91	89,548
229,12	70,499
229,34	24,153
229,55	61,342
229,77	11,529
229,98	13,208
230,20	38,642
230,41	28,111
230,63	70,143
230,84	12,248
231,06	12,935
231,27	40,897
231,49	27,676
231,71	30,957
231,92	16,076
232,14	-2,689
232,35	44,752
232,57	55,106
232,78	27,231
233,00	24,629
233,21	30,769
233,43	17,252
233,64	32,227
233,86	32,956
234,07	39,631
234,29	27,055
234,50	13,133
234,72	20,698
234,93	-12,694
235,15	25,584
235,36	21,063
235,58	22,548
235,79	31,223
236,01	22,846
236,22	10,576
236,44	33,599
236,65	2,819
236,87	23,694
237,08	3,028
237,30	-13,065
237,51	11,957
237,73	7,815
237,94	4,833
238,16	18,042
238,37	-2,717
238,59	11,318
238,80	9,975
239,02	3,340
239,23	23,384
239,45	-6,571
239,66	22,941
239,88	16,781
240,09	9,368
240,31	5,358
240,52	4,904
240,74	5,535
240,95	0,020
241,17	-3,036
241,38	9,181
241,60	7,704
241,81	24,012
242,03	10,028
242,24	15,959
242,46	17,116
242,67	7,159
242,89	7,060
243,10	18,158
243,32	13,491
243,53	5,533
243,75	5,011
243,96	4,398
244,18	10,641
244,39	8,672
244,60	6,597
244,82	1,175
245,03	20,892
245,25	7,657
245,46	23,424
245,68	-0,874
245,89	15,611
246,11	8,543
246,32	9,490
246,54	4,532
246,75	9,177
246,97	6,503
247,18	12,172
247,39	3,487
247,61	6,111
247,82	1,812
248,04	4,752
248,25	8,298
248,47	6,751
248,68	5,653
248,90	-0,286
249,11	7,033
249,33	14,895
249,54	6,708
249,75	8,726
249,97	3,940
250,18	7,878
250,40	13,287
250,61	-4,786
250,83	0,565
251,04	1,337
251,25	5,191
251,47	1,418
251,68	8,239
251,90	7,668
252,11	9,493
252,33	5,067
252,54	2,864
252,76	3,327
252,97	2,247
253,18	2,342
253,40	3,132
253,61	0,294
253,83	9,801
254,04	8,772
254,25	3,582
254,47	0,692
254,68	4,157
254,90	6,090
255,11	9,881
255,33	3,571
255,54	2,543
255,75	2,738
255,97	5,146
256,18	1,550
256,40	3,323
256,61	5,717
256,82	-0,541
257,04	9,424
257,25	4,331
257,47	4,658
257,68	2,279
257,89	5,610
258,11	8,379
258,32	3,018
258,54	6,209
258,75	8,812
258,96	10,543
259,18	5,089
259,39	1,727
259,61	8,986
259,82	4,345
260,03	7,380
260,25	5,876
260,46	5,004
260,68	3,720
260,89	3,248
261,10	8,510
261,32	5,290
261,53	6,175
261,75	3,284
261,96	-0,782
262,17	7,891
262,39	11,088
262,60	4,809
262,81	-0,989
263,03	8,690
263,24	10,375
263,46	0,090
263,67	3,145
263,88	7,691
264,10	10,057
264,31	4,903
264,52	7,237
264,74	5,430
264,95	4,143
265,17	5,776
265,38	3,626
265,59	6,028
265,81	7,036
266,02	2,915
266,23	-1,258
266,45	9,449
266,66	9,007
266,87	7,325
267,09	2,832
267,30	3,512
267,52	6,741
267,73	4,166
267,94	5,955
268,16	7,731
268,37	2,132
268,58	6,315
268,80	1,675
269,01	1,882
269,22	4,872
269,44	9,317
269,65	4,682
269,86	4,380
270,08	6,336
270,29	-0,674
270,50	5,303
270,72	6,711
270,93	5,906
271,14	1,432
271,36	5,583
271,57	5,437
271,78	6,420
272,00	6,355
272,21	7,714
272,42	6,652
272,64	7,928
272,85	4,260
273,06	5,225
273,28	9,025
273,49	5,748
273,70	5,342
273,92	5,420
274,13	8,015
274,34	6,735
274,56	4,866
274,77	4,706
274,98	6,196
275,20	6,103
275,41	8,432
275,62	7,828
275,84	5,937
276,05	9,057
276,26	3,357
276,47	2,164
276,69	8,758
276,90	4,569
277,11	4,216
277,33	3,163
277,54	10,519
277,75	7,530
277,97	3,369
278,18	6,910
278,39	8,510
278,61	3,499
278,82	8,156
279,03	4,626
279,24	5,482
279,46	4,827
279,67	8,274
279,88	4,246
280,10	9,158
280,31	0,136
280,52	5,980
280,73	3,863
280,95	5,536
281,16	6,328
281,37	6,456
281,59	6,147
281,80	12,588
282,01	3,188
282,22	4,274
282,44	2,886
282,65	11,434
282,86	7,865
283,08	6,334
283,29	5,650
283,50	5,650
283,71	5,905
283,93	5,471
284,14	7,662
284,35	5,080
284,56	5,512
284,78	2,269
284,99	3,687
285,20	5,727
285,42	5,992
285,63	2,671
285,84	2,498
286,05	3,718
286,27	5,356
286,48	1,701
286,69	1,467
286,90	3,202
287,12	5,338
287,33	4,873
287,54	4,430
287,75	8,093
287,97	5,980
288,18	5,824
288,39	4,492
288,60	4,815
288,82	3,642
289,03	3,669
289,24	6,655
289,45	7,584
289,67	8,117
289,88	4,124
290,09	6,638
290,30	5,233
290,52	3,120
290,73	4,581
290,94	3,440
291,15	5,123
291,37	7,917
291,58	5,120
291,79	6,144
292,00	4,295
292,21	6,632
292,43	5,004
292,64	4,101
292,85	4,371
293,06	7,755
293,28	4,054
293,49	2,064
293,70	4,851
293,91	3,339
294,12	6,410
294,34	3,244
294,55	3,535
294,76	5,507
294,97	5,547
295,19	1,938
295,40	5,180
295,61	5,831
295,82	1,268
296,03	5,515
296,25	2,557
296,46	3,891
296,67	3,406
296,88	2,308
297,09	7,204
297,31	3,053
297,52	3,640
297,73	3,711
297,94	6,482
298,15	5,199
298,37	5,198
298,58	4,737
298,79	6,566
299,00	4,568
299,21	5,024
299,43	2,363
299,64	8,462
299,85	7,916
300,06	3,967
300,27	4,142
300,49	7,836
300,70	6,166
300,91	5,054
301,12	3,957
301,33	5,524
301,54	4,845
301,76	6,522
301,97	4,872
302,18	2,642
302,39	6,862
302,60	6,563
302,82	5,113
303,03	5,931
303,24	3,481
303,45	4,909
303,66	5,592
303,87	3,512
304,09	9,787
304,30	4,160
304,51	4,735
304,72	4,258
304,93	6,647
305,14	4,938
305,36	1,859
305,57	3,815
305,78	4,474
305,99	4,893
306,20	3,468
306,41	4,179
306,62	3,338
306,84	3,354
307,05	0,837
307,26	4,598
307,47	8,647
307,68	3,673
307,89	2,960
308,11	6,152
308,32	5,699
308,53	5,903
308,74	2,221
308,95	5,194
309,16	7,015
309,37	7,839
309,59	3,328
309,80	5,745
310,01	6,951
310,22	6,988
310,43	3,186
310,64	5,662
310,85	6,526
311,06	3,788
311,28	5,048
311,49	5,887
311,70	8,322
311,91	3,804
312,12	3,227
312,33	7,103
312,54	7,402
312,75	3,481
312,97	3,468
313,18	7,921
313,39	4,922
313,60	4,874
313,81	4,198
314,02	6,749
314,23	4,779
314,44	5,306
314,65	5,444
314,87	4,343
315,08	4,761
315,29	6,736
315,50	3,367
315,71	8,376
315,92	7,063
316,13	6,300
316,34	3,506
316,55	4,966
316,77	0,282
316,98	3,236
317,19	3,606
317,40	7,812
317,61	8,861
317,82	2,449
318,03	2,198
318,24	6,293
318,45	8,720
318,66	5,157
318,87	1,202
319,09	7,346
319,30	3,949
319,51	7,476
319,72	5,676
319,93	7,287
320,14	4,130
320,35	6,311
320,56	2,910
320,77	0,330
320,98	7,917
321,19	7,854
321,40	4,378
321,62	5,708
321,83	5,797
322,04	3,598
322,25	3,388
322,46	6,232
322,67	5,281
322,88	5,580
323,09	4,385
323,30	6,434
323,51	5,432
323,72	8,399
323,93	5,335
324,14	3,263
324,35	1,997
324,56	2,002
324,77	2,354
324,99	1,940
325,20	0,106
325,41	6,222
325,62	6,780
325,83	2,227
326,04	3,072
326,25	7,614
326,46	3,647
326,67	4,787
326,88	5,737
327,09	4,053
327,30	3,211
327,51	3,935
327,72	6,497
327,93	7,746
328,14	1,266
328,35	5,926
328,56	3,957
328,77	6,163
328,98	5,732
329,19	5,322
329,40	5,955
329,61	5,803
329,82	1,735
330,04	2,984
330,25	3,238
330,46	4,728
330,67	4,352
330,88	6,136
331,09	3,235
331,30	5,602
331,51	6,543
331,72	4,161
331,93	6,522
332,14	6,845
332,35	4,049
332,56	3,439
332,77	8,919
332,98	4,838
333,19	4,263
333,40	6,325
333,61	4,373
333,82	6,911
334,03	5,690
334,24	8,408
334,45	4,858
334,66	8,287
334,87	3,770
335,08	4,059
335,29	1,569
335,50	2,683
335,71	3,991
335,92	6,116
336,13	5,635
336,34	3,334
336,55	6,845
336,76	8,522
336,97	3,052
337,18	3,037
337,39	2,591
337,60	8,429
337,81	5,739
338,02	4,770
338,23	4,201
338,44	7,962
338,65	6,379
338,86	4,589
339,07	4,557
339,28	8,832
339,49	6,492
339,70	4,007
339,91	6,626
340,11	8,708
340,32	2,122
340,53	3,033
340,74	3,829
340,95	3,339
341,16	6,555
341,37	5,629
341,58	2,773
341,79	3,988
342,00	4,783
342,21	2,628
342,42	3,652
342,63	6,273
342,84	2,015
343,05	3,124
343,26	7,396
343,47	2,236
343,68	1,162
343,89	2,966
344,10	6,307
344,31	6,654
344,52	4,490
344,73	5,299
344,94	4,943
345,14	5,547
345,35	8,139
345,56	3,376
345,77	3,737
345,98	6,617
346,19	2,626
346,40	5,019
346,61	2,430
346,82	4,990
347,03	4,735
347,24	5,586
347,45	3,590
347,66	9,272
347,87	2,824
348,08	5,412
348,28	3,741
348,49	4,558
348,70	7,468
348,91	4,698
349,12	0,690
349,33	20,350
349,54	3,263
349,75	4,300
349,96	6,259
350,17	4,951
350,38	2,695
350,59	7,798
350,80	2,977
351,00	6,025
351,21	8,956
351,42	5,659
351,63	3,977
351,84	4,578
352,05	5,290
352,26	3,088
352,47	4,590
352,68	3,053
352,89	6,698
353,09	5,974
353,30	2,353
353,51	4,050
353,72	4,071
353,93	9,912
354,14	0,622
354,35	1,839
354,56	5,871
354,77	6,025
354,98	0,993
355,18	4,561
355,39	9,470
355,60	4,307
355,81	7,398
356,02	5,481
356,23	4,786
356,44	2,765
356,65	4,791
356,85	11,673
357,06	8,910
357,27	7,768
357,48	4,594
357,69	5,311
357,90	5,922
358,11	2,792
358,32	3,109
358,52	7,696
358,73	4,319
358,94	3,597
359,15	4,368
359,36	6,447
359,57	4,830
359,78	6,945
359,98	5,710
360,19	0,970
360,40	5,470
360,61	7,163
360,82	5,912
361,03	8,608
361,24	3,940
361,44	2,880
361,65	5,607
361,86	5,840
362,07	4,556
362,28	3,400
362,49	1,740
362,70	5,752
362,90	9,032
363,11	4,574
363,32	4,475
363,53	4,874
363,74	6,790
363,95	8,174
364,15	5,398
364,36	7,019
364,57	5,479
364,78	3,186
364,99	5,631
365,20	5,636
365,40	7,774
365,61	1,481
365,82	5,377
366,03	4,785
366,24	7,207
366,45	4,851
366,65	6,065
366,86	6,768
367,07	4,612
367,28	4,306
367,49	3,777
367,69	7,304
367,90	4,864
368,11	3,329
368,32	3,877
368,53	7,965
368,73	7,746
368,94	2,736
369,15	7,171
369,36	8,300
369,57	5,831
369,78	3,222
369,98	6,817
370,19	11,111
370,40	3,929
370,61	5,973
370,82	6,602
371,02	7,371
371,23	11,098
371,44	4,994
371,65	4,845
371,85	7,558
372,06	7,819
372,27	3,701
372,48	7,434
372,69	4,823
372,89	1,668
373,10	7,198
373,31	3,404
373,52	6,316
373,73	6,572
373,93	5,229
374,14	5,080
374,35	8,156
374,56	6,182
374,76	8,562
374,97	4,388
375,18	4,092
375,39	5,761
375,60	7,453
375,80	6,909
376,01	6,876
376,22	5,825
376,43	4,415
376,63	7,853
376,84	4,945
377,05	7,917
377,26	3,460
377,46	2,148
377,67	7,383
377,88	7,705
378,09	5,129
378,29	2,218
378,50	7,450
378,71	7,346
378,92	2,631
379,12	2,685
379,33	4,368
379,54	4,085
379,75	6,499
379,95	3,579
380,16	9,314
380,37	6,577
380,58	6,219
380,78	5,487
380,99	6,449
381,20	6,836
381,41	6,016
381,61	8,684
381,82	5,141
382,03	3,831
382,24	3,499
382,44	1,938
382,65	3,528
382,86	7,531
383,06	4,780
383,27	4,929
383,48	2,338
383,69	8,698
383,89	8,147
384,10	6,127
384,31	4,546
384,51	6,924
384,72	7,020
384,93	4,841
385,14	6,989
385,34	10,915
385,55	3,607
385,76	1,442
385,96	7,533
386,17	5,386
386,38	5,660
386,59	8,278
386,79	3,057
387,00	10,323
387,21	12,924
387,41	6,248
387,62	3,861
387,83	10,947
388,03	5,987
388,24	0,773
388,45	5,458
388,66	7,438
388,86	5,242
389,07	6,030
389,28	11,073
389,48	8,113
389,69	7,098
389,90	6,300
390,10	9,905
390,31	10,793
390,52	5,118
390,72	5,651
390,93	10,216
391,14	10,098
391,34	7,598
391,55	12,092
391,76	10,728
391,96	8,869
392,17	6,816
392,38	9,962
392,58	9,317
392,79	8,893
393,00	5,481
393,20	5,984
393,41	5,336
393,62	6,099
393,82	9,200
394,03	8,351
394,24	8,048
394,44	10,308
394,65	10,855
394,86	7,612
395,06	12,645
395,27	7,919
395,48	7,663
395,68	11,896
395,89	8,552
396,10	9,431
396,30	7,005
396,51	5,454
396,72	16,472
396,92	6,991
397,13	10,916
397,34	6,836
397,54	11,847
397,75	8,858
397,95	9,101
398,16	10,023
398,37	10,661
398,57	9,273
398,78	12,578
398,99	14,024
399,19	13,052
399,40	14,821
399,60	11,744
399,81	14,038
400,02	12,541
400,22	15,029
400,43	13,885
400,64	13,389
400,84	12,892
401,05	14,490
401,25	12,084
401,46	14,215
401,67	12,532
401,87	16,403
402,08	7,923
402,29	11,587
402,49	14,524
402,70	14,684
402,90	12,793
403,11	12,749
403,32	12,632
403,52	14,855
403,73	14,213
403,93	19,955
404,14	18,448
404,35	17,207
404,55	10,980
404,76	15,257
404,96	19,832
405,17	20,191
405,38	20,842
405,58	14,358
405,79	18,977
405,99	21,422
406,20	18,413
406,40	15,989
406,61	19,475
406,82	17,183
407,02	18,428
407,23	18,288
407,43	16,036
407,64	16,867
407,85	18,839
408,05	15,743
408,26	26,732
408,46	23,340
408,67	17,174
408,87	19,466
409,08	21,177
409,29	20,476
409,49	23,058
409,70	20,380
409,90	19,478
410,11	20,342
410,31	21,676
410,52	22,052
410,72	20,472
410,93	23,042
411,14	22,967
411,34	19,836
411,55	24,744
411,75	24,311
411,96	22,456
412,16	22,865
412,37	22,273
412,57	26,580
412,78	27,111
412,99	21,606
413,19	25,259
413,40	21,878
413,60	19,872
413,81	21,501
414,01	24,761
414,22	24,452
414,42	23,293
414,63	24,282
414,83	28,098
415,04	26,374
415,24	26,884
415,45	22,344
415,65	27,191
415,86	22,638
416,07	23,506
416,27	27,202
416,48	29,347
416,68	29,607
416,89	22,589
417,09	24,851
417,30	29,804
417,50	30,591
417,71	29,169
417,91	27,261
418,12	21,309
418,32	24,745
418,53	23,945
418,73	26,259
418,94	25,244
419,14	25,598
419,35	24,809
419,55	25,276
419,76	26,417
419,96	26,498
420,17	25,888
420,37	26,984
420,58	28,651
420,78	27,764
420,99	26,764
421,19	26,201
421,40	29,779
421,60	33,282
421,81	26,459
422,01	28,248
422,22	28,037
422,42	32,357
422,63	27,883
422,83	29,924
423,04	31,836
423,24	29,624
423,45	27,907
423,65	29,363
423,86	34,212
424,06	31,210
424,27	28,084
424,47	28,047
424,67	28,483
424,88	28,134
425,08	27,046
425,29	31,196
425,49	30,878
425,70	30,113
425,90	32,578
426,11	29,637
426,31	28,188
426,52	29,525
426,72	30,348
426,93	29,099
427,13	31,935
427,33	27,661
427,54	30,963
427,74	32,426
427,95	32,580
428,15	29,533
428,36	31,302
428,56	30,375
428,77	32,181
428,97	28,632
429,18	32,926
429,38	27,723
429,58	34,290
429,79	34,911
429,99	28,767
430,20	24,697
430,40	34,873
430,61	27,334
430,81	29,693
431,01	31,668
431,22	32,871
431,42	32,516
431,63	28,482
431,83	27,809
432,04	29,690
432,24	31,539
432,44	30,902
432,65	29,248
432,85	29,197
433,06	31,989
433,26	31,586
433,47	29,278
433,67	31,398
433,87	27,702
434,08	28,223
434,28	29,094
434,49	28,025
434,69	30,131
434,89	29,453
435,10	30,639
435,30	32,941
435,51	27,505
435,71	30,692
435,91	29,091
436,12	31,737
436,32	30,485
436,53	28,267
436,73	28,823
436,93	30,458
437,14	26,861
437,34	29,703
437,55	30,035
437,75	31,856
437,95	33,524
438,16	33,342
438,36	31,939
438,57	25,591
438,77	30,315
438,97	34,540
439,18	32,521
439,38	28,453
439,58	27,221
439,79	29,749
439,99	33,010
440,20	31,682
440,40	32,966
440,60	30,725
440,81	31,908
441,01	32,439
441,21	33,972
441,42	30,272
441,62	34,205
441,83	30,315
442,03	31,338
442,23	32,416
442,44	30,074
442,64	31,947
442,84	27,011
443,05	29,930
443,25	28,702
443,45	33,982
443,66	34,098
443,86	25,904
444,06	34,414
444,27	29,973
444,47	30,935
444,67	32,258
444,88	36,474
445,08	31,692
445,28	33,213
445,49	29,429
445,69	28,629
445,90	31,765
446,10	31,679
446,30	33,330
446,51	31,990
446,71	35,238
446,91	37,249
447,12	37,371
447,32	31,479
447,52	33,342
447,72	33,663
447,93	34,539
448,13	31,695
448,33	38,569
448,54	36,038
448,74	27,591
448,94	31,193
449,15	37,378
449,35	25,824
449,55	30,479
449,76	35,231
449,96	31,745
450,16	34,170
450,37	29,831
450,57	31,978
450,77	29,330
450,98	35,366
451,18	33,843
451,38	32,199
451,58	33,141
451,79	34,052
451,99	29,770
452,19	31,778
452,40	34,172
452,60	27,966
452,80	31,839
453,00	31,738
453,21	33,330
453,41	36,195
453,61	30,922
453,82	34,859
454,02	33,343
454,22	32,034
454,42	34,460
454,63	31,610
454,83	30,858
455,03	34,152
455,24	31,735
455,44	31,989
455,64	30,772
455,84	31,894
456,05	30,172
456,25	30,948
456,45	30,096
456,65	28,223
456,86	32,916
457,06	32,689
457,26	32,746
457,47	35,250
457,67	29,540
457,87	28,750
458,07	29,224
458,28	35,664
458,48	32,771
458,68	31,058
458,88	34,509
459,09	33,481
459,29	34,313
459,49	29,687
459,69	34,325
459,90	35,294
460,10	29,098
460,30	33,763
460,50	33,799
460,71	31,394
460,91	35,865
461,11	32,014
461,31	28,790
461,52	33,713
461,72	29,407
461,92	31,481
462,12	37,724
462,32	28,863
462,53	34,127
462,73	31,544
462,93	33,872
463,13	30,637
463,34	30,522
463,54	28,469
463,74	31,833
463,94	31,002
464,14	30,634
464,35	28,574
464,55	33,064
464,75	35,628
464,95	32,069
465,16	29,158
465,36	31,332
465,56	32,104
465,76	30,152
465,96	33,266
466,17	31,628
466,37	28,105
466,57	35,188
466,77	31,085
466,97	31,717
467,18	31,927
467,38	33,840
467,58	32,546
467,78	30,418
467,98	33,381
468,19	33,761
468,39	32,761
468,59	35,490
468,79	33,025
468,99	27,845
469,19	30,591
469,40	35,749
469,60	24,199
469,80	30,292
470,00	35,138
470,20	35,232
470,41	33,635
470,61	32,519
470,81	28,357
471,01	28,417
471,21	31,542
471,41	25,409
471,62	28,343
471,82	28,704
472,02	31,240
472,22	33,131
472,42	29,706
472,62	28,801
472,83	28,086
473,03	35,260
473,23	29,532
473,43	34,062
473,63	31,626
473,83	31,703
474,03	28,802
474,24	37,206
474,44	26,632
474,64	33,254
474,84	27,626
475,04	32,864
475,24	31,355
475,45	31,616
475,65	26,721
475,85	31,468
476,05	28,877
476,25	31,415
476,45	26,465
476,65	34,996
476,85	29,933
477,06	29,596
477,26	27,739
477,46	30,577
477,66	29,832
477,86	32,723
478,06	25,426
478,26	32,498
478,46	31,192
478,67	32,461
478,87	26,917
479,07	29,033
479,27	32,911
479,47	28,436
479,67	28,438
479,87	28,124
480,07	32,768
480,28	28,649
480,48	25,901
480,68	29,990
480,88	34,800
481,08	26,927
481,28	30,332
481,48	27,861
481,68	27,664
481,88	27,577
482,08	27,429
482,29	29,675
482,49	26,976
482,69	30,525
482,89	26,443
483,09	31,434
483,29	30,122
483,49	26,429
483,69	27,657
483,89	28,666
484,09	27,854
484,29	24,965
484,50	27,642
484,70	30,180
484,90	30,376
485,10	27,583
485,30	30,197
485,50	31,581
485,70	31,575
485,90	28,034
486,10	25,528
486,30	27,350
486,50	30,102
486,70	25,935
486,90	26,418
487,10	29,107
487,30	29,105
487,51	27,546
487,71	26,116
487,91	26,010
488,11	28,443
488,31	25,192
488,51	28,656
488,71	24,487
488,91	28,954
489,11	26,434
489,31	26,850
489,51	24,857
489,71	26,149
489,91	26,991
490,11	25,552
490,31	27,058
490,51	28,091
490,71	26,217
490,91	26,795
491,11	26,772
491,31	28,563
491,51	25,790
491,72	26,500
491,92	26,848
492,12	28,914
492,32	25,806
492,52	29,863
492,72	28,510
492,92	28,058
493,12	28,193
493,32	25,923
493,52	24,442
493,72	24,285
493,92	29,945
494,12	28,029
494,32	28,421
494,52	26,525
494,72	27,719
494,92	27,634
495,12	28,097
495,32	28,178
495,52	24,300
495,72	29,177
495,92	30,600
496,12	29,277
496,32	22,873
496,52	27,181
496,72	28,397
496,92	28,240
497,12	26,168
497,32	30,155
497,52	28,229
497,72	30,024
497,92	28,678
498,12	26,347
498,32	25,950
498,52	24,993
498,72	27,798
498,92	24,602
499,12	27,175
499,32	26,940
499,52	29,056
499,72	27,076
499,92	27,887
500,12	29,403
500,32	27,284
500,52	27,209
500,72	31,788
500,91	29,746
501,11	25,700
501,31	24,203
501,51	27,742
501,71	27,340
501,91	30,160
502,11	26,376
502,31	25,611
502,51	29,911
502,71	24,712
502,91	25,923
503,11	27,183
503,31	25,312
503,51	25,636
503,71	22,898
503,91	29,513
504,11	25,546
504,31	26,887
504,51	26,629
504,71	28,027
504,91	26,474
505,10	25,266
505,30	25,792
505,50	27,265
505,70	25,422
505,90	26,319
506,10	23,659
506,30	27,823
506,50	25,712
506,70	30,762
506,90	26,850
507,10	24,653
507,30	26,042
507,50	26,465
507,70	27,747
507,89	24,110
508,09	25,138
508,29	26,772
508,49	27,030
508,69	24,958
508,89	24,125
509,09	24,987
509,29	22,884
509,49	27,087
509,69	28,118
509,89	25,758
510,09	23,357
510,28	24,517
510,48	22,222
510,68	22,915
510,88	25,857
511,08	23,036
511,28	22,346
511,48	24,771
511,68	23,278
511,88	21,190
512,07	25,718
512,27	25,330
512,47	25,322
512,67	23,535
512,87	21,593
513,07	25,690
513,27	22,198
513,47	22,247
513,67	22,656
513,86	24,811
514,06	25,387
514,26	22,891
514,46	24,885
514,66	22,086
514,86	21,991
515,06	27,741
515,26	22,853
515,45	23,256
515,65	21,365
515,85	25,531
516,05	19,667
516,25	22,389
516,45	22,597
516,65	24,420
516,84	23,538
517,04	24,768
517,24	20,579
517,44	22,636
517,64	25,482
517,84	23,411
518,04	24,150
518,23	26,194
518,43	24,747
518,63	20,328
518,83	22,178
519,03	22,676
519,23	20,721
519,42	21,506
519,62	20,420
519,82	23,320
520,02	22,598
520,22	17,461
520,42	20,929
520,61	21,418
520,81	26,156
521,01	22,937
521,21	19,615
521,41	22,013
521,61	24,672
521,80	20,326
522,00	22,416
522,20	24,494
522,40	24,721
522,60	22,536
522,79	20,647
522,99	23,559
523,19	18,068
523,39	22,039
523,59	22,468
523,78	23,273
523,98	22,094
524,18	21,254
524,38	21,539
524,58	23,155
524,77	23,811
524,97	18,313
525,17	20,621
525,37	21,814
525,57	24,967
525,76	18,831
525,96	21,998
526,16	19,352
526,36	19,561
526,56	20,574
526,75	18,818
526,95	23,036
527,15	19,540
527,35	20,805
527,55	20,162
527,74	23,090
527,94	18,485
528,14	18,536
528,34	20,092
528,53	19,463
528,73	20,145
528,93	21,269
529,13	18,044
529,32	19,737
529,52	21,916
529,72	18,049
529,92	18,331
530,12	19,788
530,31	17,935
530,51	19,286
530,71	21,303
530,91	18,986
531,10	14,653
531,30	19,491
531,50	20,293
531,70	20,317
531,89	16,171
532,09	20,868
532,29	17,141
532,49	19,442
532,68	16,585
532,88	17,662
533,08	17,773
533,28	18,953
533,47	16,723
533,67	19,880
533,87	16,929
534,06	22,016
534,26	18,204
534,46	14,971
534,66	20,217
534,85	20,106
535,05	14,348
535,25	16,521
535,45	16,672
535,64	19,222
535,84	16,445
536,04	20,132
536,23	19,463
536,43	20,584
536,63	19,638
536,83	18,718
537,02	18,402
537,22	15,654
537,42	18,910
537,61	17,111
537,81	18,057
538,01	18,680
538,20	17,721
538,40	14,997
538,60	17,746
538,80	16,305
538,99	16,873
539,19	14,425
539,39	17,518
539,58	16,043
539,78	13,051
539,98	16,500
540,17	14,460
540,37	14,071
540,57	14,982
540,76	14,546
540,96	12,743
541,16	14,258
541,36	13,057
541,55	12,077
541,75	12,443
541,95	13,209
542,14	11,971
542,34	11,217
542,54	12,726
542,73	12,667
542,93	13,480
543,13	12,329
543,32	11,395
543,52	13,147
543,72	11,077
543,91	12,814
544,11	12,393
544,31	11,711
544,50	12,678
544,70	12,648
544,89	12,982
545,09	14,097
545,29	12,459
545,48	12,192
545,68	12,763
545,88	11,459
546,07	11,896
546,27	12,304
546,47	14,092
546,66	14,588
546,86	12,237
547,06	13,623
547,25	14,634
547,45	14,620
547,64	13,382
547,84	17,474
548,04	15,157
548,23	16,457
548,43	15,669
548,63	14,894
548,82	15,948
549,02	14,645
549,21	11,629
549,41	16,350
549,61	15,163
549,80	15,801
550,00	14,894
550,20	13,711
550,39	16,703
550,59	13,999
550,78	14,582
550,98	12,062
551,18	15,586
551,37	16,320
551,57	14,772
551,76	16,975
551,96	14,110
552,16	14,800
552,35	16,929
552,55	16,314
552,74	16,276
552,94	17,279
553,14	14,487
553,33	13,954
553,53	13,995
553,72	16,343
553,92	16,517
554,12	14,832
554,31	15,751
554,51	16,401
554,70	13,408
554,90	15,927
555,09	14,889
555,29	16,791
555,49	16,553
555,68	17,431
555,88	15,918
556,07	14,859
556,27	16,774
556,46	15,913
556,66	13,843
556,86	19,002
557,05	16,807
557,25	13,909
557,44	14,386
557,64	16,493
557,83	14,639
558,03	14,133
558,22	14,416
558,42	17,447
558,62	19,508
558,81	14,488
559,01	16,954
559,20	16,167
559,40	13,811
559,59	13,604
559,79	14,275
559,98	16,189
560,18	15,456
560,37	17,184
560,57	14,687
560,76	12,531
560,96	13,968
561,16	17,024
561,35	16,317
561,55	20,764
561,74	14,721
561,94	16,112
562,13	14,762
562,33	18,314
562,52	15,931
562,72	15,442
562,91	14,172
563,11	16,166
563,30	16,443
563,50	12,368
563,69	15,440
563,89	14,511
564,08	17,615
564,28	15,166
564,47	16,101
564,67	14,649
564,86	18,403
565,06	14,708
565,25	17,517
565,45	14,916
565,64	19,102
565,84	16,486
566,03	14,349
566,23	16,345
566,42	15,799
566,62	14,767
566,81	15,682
567,01	14,436
567,20	17,908
567,40	15,208
567,59	15,217
567,79	15,366
567,98	17,221
568,18	18,630
568,37	17,632
568,57	14,557
568,76	18,032
568,96	15,660
569,15	16,629
569,35	16,244
569,54	16,507
569,73	17,396
569,93	15,081
570,12	16,724
570,32	17,557
570,51	15,912
570,71	17,196
570,90	17,301
571,10	14,385
571,29	17,200
571,49	15,132
571,68	17,653
571,87	14,817
572,07	16,642
572,26	15,577
572,46	17,508
572,65	17,515
572,85	15,533
573,04	17,516
573,24	16,608
573,43	18,244
573,62	17,543
573,82	17,481
574,01	17,723
574,21	17,338
574,40	14,466
574,60	13,790
574,79	18,670
574,98	15,417
575,18	17,973
575,37	17,036
575,57	16,195
575,76	18,531
575,96	17,588
576,15	15,422
576,34	18,386
576,54	17,857
576,73	17,174
576,93	16,929
577,12	16,694
577,31	17,752
577,51	16,519
577,70	16,742
577,90	17,890
578,09	16,891
578,28	15,980
578,48	17,108
578,67	19,240
578,87	17,523
579,06	16,570
579,25	17,308
579,45	19,609
579,64	17,347
579,84	16,890
580,03	17,751
580,22	19,019
580,42	17,954
580,61	19,968
580,81	18,069
581,00	19,133
581,19	18,566
581,39	17,755
581,58	17,551
581,77	18,242
581,97	20,010
582,16	19,036
582,35	18,318
582,55	18,575
582,74	20,253
582,94	19,148
583,13	16,667
583,32	19,796
583,52	18,174
583,71	19,721
583,90	18,494
584,10	18,056
584,29	20,000
584,48	17,903
584,68	19,758
584,87	19,103
585,06	20,210
585,26	16,818
585,45	18,825
585,65	21,501
585,84	18,750
586,03	19,370
586,23	18,094
586,42	18,855
586,61	21,500
586,81	20,085
587,00	19,837
587,19	20,063
587,39	22,398
587,58	21,271
587,77	20,411
587,97	19,539
588,16	20,667
588,35	19,936
588,54	21,832
588,74	20,617
588,93	21,055
589,12	20,743
589,32	20,216
589,51	21,378
589,70	19,503
589,90	22,260
590,09	21,338
590,28	24,165
590,48	20,780
590,67	21,539
590,86	21,799
591,06	22,470
591,25	23,302
591,44	22,964
591,63	20,898
591,83	23,727
592,02	21,943
592,21	23,140
592,41	22,698
592,60	23,742
592,79	23,673
592,98	23,423
593,18	23,623
593,37	22,937
593,56	24,499
593,76	23,587
593,95	22,186
594,14	23,116
594,33	25,207
594,53	23,701
594,72	24,201
594,91	26,617
595,10	25,404
595,30	23,603
595,49	24,657
595,68	26,290
595,88	25,153
596,07	25,750
596,26	27,225
596,45	24,460
596,65	24,414
596,84	25,409
597,03	27,315
597,22	27,147
597,42	27,146
597,61	26,658
597,80	26,979
597,99	27,335
598,19	27,572
598,38	27,434
598,57	27,006
598,76	28,724
598,95	28,254
599,15	27,810
599,34	28,068
599,53	28,349
599,72	27,178
599,92	26,453
600,11	29,433
600,30	28,610
600,49	29,610
600,69	27,006
600,88	28,174
601,07	29,003
601,26	26,769
601,45	27,729
601,65	27,051
601,84	28,725
602,03	27,858
602,22	29,507
602,42	29,756
602,61	27,525
602,80	30,199
602,99	29,358
603,18	27,010
603,38	30,156
603,57	28,509
603,76	29,227
603,95	28,344
604,14	31,300
604,34	30,243
604,53	28,194
604,72	30,301
604,91	29,722
605,10	29,559
605,29	30,886
605,49	28,273
605,68	29,673
605,87	32,690
606,06	30,555
606,25	28,483
606,45	31,195
606,64	30,217
606,83	29,648
607,02	31,090
607,21	31,030
607,40	29,301
607,60	28,033
607,79	28,623
607,98	28,549
608,17	28,719
608,36	30,304
608,55	28,988
608,75	30,273
608,94	29,130
609,13	26,162
609,32	25,166
609,51	26,676
609,70	26,844
609,89	27,160
610,09	25,952
610,28	28,406
610,47	25,887
610,66	25,744
610,85	24,679
611,04	27,044
611,23	25,423
611,43	26,622
611,62	26,089
611,81	25,370
612,00	26,297
612,19	25,232
612,38	25,830
612,57	26,917
612,77	26,701
612,96	28,052
613,15	27,040
613,34	29,908
613,53	29,101
613,72	30,931
613,91	29,866
614,10	28,731
614,29	32,032
614,49	29,594
614,68	29,075
614,87	32,403
615,06	32,775
615,25	28,833
615,44	32,285
615,63	31,111
615,82	30,194
616,01	30,880
616,21	31,772
616,40	32,619
616,59	33,647
616,78	31,100
616,97	33,768
617,16	34,090
617,35	33,100
617,54	33,438
617,73	34,077
617,92	32,930
618,11	34,668
618,31	32,115
618,50	33,666
618,69	31,127
618,88	32,784
619,07	32,277
619,26	31,738
619,45	31,823
619,64	33,066
619,83	33,053
620,02	30,712
620,21	33,399
620,40	34,497
620,59	32,986
620,78	31,202
620,97	33,521
621,17	33,718
621,36	33,256
621,55	33,827
621,74	33,822
621,93	33,559
622,12	32,907
622,31	32,160
622,50	33,862
622,69	35,523
622,88	33,660
623,07	33,576
623,26	32,061
623,45	35,558
623,64	32,158
623,83	33,239
624,02	35,802
624,21	33,579
624,40	35,122
624,59	33,214
624,78	36,079
624,97	34,663
625,16	33,252
625,35	32,792
625,54	32,327
625,73	35,008
625,92	34,091
626,12	35,275
626,31	35,719
626,50	35,278
626,69	34,963
626,88	33,045
627,07	33,911
627,26	34,582
627,45	33,002
627,64	33,813
627,83	35,040
628,02	33,918
628,21	33,454
628,40	33,111
628,59	34,264
628,78	33,020
628,97	33,471
629,16	32,306
629,35	34,495
629,54	37,037
629,73	36,466
629,92	32,595
630,10	34,782
630,29	35,123
630,48	33,411
630,67	32,319
630,86	35,342
631,05	33,390
631,24	35,547
631,43	32,982
631,62	33,689
631,81	34,428
632,00	34,321
632,19	32,934
632,38	34,809
632,57	36,798
632,76	35,734
632,95	36,161
633,14	38,306
633,33	35,649
633,52	36,370
633,71	37,135
633,90	35,644
634,09	34,949
634,28	35,669
634,47	34,812
634,66	36,348
634,85	34,833
635,04	38,194
635,22	35,666
635,41	34,802
635,60	36,426
635,79	36,574
635,98	34,623
636,17	36,811
636,36	35,936
636,55	34,150
636,74	34,028
636,93	35,775
637,12	35,771
637,31	35,296
637,50	35,731
637,69	35,270
637,87	36,700
638,06	35,514
638,25	35,055
638,44	36,820
638,63	33,009
638,82	35,253
639,01	34,773
639,20	35,970
639,39	37,178
639,58	35,932
639,77	36,846
639,95	35,136
640,14	37,543
640,33	35,793
640,52	35,131
640,71	38,650
640,90	36,616
641,09	36,843
641,28	35,323
641,47	36,829
641,66	36,164
641,84	35,867
642,03	35,477
642,22	35,437
642,41	38,363
642,60	35,907
642,79	36,020
642,98	36,811
643,17	36,146
643,35	35,207
643,54	34,814
643,73	38,336
643,92	37,498
644,11	36,533
644,30	35,696
644,49	38,940
644,67	36,526
644,86	34,393
645,05	37,315
645,24	36,471
645,43	35,982
645,62	35,626
645,81	36,008
645,99	37,694
646,18	37,851
646,37	35,356
646,56	36,619
646,75	38,189
646,94	38,256
647,13	35,466
647,31	35,108
647,50	37,130
647,69	37,572
647,88	35,427
648,07	35,792
648,26	38,933
648,44	36,739
648,63	36,997
648,82	35,415
649,01	38,627
649,20	35,799
649,38	35,986
649,57	35,652
649,76	36,663
649,95	36,962
650,14	35,822
650,33	35,650
650,51	36,681
650,70	37,442
650,89	36,866
651,08	37,425
651,27	36,730
651,45	36,087
651,64	35,737
651,83	36,377
652,02	33,849
652,21	36,850
652,39	36,430
652,58	37,004
652,77	36,005
652,96	37,336
653,15	36,440
653,33	37,414
653,52	37,578
653,71	38,968
653,90	38,263
654,09	39,702
654,27	38,489
654,46	40,078
654,65	37,454
654,84	37,299
655,02	38,876
655,21	39,873
655,40	39,350
655,59	39,381
655,77	39,963
655,96	38,686
656,15	39,594
656,34	39,318
656,53	39,325
656,71	40,091
656,90	39,649
657,09	39,426
657,28	39,534
657,46	37,699
657,65	38,078
657,84	37,438
658,03	38,629
658,21	38,424
658,40	35,791
658,59	37,594
658,78	37,181
658,96	37,123
659,15	37,788
659,34	36,562
659,52	36,731
659,71	37,191
659,90	37,204
660,09	36,017
660,27	36,052
660,46	38,306
660,65	36,225
660,84	34,398
661,02	36,482
661,21	35,850
661,40	36,200
661,58	35,858
661,77	37,635
661,96	34,420
662,15	36,232
662,33	35,660
662,52	35,437
662,71	35,567
662,89	34,879
663,08	35,060
663,27	36,916
663,45	36,430
663,64	34,106
663,83	33,580
664,02	34,590
664,20	35,807
664,39	35,650
664,58	35,055
664,76	35,620
664,95	35,837
665,14	34,942
665,32	34,494
665,51	36,706
665,70	34,838
665,88	36,764
666,07	35,778
666,26	37,372
666,44	37,025
666,63	35,675
666,82	35,135
667,00	36,227
667,19	34,038
667,38	36,043
667,56	37,339
667,75	36,950
667,94	37,144
668,12	33,437
668,31	35,368
668,50	36,582
668,68	36,055
668,87	36,070
669,06	34,762
669,24	36,517
669,43	34,995
669,62	34,760
669,80	34,327
669,99	36,061
670,18	36,132
670,36	34,423
670,55	35,645
670,74	35,079
670,92	33,850
671,11	35,389
671,29	34,426
671,48	35,190
671,67	37,815
671,85	36,993
672,04	33,516
672,23	33,772
672,41	35,168
672,60	34,785
672,78	34,530
672,97	34,934
673,16	35,671
673,34	34,598
673,53	33,829
673,71	36,019
673,90	35,941
674,09	35,875
674,27	34,578
674,46	35,374
674,64	35,240
674,83	35,086
675,02	34,162
675,20	35,853
675,39	33,886
675,57	36,015
675,76	33,920
675,95	37,308
676,13	37,016
676,32	34,647
676,50	35,025
676,69	33,103
676,88	33,553
677,06	35,235
677,25	34,576
677,43	37,437
677,62	36,414
677,80	35,098
677,99	34,844
678,18	34,897
678,36	36,712
678,55	34,539
678,73	34,394
678,92	35,969
679,10	35,842
679,29	35,974
679,48	35,382
679,66	34,479
679,85	34,612
680,03	35,834
680,22	37,141
680,40	35,282
680,59	34,470
680,77	33,038
680,96	34,576
681,15	35,067
681,33	35,850
681,52	35,572
681,70	35,042
681,89	37,574
682,07	36,121
682,26	34,573
682,44	35,567
682,63	36,105
682,81	36,267
683,00	37,239
683,18	34,888
683,37	36,557
683,55	35,590
683,74	35,607
683,92	39,544
684,11	35,819
684,29	36,741
684,48	33,461
684,67	35,378
684,85	35,933
685,04	35,799
685,22	37,249
685,41	35,095
685,59	37,177
685,78	34,945
685,96	36,136
686,15	36,598
686,33	35,454
686,52	35,636
686,70	37,344
686,89	37,154
687,07	35,718
687,26	38,150
687,44	38,664
687,62	35,917
687,81	37,506
687,99	37,005
688,18	36,086
688,36	35,684
688,55	37,040
688,73	34,270
688,92	34,582
689,10	36,505
689,29	37,094
689,47	38,046
689,66	36,361
689,84	38,100
690,03	38,475
690,21	36,080
690,40	37,517
690,58	34,486
690,76	36,294
690,95	37,701
691,13	37,371
691,32	35,767
691,50	37,262
691,69	36,159
691,87	37,173
692,06	35,911
692,24	35,382
692,43	36,187
692,61	34,020
692,79	35,665
692,98	34,698
693,16	37,928
693,35	36,751
693,53	38,536
693,72	36,876
693,90	38,005
694,08	35,682
694,27	36,726
694,45	39,027
694,64	38,647
694,82	37,323
695,01	36,678
695,19	36,143
695,37	36,023
695,56	36,514
695,74	37,473
695,93	36,985
696,11	35,915
696,29	37,734
696,48	36,351
696,66	36,459
696,85	36,752
697,03	35,813
697,21	38,088
697,40	36,194
697,58	37,311
697,77	36,982
697,95	37,271
698,13	38,491
698,32	38,308
698,50	36,305
698,69	35,782
698,87	38,159
699,05	36,481
699,24	36,625
699,42	37,970
699,60	34,023
699,79	35,147
699,97	36,550
700,16	34,839
700,34	36,766
700,52	35,775
700,71	34,978
700,89	35,411
701,07	37,670
701,26	35,827
701,44	36,684
701,63	35,403
701,81	37,599
701,99	36,026
702,18	34,144
702,36	35,474
702,54	36,558
702,73	36,041
702,91	36,564
703,09	36,111
703,28	36,454
703,46	35,983
703,64	36,589
703,83	36,337
704,01	38,501
704,19	36,529
704,38	35,910
704,56	37,311
704,74	38,037
704,93	36,376
705,11	36,716
705,29	34,761
705,48	37,885
705,66	36,584
705,84	37,044
706,03	33,936
706,21	36,630
706,39	36,090
706,58	36,632
706,76	35,597
706,94	36,555
707,12	37,523
707,31	35,015
707,49	34,806
707,67	36,208
707,86	36,856
708,04	35,387
708,22	36,055
708,41	36,960
708,59	35,734
708,77	34,013
708,95	37,990
709,14	38,643
709,32	36,575
709,50	35,358
709,69	36,371
709,87	35,594
710,05	36,297
710,23	35,526
710,42	35,104
710,60	36,859
710,78	38,034
710,97	35,958
711,15	36,430
711,33	36,780
711,51	35,397
711,70	36,614
711,88	34,929
712,06	37,849
712,24	36,049
712,43	36,515
712,61	34,878
712,79	35,315
712,97	34,924
713,16	37,124
713,34	36,771
713,52	36,942
713,70	36,915
713,89	36,965
714,07	36,739
714,25	37,825
714,43	38,216
714,62	36,126
714,80	36,072
714,98	33,437
715,16	35,740
715,35	34,721
715,53	34,555
715,71	36,955
715,89	38,003
716,07	37,912
716,26	40,723
716,44	36,583
716,62	37,905
716,80	37,826
716,99	36,963
717,17	38,568
717,35	37,176
717,53	37,435
717,71	37,492
717,90	36,149
718,08	35,650
718,26	34,546
718,44	37,469
718,62	37,103
718,81	36,952
718,99	35,512
719,17	36,688
719,35	36,811
719,53	36,434
719,72	34,691
719,90	35,687
720,08	35,082
720,26	38,668
720,44	36,151
720,62	35,317
720,81	36,674
720,99	37,697
721,17	36,285
721,35	36,508
721,53	39,361
721,72	37,773
721,90	36,370
722,08	36,822
722,26	37,474
722,44	35,780
722,62	36,837
722,81	35,695
722,99	36,441
723,17	35,777
723,35	36,555
723,53	37,137
723,71	38,404
723,89	37,786
724,08	34,654
724,26	34,921
724,44	36,590
724,62	35,984
724,80	36,209
724,98	37,506
725,16	38,036
725,35	36,433
725,53	34,911
725,71	36,051
725,89	37,823
726,07	38,488
726,25	38,725
726,43	38,544
726,61	37,142
726,80	38,344
726,98	35,266
727,16	35,074
727,34	35,503
727,52	37,811
727,70	34,679
727,88	36,547
728,06	35,013
728,25	35,288
728,43	36,050
728,61	36,622
728,79	35,890
728,97	38,476
729,15	37,703
729,33	36,343
729,51	36,820
729,69	37,502
729,87	38,040
730,06	35,150
730,24	36,042
730,42	39,080
730,60	35,574
730,78	37,820
730,96	37,702
731,14	37,379
731,32	36,243
731,50	34,992
731,68	35,853
731,86	36,386
732,04	36,787
732,22	34,795
732,41	39,152
732,59	38,067
732,77	36,829
732,95	39,937
733,13	37,262
733,31	38,011
733,49	36,571
733,67	37,762
733,85	35,152
734,03	37,938
734,21	35,769
734,39	37,360
734,57	37,677
734,75	37,863
734,93	36,287
735,11	36,135
735,29	36,229
735,47	37,657
735,65	37,148
735,84	34,633
736,02	37,724
736,20	39,680
736,38	38,675
736,56	37,172
736,74	36,769
736,92	36,572
737,10	35,475
737,28	37,278
737,46	37,655
737,64	36,274
737,82	35,846
738,00	37,761
738,18	37,654
738,36	37,919
738,54	36,772
738,72	35,577
738,90	35,893
739,08	36,274
739,26	33,720
739,44	36,509
739,62	36,214
739,80	36,600
739,98	35,818
740,16	35,175
740,34	38,418
740,52	38,772
740,70	35,791
740,88	35,865
741,06	35,085
741,24	36,930
741,42	37,163
741,60	34,880
741,78	37,898
741,96	34,948
742,14	36,957
742,32	33,474
742,50	35,539
742,68	37,338
742,86	36,708
743,04	34,480
743,21	35,717
743,39	37,504
743,57	35,176
743,75	36,138
743,93	35,264
744,11	35,138
744,29	34,341
744,47	35,184
744,65	35,078
744,83	36,748
745,01	35,427
745,19	38,295
745,37	36,637
745,55	37,773
745,73	35,209
745,91	35,165
746,09	35,248
746,27	36,225
746,45	34,454
746,62	37,419
746,80	36,556
746,98	37,532
747,16	35,257
747,34	35,353
747,52	35,799
747,70	36,897
747,88	34,750
748,06	35,783
748,24	38,443
748,42	35,273
748,60	36,097
748,78	34,869
748,95	35,846
749,13	39,542
749,31	34,953
749,49	36,571
749,67	36,333
749,85	38,065
750,03	36,668
750,21	36,284
750,39	35,517
750,57	37,367
750,74	37,204
750,92	36,855
751,10	37,773
751,28	34,499
751,46	35,071
751,64	38,278
751,82	37,792
752,00	35,775
752,17	36,189
752,35	34,520
752,53	37,226
752,71	35,901
752,89	35,249
753,07	34,891
753,25	36,900
753,43	34,813
753,60	36,369
753,78	35,366
753,96	38,209
754,14	36,309
754,32	37,860
754,50	37,935
754,68	37,288
754,85	36,824
755,03	36,133
755,21	36,822
755,39	39,234
755,57	37,688
755,75	36,238
755,92	36,653
756,10	37,301
756,28	38,688
756,46	34,172
756,64	38,212
756,82	37,111
756,99	36,386
757,17	36,609
757,35	34,212
757,53	37,635
757,71	39,417
757,89	36,682
758,06	36,758
758,24	36,978
758,42	33,657
758,60	36,584
758,78	35,279
758,95	37,258
759,13	36,439
759,31	34,529
759,49	36,102
759,67	35,771
759,84	36,918
760,02	37,272
760,20	36,732
760,38	35,244
760,56	36,983
760,73	38,825
760,91	37,838
761,09	37,697
761,27	35,885
761,45	36,517
761,62	36,197
761,80	37,071
761,98	37,708
762,16	37,475
762,33	36,222
762,51	38,161
762,69	38,078
762,87	35,617
763,05	37,400
763,22	35,529
763,40	35,197
763,58	36,239
763,76	35,104
763,93	36,800
764,11	38,319
764,29	36,478
764,47	36,198
764,64	37,582
764,82	39,782
765,00	35,717
765,18	35,591
765,35	35,388
765,53	36,972
765,71	35,663
765,89	35,797
766,06	34,873
766,24	35,621
766,42	36,615
766,60	37,119
766,77	35,171
766,95	35,526
767,13	37,058
767,30	36,967
767,48	35,988
767,66	37,114
767,84	36,844
768,01	33,155
768,19	39,081
768,37	38,299
768,54	36,095
768,72	37,096
768,90	35,309
769,08	35,772
769,25	36,939
769,43	36,682
769,61	36,909
769,78	37,096
769,96	37,417
770,14	38,366
770,31	37,863
770,49	38,427
770,67	36,946
770,85	37,857
771,02	36,269
771,20	34,503
771,38	36,935
771,55	36,553
771,73	33,983
771,91	36,547
772,08	37,231
772,26	36,766
772,44	37,162
772,61	34,351
772,79	34,922
772,97	37,258
773,14	35,017
773,32	38,145
773,50	36,203
773,67	35,960
773,85	37,110
774,03	38,481
774,20	36,631
774,38	36,899
774,56	37,617
774,73	37,425
774,91	36,122
775,09	37,849
775,26	36,867
775,44	34,683
775,61	37,468
775,79	35,936
775,97	36,403
776,14	35,702
776,32	33,879
776,50	33,705
776,67	36,209
776,85	37,699
777,03	34,585
777,20	36,120
777,38	37,697
777,55	36,788
777,73	34,875
777,91	35,246
778,08	37,457
778,26	35,518
778,43	38,943
778,61	35,769
778,79	35,503
778,96	35,606
779,14	36,506
779,32	36,436
779,49	35,463
779,67	39,174
779,84	37,568
780,02	37,426
780,20	34,685
780,37	37,850
780,55	31,602
780,72	36,580
780,90	39,458
781,07	36,580
781,25	38,071
781,43	35,255
781,60	37,374
781,78	36,532
781,95	37,202
782,13	35,863
782,30	36,455
782,48	38,485
782,66	33,069
782,83	36,343
783,01	40,165
783,18	37,880
783,36	37,185
783,53	37,608
783,71	36,840
783,89	35,414
784,06	35,704
784,24	36,869
784,41	37,855
784,59	37,452
784,76	38,460
784,94	36,796
785,11	35,384
785,29	37,428
785,46	35,554
785,64	37,288
785,82	37,284
785,99	37,176
786,17	35,994
786,34	36,689
786,52	39,270
786,69	38,507
786,87	35,595
787,04	35,946
787,22	38,064
787,39	36,974
787,57	39,745
787,74	38,594
787,92	39,750
788,09	35,910
788,27	37,164
788,44	35,352
788,62	37,123
788,79	38,392
788,97	39,191
789,14	39,526
789,32	38,006
789,49	37,693
789,67	38,151
789,84	37,459
790,02	37,057
790,19	39,312
790,37	36,806
790,54	36,225
790,72	38,214
790,89	40,732
791,07	39,457
791,24	34,631
791,42	39,877
791,59	38,482
791,77	39,190
791,94	35,715
792,12	37,029
792,29	36,716
792,47	39,481
792,64	40,596
792,81	40,036
792,99	35,411
793,16	38,371
793,34	37,949
793,51	39,332
793,69	39,616
793,86	35,720
794,04	36,882
794,21	41,069
794,39	34,053
794,56	37,205
794,73	39,455
794,91	40,103
795,08	36,015
795,26	40,128
795,43	38,033
795,61	41,301
795,78	37,238
795,95	42,051
796,13	41,701
796,30	39,352
796,48	38,672
796,65	39,558
796,83	38,295
797,00	39,575
797,17	34,694
797,35	39,318
797,52	39,600
797,70	39,635
797,87	36,444
798,04	35,193
798,22	40,207
798,39	38,677
798,57	38,593
798,74	37,343
798,91	38,292
799,09	38,531
799,26	36,654
799,44	37,944
799,61	34,560
799,78	41,030
799,96	39,073
800,13	36,521
800,31	36,665
800,48	42,869
800,65	39,015
800,83	39,045
801,00	39,170
801,17	38,050
801,35	38,511
801,52	38,193
801,70	38,203
801,87	37,166
802,04	41,864
802,22	37,360
802,39	39,675
802,56	41,328
802,74	37,973
802,91	37,985
803,08	37,691
803,26	37,657
803,43	40,328
803,61	38,942
803,78	37,519
803,95	39,271
804,13	38,018
804,30	35,893
804,47	39,546
804,65	42,074
804,82	42,262
804,99	38,921
805,17	38,019
805,34	40,911
805,51	41,739
805,69	35,379
805,86	39,070
806,03	42,494
806,21	43,500
806,38	37,418
806,55	39,520
806,72	41,236
806,90	42,032
807,07	40,073
807,24	37,929
807,42	35,208
807,59	40,449
807,76	34,498
807,94	38,053
808,11	40,223
808,28	42,764
808,45	40,070
808,63	39,967
808,80	42,795
808,97	40,938
809,15	38,033
809,32	37,378
809,49	38,399
809,67	36,196
809,84	39,154
810,01	40,279
810,18	46,986
810,36	41,708
810,53	41,715
810,70	41,097
810,87	44,598
811,05	36,180
811,22	42,536
811,39	37,871
811,57	41,749
811,74	42,482
811,91	37,651
812,08	40,758
812,26	43,064
812,43	40,622
812,60	38,487
812,77	37,227
812,95	42,035
813,12	41,520
813,29	34,385
813,46	38,046
813,64	40,889
813,81	39,912
813,98	39,613
814,15	39,236
814,32	41,361
814,50	38,640
814,67	41,214
814,84	39,894
815,01	40,849
815,19	34,184
815,36	36,390
815,53	38,739
815,70	39,891
815,87	40,635
816,05	37,981
816,22	39,259
816,39	43,125
816,56	44,839
816,74	39,687
816,91	40,847
817,08	43,645
817,25	40,531
817,42	40,459
817,60	43,985
817,77	39,793
817,94	43,689
818,11	37,417
818,28	37,340
818,45	42,082
818,63	42,168
818,80	39,917
818,97	39,529
819,14	42,991
819,31	45,963
819,49	42,097
819,66	38,619
819,83	40,932
820,00	42,385
820,17	40,833
820,34	44,271
820,52	47,029
820,69	41,691
820,86	39,797
821,03	40,912
821,20	42,835
821,37	44,128
821,55	34,257
821,72	38,673
821,89	39,020
822,06	45,095
822,23	36,160
822,40	39,478
822,57	42,112
822,75	43,532
822,92	34,563
823,09	42,938
823,26	42,383
823,43	44,923
823,60	35,076
823,77	40,093
823,94	45,921
824,12	45,885
824,29	40,545
824,46	39,368
824,63	43,935
824,80	41,226
824,97	42,340
825,14	40,128
825,31	47,025
825,49	43,421
825,66	38,586
825,83	43,197
826,00	43,780
826,17	46,759
826,34	40,863
826,51	37,299
826,68	34,320
826,85	45,885
827,02	41,989
827,20	39,289
827,37	44,539
827,54	45,954
827,71	43,364
827,88	44,278
828,05	39,502
828,22	46,768
828,39	46,673
828,56	40,324
828,73	44,849
828,90	43,669
829,07	41,811
829,25	47,687
829,42	41,366
829,59	41,638
829,76	42,233
829,93	38,760
830,10	43,150
830,27	44,651
830,44	46,506
830,61	40,122
830,78	50,937
830,95	41,705
831,12	39,782
831,29	41,806
831,46	44,158
831,63	40,725
831,80	42,545
831,97	39,364
832,14	48,274
832,31	51,962
832,48	44,419
832,65	42,457
832,83	40,622
833,00	48,068
833,17	41,173
833,34	41,921
833,51	41,916
833,68	51,872
833,85	50,191
834,02	33,304
834,19	49,015
834,36	44,191
834,53	42,144
834,70	40,974
834,87	49,425
835,04	39,782
835,21	40,404
835,38	38,651
835,55	48,017
835,72	54,578
835,89	44,834
836,06	49,128
836,23	54,385
836,40	37,960
836,57	42,845
836,74	53,328
836,91	49,514
837,08	53,917
837,25	42,618
837,42	37,449
837,59	42,893
837,76	43,463
837,93	45,810
838,09	36,594
838,26	48,512
838,43	52,527
838,60	48,760
838,77	38,391
838,94	43,847
839,11	42,376
839,28	47,633
839,45	39,581
839,62	43,025
839,79	52,988
839,96	43,924
840,13	44,226
840,30	41,002
840,47	33,082
840,64	35,671
840,81	43,486
840,98	44,182
841,15	52,838
841,32	30,650
841,48	51,438
841,65	52,782
841,82	44,226
841,99	46,038
842,16	40,474
842,33	55,533
842,50	41,223
842,67	40,234
842,84	43,529
843,01	47,086
843,18	41,875
843,35	42,983
843,52	36,935
843,68	52,071
843,85	46,340
844,02	39,767
844,19	33,967
844,36	52,834
844,53	50,632
844,70	45,136
844,87	48,883
845,04	48,326
845,21	35,650
845,37	41,770
845,54	44,942
845,71	47,304
845,88	55,279
846,05	40,052
846,22	38,836
846,39	48,614
846,56	46,890
846,72	37,852
846,89	44,647
847,06	61,621
847,23	45,027
847,40	43,068
847,57	36,788
847,74	42,337
847,90	50,021
848,07	47,461
848,24	41,344
848,41	34,346
848,58	50,405
848,75	49,799
848,92	33,227
849,08	45,742
849,25	45,444
849,42	39,045
849,59	46,531
849,76	43,893
849,93	47,918
850,09	50,961
850,26	31,265
850,43	55,987
850,60	42,530
850,77	40,249
850,94	48,034
851,10	48,542
851,27	48,688
851,44	34,646
851,61	53,794
851,78	52,065
851,95	52,393
852,11	42,437
852,28	43,038
852,45	51,063
852,62	53,986
852,79	45,887
852,95	39,984
853,12	54,206
853,29	36,861
853,46	26,175
853,63	58,492
853,79	46,374
853,96	51,220
854,13	49,972
854,30	36,765
854,46	58,286
854,63	53,261
854,80	46,679
854,97	49,638
855,14	48,115
855,30	41,474
855,47	45,357
855,64	54,146
855,81	51,431
855,97	48,872
856,14	52,405
856,31	45,121
856,48	49,236
856,65	62,805
856,81	57,427
856,98	45,809
857,15	47,015
857,32	53,307
857,48	46,899
857,65	48,156
857,82	50,645
857,99	57,331
858,15	45,390
858,32	45,212
858,49	51,223
858,65	60,649
858,82	43,231
858,99	44,999
859,16	58,323
859,32	53,553
859,49	46,455
859,66	43,237
859,83	45,738
859,99	36,483
860,16	43,452
860,33	50,985
860,49	55,595
860,66	61,352
860,83	54,157
861,00	46,090
861,16	55,072
861,33	54,338
861,50	35,249
861,66	43,291
861,83	79,204
862,00	53,893
862,16	47,391
862,33	48,641
862,50	87,995
862,67	43,215
862,83	30,380
863,00	56,324
863,17	67,231
863,33	57,334
863,50	42,703
863,67	51,370
863,83	49,069
864,00	59,820
864,17	48,447
864,33	43,795
864,50	49,549
864,67	50,425
864,83	46,447
865,00	36,824
865,17	40,528
865,33	74,338
865,50	53,529
865,67	50,478
865,83	65,290
866,00	73,740
866,17	59,146
866,33	44,304
866,50	65,244
866,66	67,829
866,83	58,206
867,00	73,816
867,16	56,652
867,33	75,254
867,50	18,771
867,66	52,784
867,83	49,420
868,00	65,583
868,16	57,856
868,33	52,514
868,49	43,679
868,66	58,176
868,83	47,185
868,99	55,602
869,16	71,095
869,32	61,596
869,49	49,405
869,66	21,984
869,82	67,588
869,99	77,746
870,15	49,820
870,32	48,841
870,49	86,787
870,65	92,013
870,82	66,287
870,98	68,611
871,15	92,879
871,32	69,323
871,48	27,762
871,65	23,366
871,81	56,881
871,98	30,464
872,15	53,499
872,31	37,857
872,48	78,985
872,64	51,510
872,81	39,683
872,97	45,675
873,14	63,659
873,31	76,855
873,47	67,590
873,64	66,566
873,80	99,480
873,97	98,897
874,13	34,635
874,30	74,159
874,46	82,588
874,63	41,836
874,80	51,451
874,96	42,987
875,13	118,144
875,29	44,176
875,46	60,266
875,62	53,441
875,79	85,358
875,95	37,810
876,12	43,638
876,28	48,324
876,45	92,946
876,61	76,256
876,78	31,739
876,94	45,602
877,11	67,386
877,27	75,428
877,44	115,703
877,60	70,636
877,77	76,188
877,94	117,445
878,10	45,305
878,27	76,385
878,43	116,027
878,60	56,271
878,76	65,847
878,93	52,927
879,09	152,249
879,26	78,993
879,42	34,616
879,58	17,339
879,75	73,489
879,91	109,775
880,08	2,244
880,24	39,892
880,41	87,910
880,57	74,214
880,74	27,949
880,90	71,334
881,07	67,176
881,23	92,471
881,40	81,739
881,56	86,553
881,73	112,888
881,89	98,909
882,06	27,598
882,22	181,474
882,38	114,109
882,55	141,949
882,71	67,907
882,88	66,323
883,04	108,399
883,21	111,100
883,37	39,209
883,54	92,696
883,70	162,896
883,86	91,114
884,03	55,302
884,19	23,703
884,36	-66,820
884,52	188,951
884,69	67,513
884,85	10,849
885,01	103,559
885,18	66,772
885,34	71,992
885,51	-4,606
885,67	89,237
>>>>> Data<<<<< Espectral Procesado Extremo
