Fichero De Datos De SpectraSuite
++++++++++++++++++++++++++++++++++++
Fecha: Wed Apr 22 11:11:33 CEST 2009
Usuario: evoflor
Presente Oscuro Del Espectro: Sí
La Referencia de Presente Del Espectro De: Sí
Muestreados de los componentes de Número de espectros: 1
Espectrómetros: USB4F02353
Tiempo de integración (usec): 500000 (USB4F02353)
Promedio de Espectros Hechos un: 5 (USB4F02353)
El Alisar Del Furgón: 0 (USB4F02353)
Párrafo de de Corregir del la del del de Eléctrica del obscuridad: Sí (USB4F02353)
Estrobo/Lámpara Permitido: No (USB4F02353)
Correct for Detector Non-linearity: No (USB4F02353)
Párrafo de de Corregir del la del del de Externa del luz: No (USB4F02353)
Procesado del espectro de Número de pixeles en: 3648
>>>>> Comienza Data<<<<< Espectral Procesado Del EL
177,79	283,072
178,00	283,072
178,22	283,072
178,44	666,923
178,66	-86,976
178,88	74,560
179,09	-197,489
179,31	119,843
179,53	670,310
179,75	31,355
179,96	299,224
180,18	-128,954
180,40	554,809
180,62	385,703
180,83	-23,926
181,05	-379,390
181,27	-49110,000
181,49	84,978
181,70	313,500
181,92	336,091
182,14	340,392
182,36	102,275
182,58	444,900
182,79	970,580
183,01	16,601
183,23	127,611
183,45	-101,262
183,66	-26,150
183,88	648,882
184,10	-2872,909
184,32	210,668
184,53	100,882
184,75	-57,263
184,97	29,920
185,18	-95,695
185,40	-214,471
185,62	118,071
185,84	93,472
186,05	-40,684
186,27	-89,408
186,49	3238,846
186,71	0,811
186,92	72,443
187,14	-87,622
187,36	113,248
187,58	132,417
187,79	-78,739
188,01	237,264
188,23	-205,994
188,45	57,058
188,66	62,545
188,88	-1449,273
189,10	-1094,100
189,31	-65,375
189,53	-69,690
189,75	246,614
189,97	67,731
190,18	-9,399
190,40	723,000
190,62	-64,761
190,83	-265,389
191,05	113,847
191,27	292,029
191,49	284,183
191,70	-240,433
191,92	-751,780
192,14	-42,815
192,35	607,719
192,57	3691,714
192,79	-52,869
193,01	112,991
193,22	113,888
193,44	-69,983
193,66	71,478
193,87	20,364
194,09	-26,017
194,31	233,858
194,53	928,741
194,74	12,435
194,96	65,102
195,18	126,433
195,39	-243,562
195,61	-97,899
195,83	-112,630
196,04	106,398
196,26	-160,854
196,48	10,586
196,70	145,944
196,91	51,906
197,13	183,570
197,35	-6,728
197,56	517,059
197,78	1333,657
198,00	469,301
198,21	465,583
198,43	-855,872
198,65	75,348
198,86	315,863
199,08	190,525
199,30	52,045
199,51	-180,489
199,73	90,599
199,95	232,946
200,16	220,038
200,38	215,955
200,60	41,812
200,81	346,060
201,03	33,179
201,25	-2156,100
201,46	133,961
201,68	23,384
201,90	1566,136
202,11	-290,496
202,33	236,822
202,55	197,625
202,76	25,160
202,98	80,174
203,20	40,817
203,41	-443,211
203,63	98,715
203,85	-121110,000
204,06	109,768
204,28	-59,783
204,50	96,205
204,71	131,290
204,93	-622,320
205,15	-101,476
205,36	-76,692
205,58	261,823
205,80	-182,844
206,01	21,061
206,23	113,354
206,45	200,681
206,66	101,985
206,88	-14,471
207,10	-41,795
207,31	280,808
207,53	196,886
207,75	95,347
207,96	64,254
208,18	-88,413
208,39	67,672
208,61	2688,857
208,83	-373,752
209,04	168,758
209,26	-77,005
209,48	124,473
209,69	182,274
209,91	527,736
210,13	85,775
210,34	16,489
210,56	132,857
210,77	-960,709
210,99	103,287
211,21	1830,000
211,42	-200,453
211,64	46,656
211,86	237,987
212,07	142,500
212,29	154,329
212,50	100,294
212,72	1,962
212,94	139,151
213,15	108,091
213,37	73,530
213,58	-11,109
213,80	-1561,071
214,02	7282,941
214,23	170,091
214,45	193,475
214,67	-1455,000
214,88	64,732
215,10	-203,715
215,31	-91,245
215,53	-11,114
215,75	49,409
215,96	891,988
216,18	-373,099
216,39	77,065
216,61	201,550
216,83	279,509
217,04	834,944
217,26	-19,500
217,47	103,368
217,69	248,843
217,91	207,448
218,12	-26610,000
218,34	71,800
218,55	242,467
218,77	-32,214
218,99	193,497
219,20	-15,120
219,42	303,979
219,63	67,996
219,85	-90,583
220,06	-254,192
220,28	125,174
220,50	47,295
220,71	84,594
220,93	553,019
221,14	-1328,100
221,36	267,476
221,58	5,618
221,79	-85,932
222,01	617,328
222,22	317,171
222,44	-14,494
222,65	107,462
222,87	519,650
223,09	115,338
223,30	53,614
223,52	116,400
223,73	181,425
223,95	-94,352
224,16	134,660
224,38	310,450
224,60	47,286
224,81	124,385
225,03	123,469
225,24	74,539
225,46	129,419
225,67	-34,596
225,89	92,552
226,10	530,151
226,32	544,080
226,54	18,814
226,75	58,383
226,97	76,848
227,18	110,061
227,40	63,198
227,61	93,188
227,83	28,091
228,04	28,058
228,26	66,648
228,47	47,955
228,69	90,943
228,91	73,793
229,12	18,443
229,34	35,856
229,55	37,445
229,77	11,672
229,98	-12,839
230,20	10,677
230,41	-20,510
230,63	27,683
230,84	-7,277
231,06	23,933
231,27	30,368
231,49	10,607
231,71	15,995
231,92	27,803
232,14	22,286
232,35	90,030
232,57	40,004
232,78	-9,088
233,00	37,404
233,21	17,348
233,43	20,046
233,64	26,583
233,86	48,584
234,07	4,220
234,29	4,542
234,50	1,768
234,72	25,886
234,93	-3,375
235,15	39,060
235,36	15,825
235,58	26,535
235,79	29,077
236,01	0,977
236,22	1,369
236,44	31,966
236,65	7,963
236,87	28,809
237,08	-3,205
237,30	-17,425
237,51	25,850
237,73	-2,382
237,94	8,221
238,16	11,611
238,37	11,564
238,59	19,165
238,80	7,471
239,02	5,661
239,23	14,426
239,45	-1,030
239,66	19,896
239,88	14,850
240,09	13,936
240,31	6,251
240,52	3,503
240,74	11,198
240,95	9,579
241,17	9,998
241,38	8,349
241,60	10,776
241,81	20,717
242,03	7,838
242,24	7,856
242,46	18,631
242,67	1,693
242,89	11,224
243,10	11,943
243,32	10,614
243,53	13,838
243,75	4,818
243,96	0,414
244,18	5,427
244,39	4,224
244,60	9,564
244,82	5,230
245,03	19,039
245,25	6,098
245,46	12,292
245,68	4,677
245,89	11,050
246,11	13,941
246,32	7,261
246,54	5,001
246,75	10,253
246,97	4,419
247,18	12,074
247,39	0,478
247,61	7,402
247,82	3,361
248,04	5,337
248,25	7,191
248,47	6,946
248,68	9,490
248,90	-2,937
249,11	9,693
249,33	17,963
249,54	5,166
249,75	4,981
249,97	4,066
250,18	9,270
250,40	17,980
250,61	-6,364
250,83	1,441
251,04	0,379
251,25	11,809
251,47	-2,034
251,68	0,927
251,90	5,930
252,11	9,604
252,33	4,845
252,54	6,391
252,76	6,248
252,97	1,884
253,18	-4,443
253,40	4,711
253,61	-1,921
253,83	11,628
254,04	11,182
254,25	5,634
254,47	2,759
254,68	2,717
254,90	5,529
255,11	5,965
255,33	3,725
255,54	-0,912
255,75	-1,272
255,97	4,543
256,18	1,610
256,40	5,411
256,61	3,758
256,82	-1,532
257,04	4,238
257,25	1,248
257,47	3,480
257,68	6,584
257,89	9,665
258,11	9,329
258,32	3,410
258,54	4,716
258,75	5,669
258,96	12,205
259,18	7,518
259,39	4,062
259,61	5,953
259,82	4,277
260,03	4,660
260,25	1,804
260,46	0,300
260,68	4,486
260,89	3,143
261,10	2,493
261,32	3,773
261,53	2,208
261,75	9,092
261,96	-0,060
262,17	6,702
262,39	6,284
262,60	0,104
262,81	-0,766
263,03	7,749
263,24	3,886
263,46	1,745
263,67	-0,361
263,88	1,617
264,10	5,634
264,31	1,226
264,52	4,450
264,74	6,398
264,95	1,008
265,17	6,660
265,38	3,800
265,59	6,195
265,81	5,565
266,02	2,452
266,23	1,556
266,45	3,529
266,66	7,806
266,87	7,301
267,09	3,284
267,30	3,899
267,52	5,521
267,73	3,008
267,94	4,668
268,16	8,566
268,37	3,721
268,58	2,507
268,80	0,697
269,01	4,268
269,22	5,690
269,44	7,294
269,65	3,623
269,86	-0,511
270,08	6,781
270,29	2,141
270,50	5,062
270,72	4,006
270,93	0,853
271,14	-0,345
271,36	2,479
271,57	2,699
271,78	3,756
272,00	6,368
272,21	3,583
272,42	3,252
272,64	4,795
272,85	1,304
273,06	1,383
273,28	4,841
273,49	4,900
273,70	7,289
273,92	5,257
274,13	6,670
274,34	1,154
274,56	7,272
274,77	-0,905
274,98	5,984
275,20	5,867
275,41	7,069
275,62	4,538
275,84	4,967
276,05	10,068
276,26	-0,403
276,47	-1,642
276,69	3,081
276,90	3,477
277,11	1,272
277,33	1,442
277,54	4,440
277,75	3,730
277,97	4,548
278,18	2,917
278,39	7,469
278,61	3,686
278,82	5,338
279,03	5,624
279,24	2,919
279,46	3,077
279,67	6,154
279,88	3,788
280,10	7,419
280,31	-1,601
280,52	4,222
280,73	-1,234
280,95	3,102
281,16	11,708
281,37	3,818
281,59	9,004
281,80	10,046
282,01	1,861
282,22	2,011
282,44	-0,868
282,65	6,729
282,86	5,534
283,08	4,642
283,29	3,615
283,50	0,637
283,71	5,458
283,93	3,769
284,14	6,600
284,35	2,098
284,56	5,243
284,78	2,311
284,99	3,880
285,20	6,036
285,42	2,053
285,63	1,514
285,84	-0,259
286,05	0,839
286,27	4,508
286,48	-1,203
286,69	1,303
286,90	0,714
287,12	3,199
287,33	-0,295
287,54	0,710
287,75	3,293
287,97	3,325
288,18	2,243
288,39	-0,447
288,60	2,536
288,82	2,159
289,03	2,569
289,24	2,262
289,45	5,947
289,67	2,318
289,88	0,499
290,09	2,907
290,30	5,406
290,52	1,911
290,73	3,138
290,94	-0,452
291,15	2,682
291,37	4,240
291,58	3,223
291,79	2,951
292,00	3,452
292,21	6,537
292,43	3,123
292,64	2,490
292,85	1,863
293,06	6,707
293,28	1,540
293,49	-0,460
293,70	4,448
293,91	2,341
294,12	4,818
294,34	2,444
294,55	3,200
294,76	2,410
294,97	5,556
295,19	1,062
295,40	4,718
295,61	3,678
295,82	-0,733
296,03	4,020
296,25	-0,037
296,46	2,034
296,67	3,214
296,88	0,116
297,09	2,594
297,31	3,316
297,52	4,710
297,73	1,487
297,94	5,902
298,15	3,568
298,37	1,505
298,58	3,720
298,79	1,691
299,00	1,275
299,21	3,192
299,43	3,515
299,64	6,308
299,85	3,394
300,06	3,268
300,27	1,904
300,49	6,015
300,70	2,474
300,91	2,587
301,12	4,488
301,33	5,313
301,54	4,060
301,76	3,578
301,97	2,030
302,18	1,109
302,39	5,185
302,60	4,633
302,82	2,052
303,03	6,181
303,24	2,849
303,45	1,720
303,66	3,781
303,87	2,650
304,09	6,161
304,30	3,052
304,51	3,591
304,72	3,554
304,93	3,989
305,14	3,779
305,36	1,966
305,57	0,669
305,78	3,701
305,99	0,930
306,20	1,868
306,41	0,063
306,62	0,487
306,84	2,402
307,05	0,308
307,26	1,647
307,47	4,532
307,68	2,565
307,89	2,114
308,11	5,343
308,32	3,194
308,53	3,176
308,74	0,999
308,95	2,182
309,16	3,055
309,37	5,221
309,59	2,048
309,80	3,057
310,01	3,270
310,22	4,227
310,43	0,602
310,64	4,311
310,85	5,318
311,06	1,597
311,28	5,033
311,49	2,241
311,70	6,856
311,91	1,264
312,12	3,235
312,33	4,722
312,54	3,831
312,75	2,548
312,97	2,215
313,18	3,863
313,39	2,424
313,60	2,940
313,81	0,135
314,02	3,891
314,23	3,943
314,44	2,158
314,65	2,818
314,87	2,371
315,08	2,103
315,29	5,927
315,50	3,722
315,71	4,907
315,92	4,906
316,13	3,542
316,34	2,935
316,55	3,313
316,77	0,267
316,98	2,574
317,19	0,280
317,40	5,716
317,61	5,007
317,82	0,229
318,03	1,013
318,24	2,344
318,45	3,621
318,66	1,472
318,87	0,747
319,09	3,250
319,30	2,396
319,51	2,570
319,72	3,877
319,93	4,653
320,14	2,490
320,35	4,167
320,56	2,894
320,77	0,989
320,98	7,875
321,19	2,253
321,40	5,189
321,62	6,158
321,83	3,215
322,04	3,634
322,25	0,230
322,46	7,196
322,67	4,421
322,88	3,219
323,09	2,526
323,30	3,925
323,51	5,626
323,72	5,182
323,93	1,264
324,14	0,816
324,35	-1,901
324,56	0,722
324,77	0,968
324,99	1,434
325,20	0,065
325,41	3,241
325,62	4,248
325,83	3,358
326,04	3,272
326,25	3,723
326,46	2,293
326,67	4,631
326,88	4,459
327,09	2,145
327,30	2,861
327,51	2,211
327,72	2,625
327,93	4,298
328,14	0,503
328,35	2,483
328,56	3,891
328,77	3,184
328,98	2,979
329,19	3,429
329,40	2,631
329,61	1,930
329,82	0,686
330,04	1,676
330,25	1,776
330,46	3,576
330,67	1,075
330,88	1,867
331,09	2,266
331,30	3,225
331,51	3,297
331,72	2,134
331,93	1,994
332,14	0,580
332,35	4,567
332,56	2,810
332,77	5,458
332,98	1,171
333,19	1,119
333,40	4,880
333,61	3,593
333,82	5,348
334,03	3,351
334,24	5,722
334,45	1,946
334,66	5,553
334,87	3,276
335,08	3,380
335,29	1,314
335,50	0,336
335,71	1,300
335,92	5,333
336,13	4,990
336,34	2,834
336,55	6,457
336,76	3,199
336,97	3,400
337,18	-0,091
337,39	2,836
337,60	1,494
337,81	2,607
338,02	1,878
338,23	3,020
338,44	4,794
338,65	2,596
338,86	3,848
339,07	1,905
339,28	5,699
339,49	4,992
339,70	2,002
339,91	0,226
340,11	5,978
340,32	1,589
340,53	0,631
340,74	1,406
340,95	2,065
341,16	6,431
341,37	4,172
341,58	1,898
341,79	3,504
342,00	3,463
342,21	2,690
342,42	-0,039
342,63	1,732
342,84	-0,918
343,05	1,236
343,26	4,258
343,47	1,202
343,68	1,229
343,89	3,305
344,10	4,789
344,31	5,898
344,52	0,963
344,73	2,399
344,94	1,403
345,14	1,229
345,35	3,653
345,56	2,391
345,77	1,784
345,98	4,625
346,19	0,956
346,40	2,738
346,61	2,412
346,82	1,480
347,03	3,282
347,24	5,709
347,45	1,976
347,66	6,339
347,87	3,183
348,08	5,394
348,28	0,701
348,49	2,306
348,70	3,913
348,91	4,022
349,12	0,729
349,33	17,159
349,54	2,407
349,75	5,427
349,96	2,091
350,17	1,674
350,38	1,478
350,59	5,579
350,80	4,202
351,00	1,744
351,21	7,137
351,42	3,880
351,63	-0,491
351,84	2,681
352,05	5,301
352,26	2,061
352,47	0,892
352,68	6,852
352,89	5,865
353,09	4,121
353,30	1,251
353,51	3,792
353,72	5,427
353,93	5,481
354,14	-0,568
354,35	0,588
354,56	2,993
354,77	0,218
354,98	-2,166
355,18	6,041
355,39	7,072
355,60	4,578
355,81	2,187
356,02	2,725
356,23	2,508
356,44	2,626
356,65	2,828
356,85	8,321
357,06	3,620
357,27	2,670
357,48	4,575
357,69	4,762
357,90	2,444
358,11	2,570
358,32	3,179
358,52	6,562
358,73	0,785
358,94	2,441
359,15	5,101
359,36	5,445
359,57	1,443
359,78	4,400
359,98	1,518
360,19	-0,465
360,40	5,363
360,61	7,605
360,82	1,364
361,03	7,082
361,24	3,034
361,44	2,195
361,65	2,348
361,86	4,255
362,07	5,489
362,28	1,625
362,49	0,565
362,70	0,372
362,90	4,927
363,11	0,224
363,32	1,004
363,53	5,647
363,74	2,882
363,95	4,680
364,15	4,525
364,36	5,101
364,57	2,289
364,78	0,522
364,99	2,566
365,20	3,898
365,40	4,701
365,61	-0,591
365,82	-0,161
366,03	1,400
366,24	4,036
366,45	4,049
366,65	2,899
366,86	4,373
367,07	2,094
367,28	2,517
367,49	3,936
367,69	5,255
367,90	2,889
368,11	2,107
368,32	-0,045
368,53	2,591
368,73	4,795
368,94	0,527
369,15	1,359
369,36	1,274
369,57	2,456
369,78	-0,888
369,98	3,815
370,19	8,953
370,40	5,013
370,61	3,716
370,82	3,999
371,02	2,970
371,23	6,359
371,44	4,627
371,65	2,047
371,85	4,542
372,06	3,487
372,27	2,450
372,48	1,844
372,69	3,678
372,89	3,798
373,10	3,824
373,31	1,572
373,52	4,214
373,73	6,800
373,93	3,622
374,14	1,177
374,35	4,047
374,56	6,345
374,76	4,070
374,97	1,896
375,18	4,512
375,39	4,133
375,60	6,933
375,80	4,495
376,01	2,112
376,22	6,703
376,43	1,864
376,63	3,028
376,84	2,362
377,05	6,785
377,26	0,914
377,46	-2,250
377,67	3,803
377,88	4,572
378,09	2,778
378,29	-2,974
378,50	3,635
378,71	3,263
378,92	3,427
379,12	2,539
379,33	3,368
379,54	3,162
379,75	3,468
379,95	1,353
380,16	4,855
380,37	4,463
380,58	5,325
380,78	4,565
380,99	3,223
381,20	1,210
381,41	4,533
381,61	4,125
381,82	4,832
382,03	5,086
382,24	4,696
382,44	2,235
382,65	0,752
382,86	5,123
383,06	2,008
383,27	2,119
383,48	2,771
383,69	4,247
383,89	4,728
384,10	3,899
384,31	0,611
384,51	4,004
384,72	1,612
384,93	4,491
385,14	4,143
385,34	3,098
385,55	3,325
385,76	4,927
385,96	5,002
386,17	4,111
386,38	5,319
386,59	6,271
386,79	1,232
387,00	7,038
387,21	4,826
387,41	3,390
387,62	0,480
387,83	6,865
388,03	1,456
388,24	2,251
388,45	4,099
388,66	6,072
388,86	0,757
389,07	-1,842
389,28	7,851
389,48	6,780
389,69	1,881
389,90	1,723
390,10	6,734
390,31	3,886
390,52	-2,039
390,72	4,032
390,93	0,881
391,14	2,809
391,34	3,926
391,55	3,581
391,76	5,283
391,96	2,685
392,17	6,093
392,38	6,331
392,58	5,238
392,79	2,465
393,00	-0,482
393,20	2,862
393,41	1,137
393,62	3,098
393,82	2,475
394,03	0,987
394,24	6,884
394,44	5,861
394,65	4,851
394,86	3,853
395,06	1,528
395,27	2,948
395,48	0,019
395,68	3,585
395,89	5,312
396,10	4,633
396,30	2,868
396,51	4,424
396,72	6,757
396,92	-1,533
397,13	4,272
397,34	1,218
397,54	2,105
397,75	0,404
397,95	1,746
398,16	6,965
398,37	3,590
398,57	2,933
398,78	4,272
398,99	6,055
399,19	3,362
399,40	3,681
399,60	3,020
399,81	2,455
400,02	3,287
400,22	4,492
400,43	4,036
400,64	5,146
400,84	3,037
401,05	4,571
401,25	4,707
401,46	3,343
401,67	2,212
401,87	0,517
402,08	3,166
402,29	0,326
402,49	3,936
402,70	8,411
402,90	1,790
403,11	1,643
403,32	3,827
403,52	1,632
403,73	4,139
403,93	3,596
404,14	5,907
404,35	5,334
404,55	1,647
404,76	3,035
404,96	4,672
405,17	6,277
405,38	7,231
405,58	2,394
405,79	3,175
405,99	7,224
406,20	2,791
406,40	0,205
406,61	4,273
406,82	0,674
407,02	5,545
407,23	5,038
407,43	2,059
407,64	1,468
407,85	-0,698
408,05	-1,736
408,26	11,123
408,46	7,846
408,67	-0,993
408,87	3,299
409,08	3,578
409,29	5,445
409,49	4,322
409,70	6,043
409,90	5,070
410,11	2,686
410,31	6,971
410,52	0,403
410,72	1,871
410,93	6,434
411,14	2,426
411,34	1,311
411,55	6,280
411,75	4,618
411,96	1,269
412,16	4,027
412,37	3,035
412,57	4,579
412,78	4,138
412,99	1,363
413,19	0,467
413,40	5,164
413,60	-0,892
413,81	0,683
414,01	2,802
414,22	1,881
414,42	-2,834
414,63	1,531
414,83	5,568
415,04	2,078
415,24	3,237
415,45	3,670
415,65	6,808
415,86	6,928
416,07	3,347
416,27	5,423
416,48	8,840
416,68	7,322
416,89	3,173
417,09	4,804
417,30	6,239
417,50	3,285
417,71	5,970
417,91	7,384
418,12	2,661
418,32	3,932
418,53	0,903
418,73	1,737
418,94	2,606
419,14	2,851
419,35	3,574
419,55	4,667
419,76	3,849
419,96	1,692
420,17	5,506
420,37	-3,667
420,58	4,452
420,78	6,350
420,99	5,095
421,19	4,419
421,40	4,699
421,60	5,848
421,81	1,698
422,01	3,650
422,22	3,067
422,42	3,119
422,63	6,062
422,83	4,065
423,04	7,537
423,24	8,936
423,45	0,781
423,65	6,194
423,86	7,928
424,06	5,156
424,27	2,482
424,47	1,065
424,67	-0,807
424,88	5,458
425,08	6,303
425,29	9,584
425,49	4,165
425,70	-4,378
425,90	4,601
426,11	5,918
426,31	4,417
426,52	2,918
426,72	1,056
426,93	5,657
427,13	7,976
427,33	3,861
427,54	6,211
427,74	4,878
427,95	8,881
428,15	0,742
428,36	8,154
428,56	6,388
428,77	6,845
428,97	5,967
429,18	2,481
429,38	3,113
429,58	5,642
429,79	4,591
429,99	4,375
430,20	0,883
430,40	6,533
430,61	1,983
430,81	0,539
431,01	6,826
431,22	8,992
431,42	8,879
431,63	2,608
431,83	4,752
432,04	5,886
432,24	7,640
432,44	4,262
432,65	2,482
432,85	1,382
433,06	7,635
433,26	5,672
433,47	3,585
433,67	2,980
433,87	4,362
434,08	4,601
434,28	7,883
434,49	4,967
434,69	7,371
434,89	1,930
435,10	7,660
435,30	6,346
435,51	1,881
435,71	3,170
435,91	6,593
436,12	1,975
436,32	3,547
436,53	4,552
436,73	4,953
436,93	4,757
437,14	6,198
437,34	5,622
437,55	2,790
437,75	4,765
437,95	2,892
438,16	5,362
438,36	0,915
438,57	2,098
438,77	4,803
438,97	5,576
439,18	6,159
439,38	2,146
439,58	5,921
439,79	2,359
439,99	5,130
440,20	7,088
440,40	8,097
440,60	4,246
440,81	7,041
441,01	2,765
441,21	11,544
441,42	5,943
441,62	6,313
441,83	6,579
442,03	0,443
442,23	5,392
442,44	7,253
442,64	5,748
442,84	1,309
443,05	7,386
443,25	2,968
443,45	5,376
443,66	5,504
443,86	4,765
444,06	1,849
444,27	7,113
444,47	2,709
444,67	5,579
444,88	7,374
445,08	8,836
445,28	5,735
445,49	0,956
445,69	4,488
445,90	8,820
446,10	10,760
446,30	8,787
446,51	5,783
446,71	11,171
446,91	10,869
447,12	10,559
447,32	5,825
447,52	9,135
447,72	8,546
447,93	8,932
448,13	3,869
448,33	9,999
448,54	9,504
448,74	5,131
448,94	10,547
449,15	10,646
449,35	6,428
449,55	5,884
449,76	10,102
449,96	9,930
450,16	10,301
450,37	2,993
450,57	7,914
450,77	6,181
450,98	8,170
451,18	8,706
451,38	7,146
451,58	9,284
451,79	11,680
451,99	13,275
452,19	9,137
452,40	11,264
452,60	4,636
452,80	8,139
453,00	10,323
453,21	7,696
453,41	7,842
453,61	4,247
453,82	6,768
454,02	5,437
454,22	9,133
454,42	12,805
454,63	9,173
454,83	8,704
455,03	9,166
455,24	9,972
455,44	6,387
455,64	8,901
455,84	5,012
456,05	7,033
456,25	7,493
456,45	11,129
456,65	5,732
456,86	11,492
457,06	13,479
457,26	9,022
457,47	15,435
457,67	8,355
457,87	10,700
458,07	9,580
458,28	13,174
458,48	14,489
458,68	6,152
458,88	10,235
459,09	13,222
459,29	16,497
459,49	12,763
459,69	12,601
459,90	10,448
460,10	10,178
460,30	11,911
460,50	9,839
460,71	8,621
460,91	10,189
461,11	10,549
461,31	6,609
461,52	12,230
461,72	10,019
461,92	15,796
462,12	19,820
462,32	7,874
462,53	11,344
462,73	11,955
462,93	12,200
463,13	10,674
463,34	10,332
463,54	12,356
463,74	13,671
463,94	12,291
464,14	14,804
464,35	7,153
464,55	13,837
464,75	16,848
464,95	13,241
465,16	10,700
465,36	15,019
465,56	12,534
465,76	10,233
465,96	12,796
466,17	13,904
466,37	12,195
466,57	16,779
466,77	15,160
466,97	12,338
467,18	14,856
467,38	13,241
467,58	16,216
467,78	17,528
467,98	15,770
468,19	18,575
468,39	15,774
468,59	14,616
468,79	19,520
468,99	9,780
469,19	16,565
469,40	19,340
469,60	11,103
469,80	9,567
470,00	20,112
470,20	21,980
470,41	17,877
470,61	19,401
470,81	17,053
471,01	14,684
471,21	18,095
471,41	18,234
471,62	16,602
471,82	15,750
472,02	16,973
472,22	19,824
472,42	17,613
472,62	19,239
472,83	15,715
473,03	19,445
473,23	16,510
473,43	23,061
473,63	18,350
473,83	20,976
474,03	15,699
474,24	24,045
474,44	19,750
474,64	20,065
474,84	17,631
475,04	22,654
475,24	21,857
475,45	20,901
475,65	19,845
475,85	25,247
476,05	19,888
476,25	21,720
476,45	19,478
476,65	28,824
476,85	23,602
477,06	23,580
477,26	22,705
477,46	21,251
477,66	22,161
477,86	23,159
478,06	20,782
478,26	28,050
478,46	21,399
478,67	24,204
478,87	20,921
479,07	23,958
479,27	25,060
479,47	23,153
479,67	20,692
479,87	20,640
480,07	27,998
480,28	23,295
480,48	21,776
480,68	25,399
480,88	26,707
481,08	28,358
481,28	24,271
481,48	27,622
481,68	24,788
481,88	24,905
482,08	22,704
482,29	30,439
482,49	25,450
482,69	25,645
482,89	26,576
483,09	28,489
483,29	24,747
483,49	24,978
483,69	27,552
483,89	27,240
484,09	26,749
484,29	22,991
484,50	24,624
484,70	26,783
484,90	27,660
485,10	27,613
485,30	28,131
485,50	32,441
485,70	28,569
485,90	26,190
486,10	25,445
486,30	28,815
486,50	27,452
486,70	26,603
486,90	29,208
487,10	27,371
487,30	29,473
487,51	30,803
487,71	26,323
487,91	25,519
488,11	28,382
488,31	24,520
488,51	31,909
488,71	29,220
488,91	30,494
489,11	28,514
489,31	30,329
489,51	29,064
489,71	32,236
489,91	28,957
490,11	29,690
490,31	32,749
490,51	31,363
490,71	31,188
490,91	29,608
491,11	31,360
491,31	33,972
491,51	28,749
491,72	31,586
491,92	30,389
492,12	34,019
492,32	33,762
492,52	36,562
492,72	33,496
492,92	31,170
493,12	33,203
493,32	31,200
493,52	31,922
493,72	36,583
493,92	36,089
494,12	34,294
494,32	34,619
494,52	32,078
494,72	33,958
494,92	33,525
495,12	36,241
495,32	35,078
495,52	35,701
495,72	35,970
495,92	37,736
496,12	39,226
496,32	32,573
496,52	35,202
496,72	36,042
496,92	37,974
497,12	34,057
497,32	36,749
497,52	37,955
497,72	38,987
497,92	37,147
498,12	35,082
498,32	36,373
498,52	37,617
498,72	33,782
498,92	34,560
499,12	39,598
499,32	35,857
499,52	38,461
499,72	39,627
499,92	40,422
500,12	39,150
500,32	41,745
500,52	39,493
500,72	43,483
500,91	40,487
501,11	39,777
501,31	35,394
501,51	41,219
501,71	42,767
501,91	41,138
502,11	39,559
502,31	39,822
502,51	41,648
502,71	40,143
502,91	39,266
503,11	39,782
503,31	38,786
503,51	36,725
503,71	38,510
503,91	41,761
504,11	41,251
504,31	39,534
504,51	40,179
504,71	44,604
504,91	40,259
505,10	44,742
505,30	40,233
505,50	41,922
505,70	38,175
505,90	42,535
506,10	40,177
506,30	41,856
506,50	41,496
506,70	44,984
506,90	43,416
507,10	41,667
507,30	42,562
507,50	42,622
507,70	42,104
507,89	44,872
508,09	42,189
508,29	41,970
508,49	41,048
508,69	41,267
508,89	42,248
509,09	41,318
509,29	43,122
509,49	43,794
509,69	47,582
509,89	42,905
510,09	39,529
510,28	43,208
510,48	43,878
510,68	43,862
510,88	42,055
511,08	43,522
511,28	44,081
511,48	42,463
511,68	42,190
511,88	39,262
512,07	45,037
512,27	45,445
512,47	44,300
512,67	42,147
512,87	43,694
513,07	44,200
513,27	40,116
513,47	43,494
513,67	41,856
513,86	43,887
514,06	41,920
514,26	43,442
514,46	44,262
514,66	45,452
514,86	43,643
515,06	44,168
515,26	48,857
515,45	43,861
515,65	41,320
515,85	42,250
516,05	42,115
516,25	43,906
516,45	45,199
516,65	45,381
516,84	42,267
517,04	44,588
517,24	43,279
517,44	46,171
517,64	46,781
517,84	46,778
518,04	46,032
518,23	47,638
518,43	47,504
518,63	41,966
518,83	43,525
519,03	44,867
519,23	45,249
519,42	45,291
519,62	44,343
519,82	44,507
520,02	43,813
520,22	43,577
520,42	43,444
520,61	46,842
520,81	46,774
521,01	46,287
521,21	44,562
521,41	45,614
521,61	47,628
521,80	44,282
522,00	45,236
522,20	45,181
522,40	47,222
522,60	42,455
522,79	44,556
522,99	47,952
523,19	46,188
523,39	44,758
523,59	46,906
523,78	47,701
523,98	44,695
524,18	45,768
524,38	43,034
524,58	46,861
524,77	46,672
524,97	45,513
525,17	47,133
525,37	46,364
525,57	48,002
525,76	46,414
525,96	48,549
526,16	44,970
526,36	43,645
526,56	42,706
526,75	42,258
526,95	46,177
527,15	45,461
527,35	45,287
527,55	46,568
527,74	48,374
527,94	44,114
528,14	42,802
528,34	46,403
528,53	46,861
528,73	43,008
528,93	46,795
529,13	44,422
529,32	44,927
529,52	47,157
529,72	44,070
529,92	43,622
530,12	46,488
530,31	44,063
530,51	47,385
530,71	45,930
530,91	45,740
531,10	42,560
531,30	45,332
531,50	44,858
531,70	46,209
531,89	45,062
532,09	45,256
532,29	44,991
532,49	42,212
532,68	47,842
532,88	45,244
533,08	45,162
533,28	43,098
533,47	46,541
533,67	45,486
533,87	44,655
534,06	49,087
534,26	43,097
534,46	45,077
534,66	47,535
534,85	50,187
535,05	43,632
535,25	43,826
535,45	44,079
535,64	45,137
535,84	43,930
536,04	41,993
536,23	44,770
536,43	44,964
536,63	42,929
536,83	44,728
537,02	44,288
537,22	42,858
537,42	42,469
537,61	42,715
537,81	45,558
538,01	42,419
538,20	44,455
538,40	40,701
538,60	43,226
538,80	41,043
538,99	42,076
539,19	39,816
539,39	37,425
539,58	41,129
539,78	37,694
539,98	38,983
540,17	35,695
540,37	37,902
540,57	35,023
540,76	37,643
540,96	34,539
541,16	36,893
541,36	33,835
541,55	31,010
541,75	30,335
541,95	33,375
542,14	31,749
542,34	29,692
542,54	29,843
542,73	30,224
542,93	31,134
543,13	31,002
543,32	30,222
543,52	30,314
543,72	28,240
543,91	31,175
544,11	30,756
544,31	31,557
544,50	31,079
544,70	32,092
544,89	30,897
545,09	32,362
545,29	30,784
545,48	32,386
545,68	32,400
545,88	32,461
546,07	32,921
546,27	33,408
546,47	34,634
546,66	35,708
546,86	37,244
547,06	34,745
547,25	35,406
547,45	38,684
547,64	39,090
547,84	42,211
548,04	38,308
548,23	40,796
548,43	42,968
548,63	42,393
548,82	40,356
549,02	39,576
549,21	38,573
549,41	39,631
549,61	41,341
549,80	40,258
550,00	41,161
550,20	39,526
550,39	41,127
550,59	38,958
550,78	45,247
550,98	40,494
551,18	42,133
551,37	43,005
551,57	41,038
551,76	41,363
551,96	41,544
552,16	41,534
552,35	42,969
552,55	44,092
552,74	41,769
552,94	44,862
553,14	41,751
553,33	42,137
553,53	42,353
553,72	43,034
553,92	45,890
554,12	42,720
554,31	44,328
554,51	43,300
554,70	43,036
554,90	41,643
555,09	46,213
555,29	46,520
555,49	42,082
555,68	45,114
555,88	44,399
556,07	45,086
556,27	46,563
556,46	43,881
556,66	41,891
556,86	45,898
557,05	45,833
557,25	43,911
557,44	42,747
557,64	43,620
557,83	46,252
558,03	43,854
558,22	43,687
558,42	45,657
558,62	46,724
558,81	42,791
559,01	44,194
559,20	45,594
559,40	45,184
559,59	44,649
559,79	45,411
559,98	46,405
560,18	44,208
560,37	45,093
560,57	43,445
560,76	43,175
560,96	44,946
561,16	47,012
561,35	46,129
561,55	48,817
561,74	45,260
561,94	46,499
562,13	44,757
562,33	45,720
562,52	46,506
562,72	47,207
562,91	44,148
563,11	44,595
563,30	48,377
563,50	43,719
563,69	45,847
563,89	42,937
564,08	46,227
564,28	43,045
564,47	45,412
564,67	43,697
564,86	46,396
565,06	43,347
565,25	44,848
565,45	45,879
565,64	45,697
565,84	43,346
566,03	43,892
566,23	45,044
566,42	44,884
566,62	45,046
566,81	43,369
567,01	45,886
567,20	45,809
567,40	44,614
567,59	45,433
567,79	48,355
567,98	45,941
568,18	45,576
568,37	46,592
568,57	46,321
568,76	48,121
568,96	45,574
569,15	43,819
569,35	46,241
569,54	47,417
569,73	47,465
569,93	46,081
570,12	45,661
570,32	46,743
570,51	45,142
570,71	46,695
570,90	47,711
571,10	44,742
571,29	44,797
571,49	44,964
571,68	46,725
571,87	46,448
572,07	46,511
572,26	42,905
572,46	45,077
572,65	45,038
572,85	43,231
573,04	45,450
573,24	45,447
573,43	48,251
573,62	46,627
573,82	45,570
574,01	44,845
574,21	46,008
574,40	43,825
574,60	44,485
574,79	46,941
574,98	44,838
575,18	45,948
575,37	44,924
575,57	44,866
575,76	47,378
575,96	44,465
576,15	45,464
576,34	44,068
576,54	45,028
576,73	45,458
576,93	44,710
577,12	46,372
577,31	45,858
577,51	43,576
577,70	44,215
577,90	45,349
578,09	43,836
578,28	43,443
578,48	43,837
578,67	45,099
578,87	45,490
579,06	44,144
579,25	43,900
579,45	43,357
579,64	42,851
579,84	44,464
580,03	43,853
580,22	45,417
580,42	43,481
580,61	42,752
580,81	43,142
581,00	44,324
581,19	45,844
581,39	43,444
581,58	43,046
581,77	44,121
581,97	46,594
582,16	43,955
582,35	43,705
582,55	42,610
582,74	45,684
582,94	44,586
583,13	40,859
583,32	42,372
583,52	44,471
583,71	43,128
583,90	42,941
584,10	43,489
584,29	44,074
584,48	42,133
584,68	41,290
584,87	43,682
585,06	41,871
585,26	42,084
585,45	41,929
585,65	44,405
585,84	43,318
586,03	43,881
586,23	41,717
586,42	43,411
586,61	45,216
586,81	42,248
587,00	42,741
587,19	40,933
587,39	43,742
587,58	43,467
587,77	44,305
587,97	43,156
588,16	41,225
588,35	41,910
588,54	43,667
588,74	42,513
588,93	44,038
589,12	43,023
589,32	42,285
589,51	43,255
589,70	40,685
589,90	40,846
590,09	43,591
590,28	44,924
590,48	42,486
590,67	43,593
590,86	42,894
591,06	43,551
591,25	46,703
591,44	42,793
591,63	43,491
591,83	45,029
592,02	43,984
592,21	42,673
592,41	44,039
592,60	45,091
592,79	43,884
592,98	44,746
593,18	45,820
593,37	43,695
593,56	44,534
593,76	44,797
593,95	44,502
594,14	43,362
594,33	46,117
594,53	44,350
594,72	43,172
594,91	47,565
595,10	45,413
595,30	43,557
595,49	43,759
595,68	45,174
595,88	44,640
596,07	45,187
596,26	44,862
596,45	45,019
596,65	43,476
596,84	45,275
597,03	44,830
597,22	45,312
597,42	45,062
597,61	44,182
597,80	45,237
597,99	45,186
598,19	44,476
598,38	45,919
598,57	43,909
598,76	45,415
598,95	46,394
599,15	44,817
599,34	45,236
599,53	44,967
599,72	44,692
599,92	44,591
600,11	44,512
600,30	46,903
600,49	46,749
600,69	43,534
600,88	44,873
601,07	44,789
601,26	45,045
601,45	44,406
601,65	42,145
601,84	44,659
602,03	44,300
602,22	45,833
602,42	46,377
602,61	44,285
602,80	44,713
602,99	45,079
603,18	42,838
603,38	46,260
603,57	44,800
603,76	45,693
603,95	44,412
604,14	45,978
604,34	45,939
604,53	44,252
604,72	45,422
604,91	45,455
605,10	45,763
605,29	45,566
605,49	44,317
605,68	44,204
605,87	45,333
606,06	45,053
606,25	44,279
606,45	43,747
606,64	43,533
606,83	44,872
607,02	43,678
607,21	44,604
607,40	43,588
607,60	42,260
607,79	41,340
607,98	40,095
608,17	38,677
608,36	39,718
608,55	40,614
608,75	40,118
608,94	40,258
609,13	36,969
609,32	36,729
609,51	36,493
609,70	37,521
609,89	37,665
610,09	36,384
610,28	37,782
610,47	35,959
610,66	35,148
610,85	34,897
611,04	36,629
611,23	35,361
611,43	35,935
611,62	34,778
611,81	34,387
612,00	35,841
612,19	34,613
612,38	37,093
612,57	36,780
612,77	36,280
612,96	37,286
613,15	37,771
613,34	38,758
613,53	39,627
613,72	40,468
613,91	40,086
614,10	40,839
614,29	41,131
614,49	40,413
614,68	40,632
614,87	42,240
615,06	43,730
615,25	40,793
615,44	42,469
615,63	41,644
615,82	39,639
616,01	42,938
616,21	42,725
616,40	43,867
616,59	45,022
616,78	42,516
616,97	43,283
617,16	42,513
617,35	44,374
617,54	42,378
617,73	43,687
617,92	42,537
618,11	41,949
618,31	40,069
618,50	44,017
618,69	40,989
618,88	41,199
619,07	41,466
619,26	42,078
619,45	41,694
619,64	41,323
619,83	40,861
620,02	39,890
620,21	43,966
620,40	42,277
620,59	40,974
620,78	42,029
620,97	43,024
621,17	43,077
621,36	41,532
621,55	42,968
621,74	43,140
621,93	42,023
622,12	41,606
622,31	41,272
622,50	40,979
622,69	44,275
622,88	43,131
623,07	45,271
623,26	44,629
623,45	44,111
623,64	42,957
623,83	41,866
624,02	44,136
624,21	44,413
624,40	43,175
624,59	42,510
624,78	43,057
624,97	45,625
625,16	42,081
625,35	40,858
625,54	41,736
625,73	42,444
625,92	43,383
626,12	42,720
626,31	45,000
626,50	41,736
626,69	43,244
626,88	42,336
627,07	43,683
627,26	43,524
627,45	42,504
627,64	41,588
627,83	42,447
628,02	42,066
628,21	43,198
628,40	42,910
628,59	44,056
628,78	41,932
628,97	41,854
629,16	40,411
629,35	40,682
629,54	43,052
629,73	42,465
629,92	40,667
630,10	42,598
630,29	42,799
630,48	42,508
630,67	41,581
630,86	43,793
631,05	42,868
631,24	43,737
631,43	41,419
631,62	41,977
631,81	42,483
632,00	42,551
632,19	41,507
632,38	42,340
632,57	45,476
632,76	42,530
632,95	41,542
633,14	44,790
633,33	43,254
633,52	43,378
633,71	44,561
633,90	42,851
634,09	41,066
634,28	42,364
634,47	42,008
634,66	43,883
634,85	42,858
635,04	45,457
635,22	43,152
635,41	43,103
635,60	44,248
635,79	44,519
635,98	42,275
636,17	43,896
636,36	42,891
636,55	43,753
636,74	39,680
636,93	42,708
637,12	44,409
637,31	43,437
637,50	42,391
637,69	43,358
637,87	42,309
638,06	41,647
638,25	42,132
638,44	44,220
638,63	40,772
638,82	43,612
639,01	43,713
639,20	44,207
639,39	44,397
639,58	41,519
639,77	44,974
639,95	41,303
640,14	43,583
640,33	43,400
640,52	41,996
640,71	45,657
640,90	42,652
641,09	44,896
641,28	44,227
641,47	44,637
641,66	43,104
641,84	43,153
642,03	43,225
642,22	44,111
642,41	44,997
642,60	42,815
642,79	44,910
642,98	43,649
643,17	43,792
643,35	42,644
643,54	43,974
643,73	41,673
643,92	43,190
644,11	44,445
644,30	42,561
644,49	45,789
644,67	41,629
644,86	42,750
645,05	42,958
645,24	43,832
645,43	43,038
645,62	43,308
645,81	44,316
645,99	44,147
646,18	43,224
646,37	43,021
646,56	43,427
646,75	44,927
646,94	43,547
647,13	43,549
647,31	41,983
647,50	43,544
647,69	45,658
647,88	43,203
648,07	43,619
648,26	46,569
648,44	43,000
648,63	41,597
648,82	44,235
649,01	45,960
649,20	42,056
649,38	43,912
649,57	45,761
649,76	42,103
649,95	42,077
650,14	40,991
650,33	42,348
650,51	43,443
650,70	44,364
650,89	42,938
651,08	42,101
651,27	43,694
651,45	42,738
651,64	42,903
651,83	44,230
652,02	42,732
652,21	43,428
652,39	43,973
652,58	43,972
652,77	41,950
652,96	43,308
653,15	43,285
653,33	44,269
653,52	43,363
653,71	44,752
653,90	44,594
654,09	44,746
654,27	43,887
654,46	45,304
654,65	44,058
654,84	44,556
655,02	45,352
655,21	45,472
655,40	44,777
655,59	44,288
655,77	45,614
655,96	43,157
656,15	44,868
656,34	45,249
656,53	44,262
656,71	44,654
656,90	44,847
657,09	44,827
657,28	44,028
657,46	43,501
657,65	43,076
657,84	43,754
658,03	44,674
658,21	44,894
658,40	42,544
658,59	43,313
658,78	44,657
658,96	42,465
659,15	43,324
659,34	44,137
659,52	43,397
659,71	43,578
659,90	41,960
660,09	42,652
660,27	41,848
660,46	44,459
660,65	42,779
660,84	43,023
661,02	42,735
661,21	43,298
661,40	43,715
661,58	43,342
661,77	43,159
661,96	42,012
662,15	41,441
662,33	43,498
662,52	40,028
662,71	44,102
662,89	42,659
663,08	42,714
663,27	42,890
663,45	41,449
663,64	42,799
663,83	40,486
664,02	41,092
664,20	42,435
664,39	41,359
664,58	41,699
664,76	41,695
664,95	42,424
665,14	42,503
665,32	40,697
665,51	41,493
665,70	42,387
665,88	42,834
666,07	41,527
666,26	42,988
666,44	43,139
666,63	39,577
666,82	41,832
667,00	42,596
667,19	40,109
667,38	42,667
667,56	42,186
667,75	42,368
667,94	43,695
668,12	41,070
668,31	43,153
668,50	42,032
668,68	43,593
668,87	40,505
669,06	41,640
669,24	42,378
669,43	41,275
669,62	41,012
669,80	40,447
669,99	40,750
670,18	42,802
670,36	40,351
670,55	41,666
670,74	41,550
670,92	40,849
671,11	43,595
671,29	40,173
671,48	40,056
671,67	43,657
671,85	42,648
672,04	40,441
672,23	40,775
672,41	41,949
672,60	41,521
672,78	41,310
672,97	41,687
673,16	41,474
673,34	41,252
673,53	41,036
673,71	42,096
673,90	42,026
674,09	41,208
674,27	41,218
674,46	40,011
674,64	42,637
674,83	40,489
675,02	39,390
675,20	42,413
675,39	42,033
675,57	42,136
675,76	42,398
675,95	41,615
676,13	43,631
676,32	42,802
676,50	40,975
676,69	41,159
676,88	41,571
677,06	39,773
677,25	40,897
677,43	44,808
677,62	42,456
677,80	42,048
677,99	40,000
678,18	42,091
678,36	42,009
678,55	40,528
678,73	40,494
678,92	40,802
679,10	42,513
679,29	41,351
679,48	41,563
679,66	41,316
679,85	40,430
680,03	42,282
680,22	41,885
680,40	40,406
680,59	41,878
680,77	41,149
680,96	42,099
681,15	40,264
681,33	42,052
681,52	40,407
681,70	41,565
681,89	44,465
682,07	41,935
682,26	40,922
682,44	43,101
682,63	42,433
682,81	41,491
683,00	41,380
683,18	40,495
683,37	42,271
683,55	41,856
683,74	41,691
683,92	45,556
684,11	42,411
684,29	43,892
684,48	39,964
684,67	42,000
684,85	42,151
685,04	42,589
685,22	43,137
685,41	42,894
685,59	41,444
685,78	39,644
685,96	41,243
686,15	40,576
686,33	41,048
686,52	41,882
686,70	41,794
686,89	42,395
687,07	43,199
687,26	45,046
687,44	41,924
687,62	41,296
687,81	43,938
687,99	41,741
688,18	43,643
688,36	42,319
688,55	42,776
688,73	41,491
688,92	41,811
689,10	42,695
689,29	40,831
689,47	43,296
689,66	41,121
689,84	40,860
690,03	44,137
690,21	41,999
690,40	42,737
690,58	40,541
690,76	40,932
690,95	43,827
691,13	42,347
691,32	43,260
691,50	43,148
691,69	44,902
691,87	41,970
692,06	42,840
692,24	42,628
692,43	44,191
692,61	40,815
692,79	41,917
692,98	41,830
693,16	46,059
693,35	41,328
693,53	41,899
693,72	43,762
693,90	44,359
694,08	41,986
694,27	42,055
694,45	45,073
694,64	45,367
694,82	43,770
695,01	40,308
695,19	42,382
695,37	40,859
695,56	43,355
695,74	41,854
695,93	43,104
696,11	40,337
696,29	43,379
696,48	44,602
696,66	43,528
696,85	44,339
697,03	41,644
697,21	44,708
697,40	44,162
697,58	42,016
697,77	41,181
697,95	42,690
698,13	44,817
698,32	41,990
698,50	42,664
698,69	43,122
698,87	44,208
699,05	42,769
699,24	42,155
699,42	43,333
699,60	41,012
699,79	42,280
699,97	41,605
700,16	39,890
700,34	44,789
700,52	41,761
700,71	42,951
700,89	42,053
701,07	43,648
701,26	43,484
701,44	42,176
701,63	41,749
701,81	44,102
701,99	43,051
702,18	42,258
702,36	40,896
702,54	42,450
702,73	41,966
702,91	42,854
703,09	42,451
703,28	43,176
703,46	42,335
703,64	43,150
703,83	42,967
704,01	43,011
704,19	42,217
704,38	41,035
704,56	41,628
704,74	44,012
704,93	41,982
705,11	43,295
705,29	43,476
705,48	45,248
705,66	43,737
705,84	43,234
706,03	39,981
706,21	42,006
706,39	41,293
706,58	41,058
706,76	41,734
706,94	42,675
707,12	44,554
707,31	42,161
707,49	40,623
707,67	43,018
707,86	43,644
708,04	42,560
708,22	41,081
708,41	41,256
708,59	42,740
708,77	40,303
708,95	43,021
709,14	44,900
709,32	41,295
709,50	40,107
709,69	42,244
709,87	40,969
710,05	41,949
710,23	41,651
710,42	41,451
710,60	40,914
710,78	42,768
710,97	42,986
711,15	41,943
711,33	44,779
711,51	41,056
711,70	39,963
711,88	40,552
712,06	43,267
712,24	42,976
712,43	43,368
712,61	42,539
712,79	42,116
712,97	41,586
713,16	42,769
713,34	41,784
713,52	42,398
713,70	43,746
713,89	44,481
714,07	42,175
714,25	41,978
714,43	45,276
714,62	42,341
714,80	42,340
714,98	40,177
715,16	41,908
715,35	40,645
715,53	41,982
715,71	43,317
715,89	43,767
716,07	42,839
716,26	46,509
716,44	43,905
716,62	43,864
716,80	42,849
716,99	41,787
717,17	45,256
717,35	42,746
717,53	42,058
717,71	42,581
717,90	43,540
718,08	42,840
718,26	41,729
718,44	44,840
718,62	45,173
718,81	44,587
718,99	41,676
719,17	42,876
719,35	43,628
719,53	40,802
719,72	41,634
719,90	42,452
720,08	41,275
720,26	43,907
720,44	42,557
720,62	41,036
720,81	43,132
720,99	46,074
721,17	41,409
721,35	43,736
721,53	44,350
721,72	44,092
721,90	43,715
722,08	42,168
722,26	44,811
722,44	40,938
722,62	42,960
722,81	42,428
722,99	42,008
723,17	42,944
723,35	43,360
723,53	43,487
723,71	45,160
723,89	43,839
724,08	43,905
724,26	42,639
724,44	42,004
724,62	43,932
724,80	41,766
724,98	44,109
725,16	42,604
725,35	43,293
725,53	41,458
725,71	43,346
725,89	43,265
726,07	44,049
726,25	44,767
726,43	42,135
726,61	44,753
726,80	43,030
726,98	42,183
727,16	42,594
727,34	43,407
727,52	43,204
727,70	41,219
727,88	41,361
728,06	41,343
728,25	42,571
728,43	43,164
728,61	41,971
728,79	41,357
728,97	41,650
729,15	41,742
729,33	44,740
729,51	43,089
729,69	45,702
729,87	42,931
730,06	43,671
730,24	44,714
730,42	43,332
730,60	41,352
730,78	43,946
730,96	41,872
731,14	43,201
731,32	43,173
731,50	40,996
731,68	44,110
731,86	43,831
732,04	42,667
732,22	41,107
732,41	47,052
732,59	44,693
732,77	44,144
732,95	45,933
733,13	43,325
733,31	41,980
733,49	42,655
733,67	43,094
733,85	42,523
734,03	41,690
734,21	43,679
734,39	43,050
734,57	45,118
734,75	43,073
734,93	41,128
735,11	43,064
735,29	40,765
735,47	44,634
735,65	44,077
735,84	41,458
736,02	42,709
736,20	44,040
736,38	43,374
736,56	40,685
736,74	42,145
736,92	43,508
737,10	42,412
737,28	43,751
737,46	45,249
737,64	43,521
737,82	42,201
738,00	44,149
738,18	42,993
738,36	42,944
738,54	43,582
738,72	41,481
738,90	41,360
739,08	43,785
739,26	41,345
739,44	43,041
739,62	42,098
739,80	45,135
739,98	44,265
740,16	42,282
740,34	43,600
740,52	45,965
740,70	41,507
740,88	41,078
741,06	42,691
741,24	42,870
741,42	43,955
741,60	42,500
741,78	44,436
741,96	43,215
742,14	43,637
742,32	41,617
742,50	43,586
742,68	42,578
742,86	43,753
743,04	41,328
743,21	41,366
743,39	43,496
743,57	42,319
743,75	42,152
743,93	40,630
744,11	40,105
744,29	42,433
744,47	42,648
744,65	43,848
744,83	41,010
745,01	42,965
745,19	42,692
745,37	45,906
745,55	44,297
745,73	44,740
745,91	42,629
746,09	42,486
746,27	41,530
746,45	39,586
746,62	42,721
746,80	42,725
746,98	42,031
747,16	40,245
747,34	43,572
747,52	41,568
747,70	42,779
747,88	40,412
748,06	42,736
748,24	44,054
748,42	42,576
748,60	42,773
748,78	40,897
748,95	45,448
749,13	44,796
749,31	41,297
749,49	43,501
749,67	44,007
749,85	43,940
750,03	43,198
750,21	42,834
750,39	42,224
750,57	44,151
750,74	43,976
750,92	41,236
751,10	43,755
751,28	42,595
751,46	43,309
751,64	45,368
751,82	43,794
752,00	42,357
752,17	43,071
752,35	42,344
752,53	43,529
752,71	42,658
752,89	43,341
753,07	42,671
753,25	42,899
753,43	42,719
753,60	42,760
753,78	41,873
753,96	43,760
754,14	41,141
754,32	45,370
754,50	44,270
754,68	43,604
754,85	44,542
755,03	43,786
755,21	44,230
755,39	45,836
755,57	42,399
755,75	41,672
755,92	41,112
756,10	42,725
756,28	43,660
756,46	41,404
756,64	41,811
756,82	42,543
756,99	44,269
757,17	42,679
757,35	42,456
757,53	45,834
757,71	44,728
757,89	40,946
758,06	42,961
758,24	42,707
758,42	41,474
758,60	41,300
758,78	43,952
758,95	42,739
759,13	42,502
759,31	44,032
759,49	42,111
759,67	43,585
759,84	42,456
760,02	44,263
760,20	44,267
760,38	44,145
760,56	41,452
760,73	41,595
760,91	42,575
761,09	42,278
761,27	42,930
761,45	43,402
761,62	42,962
761,80	42,095
761,98	45,007
762,16	42,392
762,33	42,499
762,51	45,288
762,69	40,800
762,87	41,569
763,05	43,273
763,22	42,851
763,40	40,351
763,58	40,711
763,76	41,942
763,93	42,744
764,11	43,765
764,29	40,454
764,47	42,384
764,64	44,463
764,82	42,692
765,00	41,248
765,18	40,462
765,35	42,348
765,53	43,664
765,71	41,918
765,89	41,835
766,06	41,721
766,24	44,592
766,42	42,392
766,60	41,805
766,77	42,543
766,95	42,670
767,13	43,356
767,30	40,774
767,48	42,989
767,66	41,991
767,84	42,310
768,01	41,245
768,19	44,447
768,37	41,294
768,54	44,195
768,72	44,525
768,90	44,308
769,08	43,837
769,25	44,131
769,43	40,850
769,61	39,891
769,78	41,712
769,96	43,874
770,14	42,933
770,31	43,456
770,49	43,407
770,67	42,484
770,85	44,925
771,02	41,601
771,20	42,396
771,38	44,085
771,55	42,189
771,73	43,013
771,91	40,650
772,08	44,649
772,26	42,943
772,44	43,128
772,61	43,594
772,79	40,664
772,97	41,451
773,14	40,278
773,32	42,676
773,50	43,911
773,67	43,252
773,85	45,774
774,03	43,625
774,20	45,334
774,38	42,227
774,56	43,972
774,73	41,972
774,91	43,650
775,09	42,797
775,26	40,542
775,44	43,864
775,61	43,376
775,79	41,535
775,97	44,454
776,14	41,974
776,32	42,142
776,50	40,864
776,67	44,768
776,85	41,868
777,03	41,301
777,20	44,210
777,38	42,396
777,55	45,634
777,73	40,503
777,91	40,751
778,08	42,077
778,26	41,336
778,43	44,549
778,61	39,625
778,79	40,281
778,96	40,525
779,14	40,614
779,32	43,131
779,49	42,014
779,67	46,633
779,84	43,698
780,02	46,191
780,20	40,085
780,37	42,536
780,55	37,316
780,72	44,097
780,90	42,835
781,07	42,317
781,25	42,377
781,43	45,814
781,60	43,628
781,78	42,314
781,95	41,109
782,13	43,343
782,30	43,130
782,48	42,581
782,66	42,381
782,83	39,428
783,01	46,122
783,18	43,265
783,36	44,650
783,53	43,393
783,71	42,680
783,89	43,888
784,06	44,156
784,24	43,675
784,41	45,083
784,59	44,300
784,76	42,839
784,94	42,727
785,11	40,938
785,29	42,445
785,46	42,640
785,64	42,154
785,82	40,359
785,99	45,317
786,17	41,477
786,34	41,958
786,52	44,962
786,69	45,003
786,87	40,749
787,04	44,165
787,22	41,247
787,39	44,386
787,57	43,885
787,74	44,153
787,92	46,325
788,09	44,343
788,27	41,855
788,44	40,743
788,62	42,994
788,79	42,865
788,97	43,082
789,14	41,368
789,32	44,947
789,49	44,465
789,67	43,580
789,84	43,884
790,02	44,818
790,19	43,921
790,37	44,412
790,54	45,339
790,72	46,379
790,89	45,958
791,07	42,258
791,24	43,541
791,42	43,700
791,59	43,562
791,77	42,333
791,94	43,468
792,12	43,720
792,29	42,577
792,47	42,508
792,64	43,754
792,81	44,775
792,99	41,960
793,16	42,062
793,34	45,492
793,51	41,773
793,69	42,798
793,86	44,389
794,04	43,568
794,21	45,630
794,39	41,168
794,56	42,843
794,73	43,819
794,91	43,880
795,08	43,945
795,26	43,281
795,43	44,640
795,61	44,349
795,78	45,954
795,95	43,032
796,13	46,234
796,30	44,662
796,48	43,604
796,65	45,874
796,83	48,042
797,00	46,123
797,17	41,241
797,35	45,205
797,52	46,511
797,70	45,319
797,87	45,018
798,04	40,678
798,22	43,983
798,39	43,093
798,57	42,375
798,74	45,459
798,91	43,549
799,09	42,986
799,26	43,456
799,44	42,235
799,61	43,300
799,78	45,747
799,96	44,704
800,13	43,446
800,31	42,776
800,48	43,983
800,65	45,116
800,83	42,777
801,00	44,450
801,17	43,504
801,35	46,460
801,52	42,799
801,70	43,597
801,87	44,220
802,04	50,348
802,22	43,160
802,39	42,774
802,56	49,368
802,74	44,490
802,91	44,436
803,08	44,965
803,26	47,215
803,43	46,824
803,61	45,549
803,78	43,384
803,95	44,730
804,13	47,596
804,30	43,654
804,47	45,825
804,65	46,335
804,82	44,793
804,99	47,432
805,17	43,789
805,34	50,343
805,51	48,476
805,69	43,466
805,86	42,435
806,03	51,143
806,21	46,292
806,38	42,074
806,55	48,353
806,72	46,870
806,90	43,591
807,07	44,319
807,24	42,132
807,42	44,401
807,59	43,675
807,76	39,751
807,94	43,341
808,11	43,817
808,28	47,357
808,45	48,054
808,63	45,420
808,80	47,006
808,97	46,607
809,15	42,715
809,32	45,463
809,49	41,200
809,67	40,832
809,84	46,962
810,01	44,890
810,18	49,615
810,36	49,049
810,53	46,903
810,70	44,668
810,87	46,839
811,05	43,610
811,22	49,437
811,39	40,149
811,57	49,549
811,74	51,782
811,91	41,043
812,08	40,189
812,26	48,597
812,43	45,514
812,60	45,451
812,77	45,992
812,95	46,018
813,12	46,113
813,29	41,198
813,46	45,116
813,64	43,988
813,81	47,276
813,98	43,321
814,15	49,354
814,32	44,888
814,50	44,842
814,67	45,005
814,84	44,995
815,01	44,326
815,19	40,209
815,36	42,809
815,53	44,203
815,70	47,179
815,87	48,983
816,05	43,990
816,22	47,679
816,39	49,322
816,56	50,818
816,74	43,137
816,91	43,170
817,08	50,545
817,25	48,041
817,42	47,821
817,60	45,409
817,77	45,899
817,94	46,095
818,11	46,445
818,28	46,585
818,45	45,777
818,63	45,794
818,80	44,990
818,97	45,716
819,14	51,673
819,31	51,375
819,49	49,244
819,66	45,288
819,83	46,474
820,00	47,384
820,17	46,044
820,34	46,066
820,52	47,603
820,69	49,135
820,86	46,578
821,03	49,674
821,20	50,811
821,37	50,975
821,55	37,146
821,72	46,529
821,89	43,527
822,06	49,734
822,23	45,714
822,40	43,441
822,57	50,898
822,75	52,282
822,92	38,753
823,09	42,907
823,26	51,890
823,43	52,619
823,60	36,124
823,77	42,853
823,94	47,809
824,12	50,030
824,29	43,506
824,46	44,412
824,63	51,896
824,80	48,733
824,97	47,601
825,14	43,789
825,31	46,210
825,49	44,776
825,66	46,728
825,83	44,730
826,00	45,247
826,17	54,405
826,34	44,442
826,51	36,367
826,68	46,287
826,85	46,200
827,02	45,634
827,20	44,143
827,37	46,184
827,54	51,742
827,71	44,466
827,88	49,277
828,05	46,653
828,22	42,903
828,39	51,807
828,56	53,227
828,73	47,619
828,90	46,536
829,07	43,685
829,25	50,845
829,42	47,762
829,59	48,653
829,76	46,497
829,93	42,440
830,10	50,059
830,27	50,007
830,44	47,028
830,61	49,708
830,78	53,400
830,95	45,779
831,12	46,973
831,29	45,245
831,46	43,996
831,63	46,804
831,80	48,285
831,97	42,404
832,14	54,840
832,31	57,825
832,48	45,293
832,65	48,405
832,83	51,770
833,00	50,763
833,17	38,364
833,34	43,944
833,51	59,702
833,68	53,294
833,85	50,331
834,02	45,647
834,19	49,095
834,36	52,145
834,53	43,175
834,70	45,501
834,87	51,251
835,04	49,641
835,21	48,152
835,38	42,274
835,55	47,771
835,72	58,078
835,89	43,263
836,06	44,478
836,23	58,376
836,40	38,907
836,57	42,125
836,74	52,289
836,91	49,740
837,08	55,231
837,25	51,247
837,42	42,421
837,59	43,590
837,76	49,022
837,93	43,171
838,09	41,167
838,26	53,052
838,43	57,166
838,60	49,557
838,77	47,663
838,94	56,073
839,11	47,217
839,28	47,729
839,45	46,124
839,62	47,511
839,79	45,606
839,96	52,249
840,13	52,728
840,30	51,643
840,47	42,241
840,64	50,526
840,81	48,666
840,98	41,291
841,15	51,554
841,32	40,251
841,48	55,442
841,65	46,276
841,82	43,434
841,99	45,308
842,16	45,066
842,33	52,519
842,50	50,049
842,67	51,589
842,84	51,011
843,01	48,376
843,18	43,654
843,35	43,014
843,52	40,046
843,68	52,099
843,85	50,862
844,02	45,846
844,19	37,768
844,36	61,948
844,53	54,183
844,70	46,326
844,87	63,804
845,04	52,734
845,21	44,875
845,37	54,379
845,54	51,048
845,71	50,841
845,88	52,791
846,05	38,694
846,22	44,352
846,39	53,384
846,56	52,809
846,72	37,339
846,89	49,774
847,06	50,610
847,23	56,061
847,40	42,570
847,57	43,394
847,74	48,113
847,90	51,486
848,07	46,896
848,24	44,317
848,41	47,423
848,58	61,870
848,75	45,193
848,92	47,688
849,08	51,150
849,25	48,775
849,42	46,047
849,59	41,207
849,76	40,576
849,93	47,269
850,09	50,603
850,26	40,831
850,43	54,519
850,60	51,361
850,77	46,801
850,94	58,060
851,10	56,880
851,27	51,491
851,44	54,214
851,61	44,685
851,78	56,978
851,95	54,688
852,11	47,154
852,28	49,363
852,45	55,771
852,62	54,617
852,79	44,029
852,95	50,832
853,12	46,194
853,29	46,995
853,46	51,075
853,63	52,752
853,79	52,497
853,96	48,223
854,13	54,749
854,30	50,308
854,46	65,423
854,63	48,528
854,80	49,333
854,97	46,780
855,14	61,818
855,30	59,828
855,47	39,632
855,64	53,445
855,81	63,568
855,97	55,845
856,14	44,915
856,31	38,134
856,48	69,869
856,65	69,439
856,81	56,051
856,98	42,961
857,15	59,388
857,32	67,675
857,48	49,951
857,65	58,238
857,82	57,209
857,99	58,836
858,15	53,238
858,32	51,392
858,49	58,906
858,65	67,390
858,82	55,270
858,99	52,362
859,16	60,379
859,32	51,079
859,49	51,586
859,66	54,544
859,83	53,236
859,99	47,816
860,16	54,876
860,33	46,959
860,49	61,826
860,66	63,165
860,83	58,919
861,00	40,559
861,16	51,631
861,33	63,263
861,50	50,851
861,66	64,903
861,83	74,440
862,00	56,189
862,16	54,354
862,33	41,710
862,50	74,304
862,67	49,718
862,83	49,204
863,00	66,322
863,17	85,261
863,33	53,439
863,50	48,911
863,67	47,045
863,83	50,101
864,00	59,090
864,17	55,355
864,33	50,312
864,50	62,399
864,67	53,729
864,83	48,673
865,00	44,899
865,17	62,367
865,33	81,921
865,50	40,176
865,67	50,195
865,83	51,742
866,00	103,782
866,17	73,630
866,33	48,081
866,50	85,127
866,66	46,940
866,83	73,553
867,00	74,586
867,16	65,404
867,33	84,655
867,50	25,022
867,66	52,652
867,83	78,830
868,00	66,007
868,16	35,668
868,33	56,056
868,49	76,432
868,66	60,159
868,83	66,534
868,99	57,674
869,16	65,181
869,32	84,541
869,49	51,210
869,66	45,887
869,82	80,533
869,99	79,549
870,15	47,024
870,32	56,430
870,49	69,048
870,65	116,516
870,82	72,949
870,98	63,590
871,15	104,289
871,32	62,042
871,48	23,205
871,65	37,102
871,81	62,782
871,98	51,380
872,15	48,766
872,31	45,608
872,48	95,925
872,64	63,159
872,81	46,531
872,97	50,031
873,14	98,281
873,31	80,120
873,47	55,827
873,64	40,511
873,80	107,572
873,97	112,147
874,13	48,413
874,30	42,037
874,46	97,871
874,63	43,063
874,80	49,619
874,96	21,821
875,13	110,559
875,29	64,284
875,46	82,919
875,62	37,117
875,79	103,245
875,95	52,398
876,12	76,799
876,28	64,514
876,45	105,263
876,61	65,352
876,78	54,729
876,94	29,862
877,11	78,310
877,27	103,552
877,44	42,882
877,60	43,133
877,77	104,233
877,94	81,724
878,10	57,713
878,27	59,679
878,43	129,207
878,60	55,477
878,76	70,226
878,93	57,316
879,09	109,633
879,26	90,247
879,42	78,831
879,58	111,643
879,75	65,262
879,91	79,790
880,08	-2,907
880,24	69,055
880,41	85,694
880,57	113,822
880,74	60,165
880,90	8,943
881,07	8,665
881,23	126,213
881,40	61,356
881,56	81,559
881,73	92,373
881,89	84,883
882,06	46,156
882,22	112,545
882,38	135,909
882,55	131,320
882,71	70,844
882,88	10,130
883,04	168,438
883,21	125,149
883,37	78,893
883,54	85,889
883,70	137,797
883,86	108,020
884,03	62,655
884,19	42,307
884,36	-77,352
884,52	180,498
884,69	98,451
884,85	70,633
885,01	154,557
885,18	101,835
885,34	163,173
885,51	-18,523
885,67	66,536
>>>>> Data<<<<< Espectral Procesado Extremo
