Fichero De Datos De SpectraSuite
++++++++++++++++++++++++++++++++++++
Fecha: Wed Apr 22 11:12:38 CEST 2009
Usuario: evoflor
Presente Oscuro Del Espectro: Sí
La Referencia de Presente Del Espectro De: Sí
Muestreados de los componentes de Número de espectros: 1
Espectrómetros: USB4F02353
Tiempo de integración (usec): 500000 (USB4F02353)
Promedio de Espectros Hechos un: 5 (USB4F02353)
El Alisar Del Furgón: 0 (USB4F02353)
Párrafo de de Corregir del la del del de Eléctrica del obscuridad: Sí (USB4F02353)
Estrobo/Lámpara Permitido: No (USB4F02353)
Correct for Detector Non-linearity: No (USB4F02353)
Párrafo de de Corregir del la del del de Externa del luz: No (USB4F02353)
Procesado del espectro de Número de pixeles en: 3648
>>>>> Comienza Data<<<<< Espectral Procesado Del EL
177,79	278,045
178,00	278,045
178,22	278,045
178,44	1288,736
178,66	-84,284
178,88	167,997
179,09	-48,617
179,31	181,087
179,53	372,523
179,75	232,304
179,96	416,595
180,18	-345,308
180,40	308,678
180,62	386,008
180,83	-220,558
181,05	-501,524
181,27	-89725,000
181,49	-48,315
181,70	192,788
181,92	1017,386
182,14	424,774
182,36	103,776
182,58	785,750
182,79	509,040
183,01	-37,715
183,23	195,883
183,45	-13,000
183,66	-30,642
183,88	-276,912
184,10	-3611,364
184,32	288,923
184,53	248,013
184,75	-94,499
184,97	1,843
185,18	51,269
185,40	-621,755
185,62	43,801
185,84	150,710
186,05	96,860
186,27	-51,819
186,49	1477,885
186,71	59,658
186,92	79,111
187,14	61,347
187,36	97,462
187,58	66,123
187,79	-17,363
188,01	159,544
188,23	-157,741
188,45	10,571
188,66	263,951
188,88	-1336,818
189,10	-1473,250
189,31	21,971
189,53	-15,283
189,75	163,011
189,97	217,019
190,18	49,034
190,40	570,147
190,62	-99,055
190,83	-190,321
191,05	95,429
191,27	325,786
191,49	304,517
191,70	-561,178
191,92	-462,924
192,14	-9,347
192,35	624,735
192,57	480,714
192,79	32,173
193,01	128,708
193,22	141,462
193,44	-16,425
193,66	75,512
193,87	115,043
194,09	21,844
194,31	237,189
194,53	702,972
194,74	169,395
194,96	16,912
195,18	91,426
195,39	-322,230
195,61	-57,546
195,83	2,554
196,04	101,082
196,26	-247,362
196,48	-66,989
196,70	194,483
196,91	133,632
197,13	44,873
197,35	76,939
197,56	823,916
197,78	1368,097
198,00	-64,860
198,21	400,607
198,43	-746,657
198,65	160,759
198,86	76,709
199,08	453,525
199,30	238,107
199,51	-374,349
199,73	312,874
199,95	251,052
200,16	618,558
200,38	343,346
200,60	117,725
200,81	278,854
201,03	13,927
201,25	-1734,250
201,46	169,195
201,68	43,002
201,90	1957,386
202,11	-167,271
202,33	169,165
202,55	480,313
202,76	-51,173
202,98	121,341
203,20	-215,024
203,41	-666,447
203,63	128,969
203,85	-130225,000
204,06	120,476
204,28	-120,783
204,50	120,902
204,71	300,044
204,93	-599,800
205,15	94,051
205,36	-216,300
205,58	175,672
205,80	-4,338
206,01	56,303
206,23	154,293
206,45	221,500
206,66	94,666
206,88	18,613
207,10	150,739
207,31	378,709
207,53	84,071
207,75	10,437
207,96	857,649
208,18	-100,896
208,39	130,763
208,61	7475,000
208,83	-354,853
209,04	101,552
209,26	67,627
209,48	253,529
209,69	212,944
209,91	446,030
210,13	69,181
210,34	-7,203
210,56	102,930
210,77	-1571,063
210,99	17,602
211,21	3054,412
211,42	55,584
211,64	-24,207
211,86	264,689
212,07	237,608
212,29	201,585
212,50	127,635
212,72	286,250
212,94	164,470
213,15	212,559
213,37	129,237
213,58	84,424
213,80	-2143,750
214,02	8877,941
214,23	188,367
214,45	52,213
214,67	-1039,329
214,88	43,205
215,10	-192,826
215,31	32,806
215,53	-164,261
215,75	210,826
215,96	1222,516
216,18	110,211
216,39	112,274
216,61	323,635
216,83	22,879
217,04	1463,202
217,26	51,815
217,47	117,860
217,69	230,951
217,91	332,410
218,12	-61825,000
218,34	25,487
218,55	252,321
218,77	75,494
218,99	84,494
219,20	-3,242
219,42	331,593
219,63	-28,198
219,85	-110,714
220,06	-246,827
220,28	148,186
220,50	23,546
220,71	99,866
220,93	2287,264
221,14	-834,250
221,36	71,080
221,58	80,682
221,79	69,068
222,01	641,595
222,22	98,849
222,44	-367,135
222,65	89,120
222,87	595,979
223,09	102,365
223,30	109,231
223,52	126,171
223,73	149,830
223,95	-78,979
224,16	262,938
224,38	270,201
224,60	-0,914
224,81	189,385
225,03	119,631
225,24	-1,720
225,46	44,394
225,67	40,377
225,89	-52,192
226,10	592,846
226,32	-369,400
226,54	4,926
226,75	-65,338
226,97	32,950
227,18	91,641
227,40	19,804
227,61	52,350
227,83	4,451
228,04	58,029
228,26	64,624
228,47	49,279
228,69	137,878
228,91	36,370
229,12	29,501
229,34	41,994
229,55	37,495
229,77	35,013
229,98	40,650
230,20	81,486
230,41	-40,089
230,63	68,827
230,84	-43,408
231,06	6,708
231,27	49,540
231,49	28,750
231,71	48,333
231,92	28,353
232,14	5,149
232,35	82,940
232,57	54,240
232,78	27,082
233,00	41,061
233,21	22,174
233,43	22,044
233,64	18,383
233,86	46,512
234,07	4,797
234,29	30,927
234,50	10,679
234,72	20,058
234,93	-7,251
235,15	28,755
235,36	18,496
235,58	19,318
235,79	28,547
236,01	5,035
236,22	12,413
236,44	34,870
236,65	19,134
236,87	19,601
237,08	-1,901
237,30	-20,235
237,51	11,241
237,73	-9,743
237,94	11,710
238,16	11,485
238,37	7,925
238,59	8,025
238,80	-2,973
239,02	5,778
239,23	13,225
239,45	-11,638
239,66	25,768
239,88	20,780
240,09	11,682
240,31	6,265
240,52	13,478
240,74	17,915
240,95	10,220
241,17	3,461
241,38	5,082
241,60	6,803
241,81	17,138
242,03	-0,584
242,24	3,840
242,46	22,507
242,67	4,765
242,89	3,805
243,10	13,694
243,32	14,493
243,53	11,778
243,75	4,460
243,96	6,516
244,18	10,823
244,39	4,747
244,60	6,001
244,82	2,780
245,03	14,733
245,25	9,496
245,46	17,024
245,68	3,526
245,89	13,035
246,11	9,114
246,32	6,475
246,54	9,402
246,75	4,749
246,97	1,386
247,18	18,253
247,39	3,961
247,61	13,026
247,82	-0,235
248,04	12,342
248,25	8,213
248,47	13,347
248,68	11,378
248,90	2,359
249,11	8,749
249,33	15,696
249,54	6,624
249,75	5,812
249,97	1,205
250,18	10,227
250,40	11,920
250,61	-4,472
250,83	0,237
251,04	2,346
251,25	6,799
251,47	-0,468
251,68	11,377
251,90	8,766
252,11	9,145
252,33	3,695
252,54	4,806
252,76	2,889
252,97	5,414
253,18	2,706
253,40	3,644
253,61	1,173
253,83	8,339
254,04	10,194
254,25	1,660
254,47	5,863
254,68	4,620
254,90	2,827
255,11	9,218
255,33	6,333
255,54	-0,577
255,75	-0,416
255,97	0,828
256,18	2,453
256,40	4,082
256,61	2,691
256,82	-1,022
257,04	9,489
257,25	-0,155
257,47	4,885
257,68	2,973
257,89	9,062
258,11	8,440
258,32	6,467
258,54	6,816
258,75	9,549
258,96	10,934
259,18	2,400
259,39	0,631
259,61	2,743
259,82	1,363
260,03	1,018
260,25	4,561
260,46	-0,567
260,68	4,700
260,89	5,548
261,10	4,239
261,32	5,593
261,53	1,471
261,75	4,183
261,96	1,775
262,17	10,707
262,39	9,584
262,60	5,277
262,81	-0,386
263,03	6,081
263,24	7,066
263,46	0,192
263,67	3,355
263,88	-0,503
264,10	5,184
264,31	1,190
264,52	6,575
264,74	6,976
264,95	1,316
265,17	6,428
265,38	4,481
265,59	8,232
265,81	7,578
266,02	2,099
266,23	0,909
266,45	6,886
266,66	8,275
266,87	9,413
267,09	4,125
267,30	8,304
267,52	8,514
267,73	2,862
267,94	2,814
268,16	5,959
268,37	5,117
268,58	6,779
268,80	3,640
269,01	1,251
269,22	6,646
269,44	5,189
269,65	4,126
269,86	0,293
270,08	5,383
270,29	2,411
270,50	5,430
270,72	7,214
270,93	4,488
271,14	2,253
271,36	2,557
271,57	4,061
271,78	5,760
272,00	9,103
272,21	5,442
272,42	5,472
272,64	8,488
272,85	-0,121
273,06	2,446
273,28	4,256
273,49	6,053
273,70	5,217
273,92	5,824
274,13	5,770
274,34	2,914
274,56	4,920
274,77	-0,046
274,98	5,460
275,20	6,620
275,41	6,214
275,62	3,813
275,84	2,481
276,05	9,487
276,26	2,140
276,47	1,722
276,69	6,507
276,90	3,838
277,11	1,763
277,33	1,134
277,54	6,359
277,75	2,738
277,97	1,842
278,18	3,084
278,39	8,879
278,61	1,735
278,82	3,672
279,03	3,183
279,24	4,716
279,46	5,043
279,67	5,863
279,88	6,417
280,10	6,201
280,31	2,678
280,52	4,415
280,73	3,187
280,95	5,955
281,16	4,946
281,37	2,193
281,59	7,650
281,80	8,462
282,01	3,305
282,22	4,103
282,44	1,857
282,65	9,139
282,86	8,681
283,08	3,885
283,29	4,859
283,50	5,458
283,71	7,295
283,93	4,511
284,14	7,068
284,35	-0,735
284,56	3,536
284,78	2,590
284,99	4,427
285,20	7,440
285,42	5,673
285,63	2,027
285,84	0,514
286,05	2,090
286,27	2,194
286,48	0,437
286,69	0,576
286,90	-0,416
287,12	0,163
287,33	1,831
287,54	4,242
287,75	4,714
287,97	6,262
288,18	2,943
288,39	3,407
288,60	4,801
288,82	5,658
289,03	2,156
289,24	3,705
289,45	7,296
289,67	4,897
289,88	4,138
290,09	5,065
290,30	3,892
290,52	4,867
290,73	0,369
290,94	2,932
291,15	3,924
291,37	6,316
291,58	1,015
291,79	3,355
292,00	4,895
292,21	5,754
292,43	3,477
292,64	1,751
292,85	4,143
293,06	5,546
293,28	2,779
293,49	0,282
293,70	7,338
293,91	4,179
294,12	4,099
294,34	2,918
294,55	2,221
294,76	3,256
294,97	5,776
295,19	2,139
295,40	6,182
295,61	5,106
295,82	1,203
296,03	4,304
296,25	5,505
296,46	1,807
296,67	0,824
296,88	1,789
297,09	4,194
297,31	3,599
297,52	4,865
297,73	3,797
297,94	6,764
298,15	6,056
298,37	4,340
298,58	6,878
298,79	5,148
299,00	1,354
299,21	2,161
299,43	0,430
299,64	6,457
299,85	6,361
300,06	2,776
300,27	2,444
300,49	7,946
300,70	1,519
300,91	3,522
301,12	1,732
301,33	5,805
301,54	3,045
301,76	4,362
301,97	2,402
302,18	0,963
302,39	8,254
302,60	4,110
302,82	1,908
303,03	5,076
303,24	4,726
303,45	5,305
303,66	3,510
303,87	3,830
304,09	4,705
304,30	2,666
304,51	3,282
304,72	2,369
304,93	4,239
305,14	5,236
305,36	2,261
305,57	2,104
305,78	5,072
305,99	4,811
306,20	1,188
306,41	1,311
306,62	1,336
306,84	3,646
307,05	2,342
307,26	5,367
307,47	6,573
307,68	3,564
307,89	3,094
308,11	3,499
308,32	1,866
308,53	5,510
308,74	1,691
308,95	5,181
309,16	5,219
309,37	6,005
309,59	2,497
309,80	4,322
310,01	4,117
310,22	5,836
310,43	3,386
310,64	5,364
310,85	5,273
311,06	2,960
311,28	5,224
311,49	5,052
311,70	5,989
311,91	1,219
312,12	2,812
312,33	4,869
312,54	5,385
312,75	1,368
312,97	2,713
313,18	5,778
313,39	3,011
313,60	3,375
313,81	4,719
314,02	2,979
314,23	4,891
314,44	3,583
314,65	2,845
314,87	1,823
315,08	4,371
315,29	6,002
315,50	5,333
315,71	5,390
315,92	6,783
316,13	5,072
316,34	2,069
316,55	4,856
316,77	1,884
316,98	0,887
317,19	3,303
317,40	5,768
317,61	6,691
317,82	4,186
318,03	1,893
318,24	3,600
318,45	6,553
318,66	2,933
318,87	0,359
319,09	4,774
319,30	5,004
319,51	5,670
319,72	4,425
319,93	5,828
320,14	5,458
320,35	4,427
320,56	1,705
320,77	-0,873
320,98	6,352
321,19	5,757
321,40	4,856
321,62	7,172
321,83	5,467
322,04	3,824
322,25	2,274
322,46	4,682
322,67	5,349
322,88	4,134
323,09	2,335
323,30	3,666
323,51	5,840
323,72	5,816
323,93	4,915
324,14	2,216
324,35	2,470
324,56	0,397
324,77	2,586
324,99	3,642
325,20	-1,577
325,41	6,281
325,62	4,082
325,83	2,987
326,04	3,845
326,25	7,913
326,46	2,061
326,67	1,798
326,88	3,339
327,09	2,196
327,30	3,893
327,51	3,263
327,72	4,114
327,93	5,981
328,14	-0,600
328,35	1,353
328,56	2,844
328,77	4,166
328,98	6,252
329,19	4,527
329,40	5,558
329,61	3,673
329,82	0,818
330,04	2,522
330,25	6,063
330,46	4,488
330,67	0,432
330,88	3,279
331,09	3,884
331,30	5,536
331,51	4,598
331,72	4,419
331,93	5,058
332,14	1,561
332,35	4,570
332,56	4,224
332,77	5,409
332,98	2,225
333,19	1,332
333,40	3,535
333,61	0,886
333,82	4,656
334,03	3,595
334,24	3,893
334,45	3,879
334,66	7,342
334,87	4,631
335,08	2,721
335,29	3,040
335,50	2,080
335,71	2,011
335,92	4,093
336,13	5,962
336,34	1,012
336,55	5,056
336,76	2,672
336,97	2,805
337,18	1,653
337,39	5,060
337,60	3,029
337,81	3,161
338,02	2,757
338,23	5,433
338,44	3,458
338,65	3,442
338,86	3,744
339,07	2,654
339,28	5,257
339,49	4,548
339,70	-0,540
339,91	3,922
340,11	5,095
340,32	1,810
340,53	0,260
340,74	-1,104
340,95	2,587
341,16	4,601
341,37	6,213
341,58	3,728
341,79	2,766
342,00	6,805
342,21	3,401
342,42	2,876
342,63	2,771
342,84	4,152
343,05	3,029
343,26	5,355
343,47	4,142
343,68	2,896
343,89	3,994
344,10	4,363
344,31	6,859
344,52	3,668
344,73	0,962
344,94	6,122
345,14	3,217
345,35	5,943
345,56	1,594
345,77	2,685
345,98	3,805
346,19	4,292
346,40	4,260
346,61	5,230
346,82	4,638
347,03	2,497
347,24	6,974
347,45	1,812
347,66	6,642
347,87	5,076
348,08	6,360
348,28	4,297
348,49	5,985
348,70	5,133
348,91	2,767
349,12	1,617
349,33	16,348
349,54	3,576
349,75	3,828
349,96	2,832
350,17	5,537
350,38	2,680
350,59	6,538
350,80	4,630
351,00	4,456
351,21	7,788
351,42	2,065
351,63	0,724
351,84	6,591
352,05	4,247
352,26	2,429
352,47	3,553
352,68	4,890
352,89	6,189
353,09	5,406
353,30	1,375
353,51	5,593
353,72	5,819
353,93	5,134
354,14	1,008
354,35	2,665
354,56	6,177
354,77	5,089
354,98	0,589
355,18	6,779
355,39	8,776
355,60	2,618
355,81	4,890
356,02	5,286
356,23	5,988
356,44	1,880
356,65	4,836
356,85	10,196
357,06	4,518
357,27	7,554
357,48	3,739
357,69	3,999
357,90	5,422
358,11	1,994
358,32	4,913
358,52	6,859
358,73	2,532
358,94	3,821
359,15	5,075
359,36	5,533
359,57	4,603
359,78	4,464
359,98	4,614
360,19	-0,100
360,40	1,372
360,61	8,183
360,82	4,122
361,03	6,110
361,24	5,788
361,44	0,384
361,65	2,050
361,86	2,539
362,07	6,969
362,28	3,921
362,49	3,794
362,70	3,160
362,90	5,413
363,11	1,712
363,32	1,254
363,53	4,185
363,74	6,249
363,95	3,377
364,15	3,880
364,36	8,086
364,57	6,194
364,78	4,776
364,99	2,482
365,20	5,058
365,40	3,460
365,61	3,606
365,82	7,083
366,03	4,199
366,24	3,693
366,45	1,297
366,65	3,903
366,86	5,078
367,07	6,644
367,28	2,886
367,49	2,960
367,69	8,791
367,90	1,854
368,11	4,661
368,32	4,899
368,53	4,725
368,73	6,353
368,94	3,471
369,15	3,436
369,36	6,069
369,57	4,802
369,78	2,613
369,98	5,838
370,19	8,752
370,40	3,301
370,61	2,508
370,82	2,210
371,02	3,906
371,23	9,404
371,44	4,504
371,65	4,767
371,85	4,126
372,06	3,022
372,27	6,549
372,48	7,936
372,69	3,619
372,89	1,652
373,10	4,795
373,31	5,427
373,52	4,067
373,73	6,897
373,93	6,344
374,14	3,310
374,35	9,179
374,56	6,349
374,76	4,314
374,97	2,432
375,18	6,496
375,39	6,581
375,60	7,062
375,80	4,748
376,01	5,444
376,22	4,602
376,43	5,859
376,63	3,154
376,84	2,960
377,05	4,884
377,26	4,052
377,46	2,825
377,67	4,833
377,88	4,664
378,09	7,629
378,29	3,307
378,50	7,020
378,71	3,176
378,92	4,336
379,12	2,984
379,33	3,910
379,54	4,194
379,75	6,609
379,95	1,606
380,16	4,339
380,37	5,659
380,58	4,268
380,78	3,510
380,99	3,577
381,20	5,306
381,41	5,841
381,61	6,662
381,82	4,708
382,03	4,501
382,24	3,803
382,44	2,018
382,65	3,758
382,86	7,216
383,06	4,995
383,27	3,731
383,48	2,872
383,69	5,829
383,89	3,656
384,10	4,472
384,31	4,299
384,51	3,910
384,72	6,015
384,93	2,785
385,14	4,537
385,34	7,562
385,55	5,686
385,76	3,629
385,96	3,117
386,17	2,069
386,38	7,186
386,59	6,601
386,79	2,679
387,00	6,422
387,21	5,197
387,41	6,833
387,62	1,262
387,83	9,185
388,03	2,801
388,24	1,289
388,45	3,542
388,66	6,849
388,86	5,829
389,07	1,039
389,28	9,047
389,48	7,625
389,69	1,199
389,90	3,923
390,10	7,279
390,31	8,607
390,52	-0,641
390,72	4,558
390,93	9,337
391,14	2,099
391,34	4,507
391,55	9,287
391,76	8,510
391,96	2,751
392,17	4,019
392,38	7,842
392,58	4,178
392,79	4,401
393,00	1,792
393,20	3,157
393,41	3,970
393,62	2,676
393,82	6,694
394,03	5,564
394,24	5,286
394,44	5,831
394,65	5,842
394,86	6,049
395,06	4,415
395,27	2,044
395,48	4,138
395,68	4,907
395,89	6,942
396,10	7,660
396,30	4,962
396,51	2,781
396,72	6,252
396,92	3,499
397,13	4,795
397,34	0,390
397,54	11,662
397,75	3,595
397,95	4,130
398,16	7,809
398,37	5,851
398,57	5,589
398,78	10,975
398,99	8,608
399,19	6,840
399,40	6,339
399,60	5,325
399,81	8,292
400,02	9,323
400,22	8,833
400,43	6,763
400,64	6,348
400,84	5,118
401,05	8,093
401,25	7,756
401,46	8,366
401,67	9,492
401,87	5,997
402,08	3,236
402,29	4,247
402,49	9,342
402,70	8,984
402,90	6,238
403,11	7,241
403,32	9,776
403,52	4,671
403,73	11,296
403,93	7,274
404,14	12,220
404,35	4,150
404,55	3,105
404,76	7,598
404,96	8,419
405,17	11,983
405,38	11,676
405,58	5,821
405,79	10,887
405,99	12,725
406,20	6,935
406,40	5,757
406,61	11,297
406,82	7,215
407,02	10,517
407,23	5,954
407,43	9,164
407,64	9,179
407,85	8,671
408,05	6,909
408,26	17,335
408,46	10,700
408,67	6,465
408,87	8,436
409,08	10,698
409,29	9,387
409,49	12,337
409,70	10,819
409,90	13,957
410,11	8,201
410,31	10,095
410,52	9,721
410,72	10,512
410,93	12,990
411,14	10,995
411,34	6,372
411,55	11,559
411,75	17,278
411,96	14,943
412,16	11,070
412,37	8,545
412,57	16,315
412,78	12,450
412,99	11,530
413,19	10,943
413,40	15,205
413,60	10,176
413,81	11,783
414,01	10,835
414,22	11,591
414,42	12,040
414,63	10,068
414,83	15,755
415,04	13,155
415,24	16,921
415,45	12,873
415,65	16,204
415,86	12,162
416,07	13,151
416,27	15,544
416,48	17,664
416,68	15,344
416,89	10,363
417,09	14,672
417,30	12,840
417,50	14,841
417,71	16,486
417,91	15,008
418,12	12,814
418,32	14,187
418,53	15,155
418,73	13,169
418,94	15,090
419,14	16,073
419,35	8,836
419,55	14,893
419,76	14,559
419,96	13,943
420,17	14,241
420,37	14,275
420,58	18,627
420,78	17,159
420,99	16,091
421,19	16,907
421,40	14,826
421,60	17,328
421,81	14,962
422,01	17,195
422,22	16,047
422,42	17,677
422,63	16,729
422,83	19,830
423,04	20,507
423,24	20,243
423,45	12,707
423,65	17,893
423,86	22,280
424,06	19,417
424,27	15,425
424,47	13,039
424,67	12,870
424,88	16,844
425,08	16,615
425,29	21,909
425,49	14,771
425,70	10,023
425,90	19,692
426,11	14,393
426,31	18,080
426,52	19,489
426,72	13,663
426,93	14,608
427,13	21,990
427,33	16,296
427,54	20,277
427,74	20,476
427,95	21,139
428,15	13,651
428,36	17,335
428,56	17,161
428,77	18,347
428,97	18,341
429,18	18,142
429,38	12,630
429,58	24,193
429,79	18,653
429,99	16,409
430,20	13,560
430,40	20,868
430,61	18,158
430,81	16,201
431,01	19,791
431,22	18,588
431,42	24,291
431,63	16,101
431,83	18,118
432,04	18,718
432,24	19,091
432,44	16,568
432,65	15,113
432,85	17,088
433,06	18,949
433,26	19,257
433,47	16,595
433,67	17,731
433,87	16,777
434,08	16,324
434,28	19,146
434,49	14,567
434,69	18,045
434,89	17,645
435,10	16,464
435,30	20,854
435,51	12,069
435,71	18,646
435,91	15,827
436,12	16,994
436,32	16,673
436,53	15,841
436,73	17,094
436,93	18,459
437,14	17,993
437,34	19,703
437,55	17,124
437,75	19,364
437,95	19,292
438,16	17,654
438,36	16,718
438,57	14,822
438,77	15,947
438,97	19,307
439,18	20,368
439,38	19,119
439,58	15,660
439,79	17,271
439,99	15,923
440,20	21,996
440,40	18,360
440,60	17,106
440,81	18,512
441,01	17,866
441,21	19,719
441,42	20,141
441,62	19,605
441,83	17,683
442,03	18,947
442,23	20,249
442,44	20,878
442,64	19,556
442,84	20,687
443,05	15,748
443,25	18,434
443,45	14,760
443,66	21,681
443,86	16,071
444,06	15,529
444,27	16,869
444,47	15,595
444,67	15,679
444,88	22,789
445,08	18,631
445,28	21,028
445,49	15,242
445,69	14,056
445,90	18,216
446,10	19,866
446,30	16,511
446,51	16,781
446,71	23,994
446,91	24,271
447,12	22,466
447,32	19,060
447,52	19,743
447,72	19,078
447,93	16,770
448,13	11,758
448,33	22,727
448,54	20,810
448,74	16,989
448,94	16,782
449,15	24,746
449,35	18,324
449,55	19,482
449,76	18,437
449,96	21,562
450,16	21,693
450,37	15,949
450,57	20,084
450,77	15,642
450,98	21,972
451,18	20,027
451,38	20,599
451,58	18,099
451,79	18,695
451,99	20,512
452,19	17,457
452,40	16,528
452,60	18,325
452,80	17,614
453,00	17,313
453,21	21,002
453,41	21,315
453,61	18,907
453,82	23,312
454,02	13,524
454,22	20,231
454,42	17,643
454,63	15,111
454,83	21,349
455,03	26,725
455,24	21,267
455,44	20,137
455,64	17,240
455,84	13,159
456,05	15,174
456,25	15,335
456,45	21,975
456,65	17,360
456,86	23,871
457,06	18,251
457,26	21,568
457,47	27,150
457,67	24,375
457,87	19,430
458,07	16,578
458,28	22,493
458,48	21,637
458,68	12,972
458,88	19,110
459,09	21,056
459,29	20,611
459,49	20,519
459,69	17,206
459,90	22,483
460,10	14,886
460,30	13,942
460,50	14,185
460,71	20,901
460,91	14,967
461,11	21,313
461,31	14,378
461,52	24,826
461,72	20,217
461,92	21,720
462,12	28,980
462,32	18,525
462,53	19,100
462,73	17,990
462,93	21,710
463,13	16,727
463,34	18,305
463,54	19,982
463,74	20,078
463,94	16,845
464,14	21,248
464,35	16,452
464,55	21,292
464,75	23,355
464,95	25,406
465,16	15,988
465,36	21,093
465,56	18,886
465,76	15,777
465,96	20,284
466,17	19,726
466,37	16,555
466,57	24,609
466,77	18,876
466,97	18,795
467,18	20,084
467,38	18,996
467,58	20,848
467,78	24,564
467,98	20,794
468,19	18,694
468,39	21,913
468,59	22,620
468,79	16,173
468,99	17,992
469,19	17,491
469,40	23,707
469,60	15,713
469,80	13,775
470,00	22,848
470,20	21,645
470,41	18,833
470,61	19,705
470,81	21,362
471,01	18,538
471,21	19,637
471,41	16,935
471,62	18,560
471,82	18,878
472,02	16,829
472,22	17,270
472,42	19,743
472,62	20,687
472,83	20,515
473,03	21,368
473,23	19,012
473,43	20,869
473,63	15,868
473,83	19,743
474,03	18,899
474,24	21,597
474,44	18,211
474,64	21,150
474,84	16,401
475,04	18,912
475,24	21,317
475,45	19,382
475,65	17,435
475,85	19,569
476,05	16,621
476,25	16,723
476,45	18,530
476,65	23,541
476,85	21,020
477,06	18,195
477,26	14,097
477,46	18,389
477,66	12,483
477,86	21,022
478,06	17,775
478,26	23,149
478,46	15,996
478,67	18,637
478,87	14,770
479,07	18,261
479,27	18,460
479,47	17,351
479,67	11,814
479,87	18,298
480,07	18,693
480,28	15,834
480,48	13,675
480,68	19,638
480,88	23,644
481,08	17,440
481,28	17,383
481,48	17,675
481,68	16,265
481,88	15,926
482,08	16,361
482,29	21,173
482,49	15,269
482,69	17,836
482,89	19,319
483,09	19,460
483,29	16,925
483,49	16,341
483,69	20,391
483,89	15,954
484,09	15,287
484,29	13,867
484,50	16,757
484,70	17,444
484,90	17,635
485,10	14,188
485,30	16,436
485,50	18,326
485,70	15,617
485,90	13,495
486,10	11,766
486,30	15,288
486,50	16,596
486,70	14,610
486,90	15,665
487,10	19,551
487,30	15,430
487,51	14,216
487,71	15,227
487,91	12,167
488,11	16,923
488,31	11,374
488,51	15,530
488,71	15,050
488,91	16,602
489,11	15,951
489,31	13,599
489,51	13,709
489,71	15,556
489,91	12,911
490,11	14,255
490,31	14,601
490,51	17,277
490,71	14,420
490,91	14,084
491,11	16,758
491,31	17,536
491,51	13,100
491,72	14,048
491,92	18,877
492,12	18,409
492,32	15,635
492,52	17,207
492,72	15,864
492,92	15,491
493,12	17,725
493,32	14,832
493,52	12,614
493,72	12,952
493,92	16,377
494,12	15,592
494,32	15,854
494,52	13,821
494,72	14,606
494,92	14,305
495,12	17,231
495,32	17,083
495,52	14,972
495,72	15,529
495,92	16,290
496,12	16,118
496,32	12,217
496,52	13,362
496,72	13,695
496,92	16,301
497,12	16,511
497,32	15,033
497,52	15,276
497,72	17,466
497,92	13,500
498,12	13,282
498,32	14,579
498,52	15,520
498,72	12,127
498,92	13,144
499,12	16,049
499,32	11,988
499,52	17,037
499,72	17,305
499,92	16,007
500,12	16,796
500,32	16,092
500,52	12,130
500,72	17,134
500,91	15,518
501,11	16,318
501,31	11,244
501,51	14,812
501,71	18,556
501,91	18,059
502,11	14,445
502,31	14,641
502,51	14,545
502,71	13,714
502,91	11,694
503,11	14,376
503,31	14,478
503,51	13,980
503,71	8,991
503,91	15,556
504,11	17,306
504,31	15,096
504,51	15,844
504,71	18,418
504,91	13,980
505,10	12,230
505,30	11,034
505,50	14,031
505,70	11,217
505,90	12,266
506,10	12,273
506,30	15,337
506,50	14,810
506,70	16,006
506,90	10,873
507,10	12,986
507,30	13,105
507,50	13,653
507,70	14,626
507,89	15,639
508,09	13,835
508,29	14,869
508,49	12,760
508,69	12,206
508,89	11,819
509,09	13,103
509,29	13,803
509,49	13,931
509,69	17,098
509,89	13,699
510,09	12,919
510,28	13,725
510,48	12,790
510,68	11,978
510,88	12,456
511,08	10,231
511,28	14,083
511,48	11,790
511,68	9,041
511,88	10,350
512,07	13,816
512,27	14,591
512,47	12,177
512,67	10,115
512,87	9,755
513,07	11,958
513,27	11,852
513,47	12,104
513,67	8,704
513,86	13,855
514,06	12,839
514,26	10,239
514,46	15,286
514,66	13,137
514,86	14,160
515,06	14,867
515,26	12,721
515,45	11,829
515,65	9,371
515,85	13,938
516,05	10,431
516,25	10,208
516,45	12,552
516,65	11,749
516,84	11,567
517,04	15,041
517,24	10,523
517,44	11,526
517,64	13,157
517,84	14,328
518,04	11,943
518,23	12,941
518,43	13,311
518,63	10,653
518,83	11,055
519,03	11,781
519,23	12,077
519,42	11,893
519,62	12,137
519,82	10,405
520,02	10,709
520,22	9,150
520,42	9,108
520,61	11,996
520,81	10,878
521,01	12,505
521,21	8,516
521,41	10,725
521,61	11,260
521,80	9,808
522,00	12,022
522,20	14,232
522,40	13,636
522,60	11,535
522,79	10,015
522,99	12,449
523,19	6,056
523,39	9,907
523,59	11,659
523,78	11,088
523,98	10,659
524,18	10,446
524,38	9,574
524,58	11,294
524,77	14,957
524,97	13,649
525,17	12,817
525,37	9,183
525,57	12,690
525,76	10,215
525,96	11,300
526,16	7,702
526,36	7,869
526,56	9,973
526,75	9,252
526,95	13,004
527,15	11,570
527,35	11,882
527,55	8,000
527,74	10,391
527,94	9,245
528,14	8,521
528,34	8,488
528,53	6,174
528,73	9,054
528,93	11,123
529,13	9,654
529,32	8,851
529,52	11,233
529,72	8,966
529,92	7,704
530,12	8,429
530,31	6,285
530,51	9,050
530,71	8,542
530,91	9,710
531,10	5,966
531,30	9,594
531,50	8,674
531,70	11,422
531,89	7,928
532,09	9,534
532,29	7,951
532,49	9,411
532,68	9,700
532,88	9,207
533,08	7,963
533,28	7,880
533,47	9,289
533,67	8,379
533,87	6,815
534,06	12,232
534,26	8,953
534,46	7,570
534,66	9,182
534,85	10,884
535,05	5,009
535,25	7,835
535,45	6,474
535,64	9,054
535,84	8,652
536,04	6,619
536,23	8,753
536,43	9,217
536,63	6,726
536,83	8,001
537,02	7,539
537,22	7,215
537,42	8,389
537,61	8,831
537,81	12,085
538,01	10,230
538,20	10,078
538,40	7,278
538,60	8,373
538,80	8,464
538,99	8,829
539,19	6,497
539,39	6,201
539,58	10,835
539,78	7,886
539,98	7,578
540,17	5,385
540,37	9,050
540,57	6,302
540,76	6,778
540,96	4,537
541,16	8,202
541,36	5,703
541,55	3,764
541,75	4,099
541,95	5,035
542,14	4,576
542,34	5,487
542,54	4,431
542,73	4,959
542,93	6,922
543,13	6,957
543,32	5,450
543,52	6,933
543,72	5,277
543,91	6,495
544,11	3,275
544,31	3,481
544,50	5,927
544,70	5,415
544,89	6,772
545,09	7,849
545,29	5,995
545,48	4,248
545,68	5,649
545,88	5,890
546,07	4,803
546,27	4,967
546,47	5,348
546,66	6,309
546,86	6,567
547,06	3,751
547,25	6,233
547,45	3,785
547,64	6,238
547,84	8,409
548,04	6,932
548,23	7,703
548,43	7,545
548,63	7,807
548,82	6,786
549,02	6,341
549,21	5,248
549,41	8,234
549,61	7,053
549,80	5,829
550,00	7,075
550,20	7,200
550,39	7,983
550,59	6,192
550,78	6,742
550,98	3,635
551,18	8,363
551,37	7,576
551,57	6,725
551,76	7,980
551,96	6,536
552,16	6,312
552,35	7,534
552,55	8,129
552,74	6,685
552,94	6,626
553,14	7,993
553,33	6,504
553,53	4,003
553,72	6,407
553,92	9,700
554,12	6,207
554,31	8,092
554,51	8,000
554,70	6,513
554,90	6,722
555,09	7,425
555,29	6,492
555,49	6,509
555,68	10,037
555,88	5,840
556,07	6,287
556,27	8,047
556,46	7,116
556,66	6,764
556,86	7,968
557,05	6,435
557,25	7,261
557,44	7,379
557,64	3,949
557,83	7,905
558,03	7,672
558,22	5,775
558,42	8,995
558,62	7,676
558,81	7,195
559,01	9,045
559,20	7,540
559,40	6,824
559,59	6,583
559,79	5,020
559,98	7,026
560,18	9,194
560,37	6,144
560,57	9,081
560,76	5,872
560,96	5,998
561,16	7,720
561,35	7,280
561,55	10,075
561,74	7,598
561,94	7,399
562,13	8,058
562,33	9,043
562,52	7,641
562,72	6,487
562,91	5,193
563,11	4,100
563,30	9,104
563,50	4,243
563,69	6,824
563,89	6,910
564,08	7,136
564,28	6,891
564,47	6,607
564,67	4,868
564,86	7,939
565,06	5,844
565,25	8,273
565,45	6,914
565,64	10,327
565,84	8,302
566,03	7,058
566,23	8,793
566,42	7,796
566,62	7,366
566,81	7,690
567,01	5,748
567,20	7,835
567,40	5,075
567,59	6,233
567,79	7,657
567,98	10,733
568,18	7,459
568,37	8,773
568,57	8,235
568,76	8,530
568,96	6,966
569,15	6,625
569,35	8,597
569,54	8,877
569,73	8,716
569,93	4,786
570,12	8,436
570,32	7,462
570,51	7,218
570,71	7,844
570,90	10,904
571,10	5,977
571,29	6,862
571,49	5,233
571,68	9,156
571,87	7,272
572,07	6,645
572,26	5,369
572,46	6,711
572,65	7,796
572,85	5,691
573,04	8,074
573,24	6,834
573,43	8,255
573,62	8,795
573,82	7,827
574,01	6,843
574,21	8,576
574,40	6,550
574,60	5,981
574,79	9,020
574,98	4,799
575,18	8,269
575,37	6,083
575,57	8,243
575,76	7,770
575,96	8,682
576,15	8,337
576,34	8,014
576,54	8,413
576,73	7,957
576,93	6,847
577,12	8,898
577,31	8,067
577,51	8,398
577,70	6,718
577,90	7,527
578,09	6,662
578,28	8,413
578,48	8,974
578,67	9,698
578,87	8,480
579,06	8,292
579,25	9,007
579,45	8,270
579,64	8,313
579,84	7,079
580,03	7,257
580,22	9,242
580,42	7,132
580,61	8,791
580,81	8,159
581,00	7,946
581,19	9,558
581,39	7,599
581,58	7,771
581,77	8,443
581,97	9,879
582,16	8,009
582,35	6,855
582,55	8,140
582,74	9,932
582,94	8,413
583,13	6,914
583,32	8,925
583,52	8,760
583,71	9,076
583,90	10,198
584,10	9,924
584,29	9,989
584,48	7,320
584,68	8,988
584,87	11,264
585,06	10,017
585,26	7,882
585,45	8,322
585,65	10,700
585,84	9,057
586,03	9,776
586,23	7,099
586,42	8,826
586,61	10,843
586,81	9,118
587,00	9,271
587,19	10,033
587,39	11,933
587,58	11,647
587,77	10,153
587,97	9,353
588,16	9,288
588,35	10,018
588,54	11,256
588,74	8,774
588,93	12,370
589,12	11,534
589,32	11,674
589,51	11,463
589,70	8,206
589,90	9,852
590,09	10,620
590,28	13,916
590,48	10,818
590,67	11,761
590,86	10,597
591,06	11,616
591,25	11,714
591,44	12,617
591,63	10,939
591,83	12,411
592,02	11,745
592,21	10,467
592,41	10,535
592,60	12,521
592,79	11,513
592,98	11,994
593,18	11,541
593,37	12,431
593,56	13,419
593,76	12,565
593,95	10,387
594,14	11,776
594,33	13,188
594,53	12,964
594,72	11,300
594,91	13,788
595,10	15,038
595,30	11,485
595,49	12,366
595,68	14,596
595,88	13,240
596,07	12,255
596,26	13,740
596,45	14,017
596,65	11,369
596,84	14,352
597,03	14,436
597,22	15,156
597,42	14,978
597,61	14,477
597,80	13,822
597,99	15,463
598,19	14,425
598,38	14,977
598,57	13,517
598,76	15,572
598,95	15,320
599,15	14,840
599,34	14,688
599,53	15,048
599,72	15,027
599,92	15,533
600,11	16,120
600,30	16,919
600,49	16,766
600,69	14,587
600,88	15,999
601,07	17,112
601,26	16,413
601,45	15,123
601,65	15,681
601,84	15,179
602,03	16,419
602,22	16,557
602,42	17,646
602,61	15,445
602,80	17,685
602,99	17,079
603,18	14,666
603,38	17,226
603,57	16,836
603,76	18,006
603,95	16,276
604,14	17,032
604,34	17,293
604,53	16,594
604,72	18,196
604,91	17,530
605,10	18,417
605,29	17,272
605,49	15,226
605,68	18,164
605,87	18,920
606,06	17,218
606,25	16,521
606,45	19,659
606,64	16,912
606,83	16,863
607,02	18,155
607,21	19,675
607,40	18,130
607,60	16,665
607,79	17,215
607,98	16,292
608,17	16,792
608,36	17,680
608,55	17,815
608,75	19,209
608,94	18,423
609,13	15,541
609,32	15,580
609,51	16,285
609,70	15,287
609,89	16,551
610,09	15,359
610,28	17,991
610,47	15,356
610,66	14,563
610,85	15,111
611,04	16,829
611,23	16,590
611,43	15,039
611,62	16,010
611,81	15,137
612,00	15,623
612,19	15,396
612,38	16,332
612,57	17,838
612,77	18,134
612,96	17,106
613,15	17,526
613,34	20,015
613,53	18,409
613,72	19,987
613,91	18,583
614,10	18,407
614,29	20,365
614,49	19,036
614,68	18,506
614,87	20,650
615,06	22,520
615,25	19,540
615,44	22,243
615,63	20,735
615,82	19,651
616,01	19,419
616,21	20,222
616,40	22,182
616,59	22,544
616,78	21,607
616,97	21,468
617,16	22,121
617,35	21,739
617,54	23,664
617,73	23,491
617,92	22,003
618,11	24,903
618,31	20,913
618,50	23,101
618,69	21,850
618,88	20,548
619,07	22,087
619,26	21,748
619,45	21,309
619,64	22,716
619,83	21,548
620,02	21,560
620,21	25,018
620,40	23,760
620,59	22,120
620,78	22,042
620,97	24,370
621,17	21,035
621,36	21,927
621,55	23,591
621,74	24,180
621,93	24,718
622,12	24,377
622,31	22,414
622,50	24,121
622,69	27,699
622,88	25,270
623,07	24,629
623,26	25,121
623,45	25,875
623,64	23,515
623,83	24,680
624,02	26,464
624,21	26,871
624,40	24,585
624,59	23,973
624,78	26,183
624,97	27,053
625,16	23,449
625,35	23,257
625,54	24,717
625,73	26,051
625,92	26,081
626,12	27,036
626,31	27,108
626,50	25,478
626,69	24,694
626,88	22,764
627,07	26,953
627,26	27,301
627,45	24,374
627,64	25,866
627,83	25,831
628,02	25,367
628,21	25,327
628,40	25,949
628,59	27,377
628,78	25,991
628,97	24,488
629,16	25,374
629,35	26,445
629,54	28,395
629,73	26,274
629,92	25,901
630,10	26,963
630,29	27,346
630,48	26,008
630,67	24,920
630,86	27,690
631,05	28,661
631,24	26,708
631,43	26,210
631,62	26,802
631,81	27,235
632,00	26,432
632,19	25,232
632,38	27,133
632,57	27,884
632,76	27,027
632,95	27,827
633,14	29,127
633,33	28,243
633,52	26,416
633,71	27,194
633,90	26,537
634,09	28,497
634,28	28,680
634,47	28,187
634,66	28,022
634,85	28,774
635,04	30,514
635,22	28,497
635,41	28,027
635,60	28,557
635,79	29,613
635,98	27,581
636,17	29,404
636,36	30,117
636,55	29,481
636,74	27,625
636,93	29,615
637,12	29,581
637,31	27,819
637,50	27,770
637,69	30,264
637,87	30,415
638,06	28,990
638,25	29,504
638,44	30,618
638,63	25,549
638,82	29,775
639,01	27,392
639,20	29,192
639,39	31,337
639,58	27,552
639,77	30,740
639,95	28,836
640,14	28,804
640,33	28,156
640,52	30,156
640,71	31,656
640,90	31,271
641,09	31,232
641,28	27,850
641,47	29,196
641,66	28,916
641,84	29,838
642,03	28,962
642,22	31,234
642,41	33,676
642,60	29,406
642,79	30,300
642,98	31,018
643,17	30,558
643,35	30,089
643,54	27,741
643,73	30,397
643,92	32,252
644,11	29,998
644,30	28,756
644,49	33,129
644,67	29,296
644,86	28,886
645,05	31,455
645,24	30,040
645,43	32,157
645,62	30,472
645,81	29,731
645,99	30,948
646,18	29,134
646,37	30,474
646,56	29,766
646,75	31,194
646,94	30,740
647,13	30,362
647,31	31,053
647,50	30,977
647,69	31,177
647,88	31,110
648,07	31,548
648,26	34,014
648,44	31,484
648,63	30,605
648,82	31,600
649,01	31,069
649,20	29,554
649,38	30,555
649,57	31,546
649,76	29,285
649,95	31,585
650,14	28,665
650,33	30,335
650,51	30,369
650,70	33,400
650,89	30,877
651,08	30,904
651,27	31,220
651,45	28,679
651,64	31,182
651,83	31,166
652,02	29,687
652,21	31,980
652,39	31,354
652,58	32,043
652,77	30,678
652,96	31,954
653,15	30,726
653,33	31,547
653,52	31,556
653,71	33,079
653,90	32,024
654,09	32,328
654,27	33,181
654,46	34,552
654,65	33,756
654,84	31,770
655,02	33,472
655,21	32,755
655,40	34,806
655,59	32,119
655,77	34,046
655,96	32,518
656,15	33,290
656,34	32,905
656,53	32,168
656,71	33,721
656,90	31,938
657,09	33,142
657,28	31,405
657,46	32,253
657,65	32,226
657,84	29,849
658,03	31,636
658,21	32,372
658,40	31,435
658,59	31,201
658,78	33,084
658,96	30,707
659,15	28,720
659,34	31,232
659,52	30,935
659,71	32,115
659,90	30,658
660,09	30,931
660,27	31,461
660,46	32,194
660,65	31,260
660,84	30,298
661,02	31,473
661,21	31,250
661,40	29,374
661,58	30,707
661,77	31,347
661,96	28,647
662,15	30,070
662,33	30,199
662,52	29,994
662,71	29,452
662,89	30,260
663,08	29,591
663,27	31,066
663,45	31,298
663,64	31,158
663,83	27,970
664,02	29,490
664,20	30,914
664,39	30,308
664,58	29,385
664,76	29,133
664,95	30,267
665,14	29,992
665,32	30,038
665,51	30,095
665,70	29,891
665,88	30,038
666,07	30,465
666,26	31,823
666,44	29,191
666,63	29,316
666,82	29,203
667,00	30,374
667,19	29,514
667,38	30,989
667,56	31,123
667,75	30,180
667,94	30,577
668,12	28,872
668,31	30,138
668,50	30,170
668,68	31,053
668,87	28,822
669,06	28,402
669,24	30,995
669,43	27,679
669,62	27,847
669,80	28,124
669,99	28,114
670,18	29,677
670,36	28,331
670,55	29,732
670,74	29,493
670,92	27,370
671,11	29,625
671,29	28,226
671,48	28,908
671,67	29,638
671,85	31,482
672,04	27,870
672,23	26,820
672,41	29,525
672,60	28,865
672,78	28,145
672,97	29,813
673,16	28,620
673,34	29,469
673,53	28,314
673,71	28,543
673,90	29,109
674,09	29,773
674,27	28,028
674,46	27,176
674,64	30,443
674,83	28,287
675,02	28,652
675,20	29,158
675,39	28,133
675,57	29,472
675,76	26,536
675,95	29,417
676,13	29,664
676,32	30,654
676,50	27,797
676,69	27,627
676,88	28,187
677,06	28,022
677,25	27,727
677,43	30,672
677,62	28,327
677,80	28,811
677,99	29,203
678,18	30,236
678,36	29,428
678,55	28,549
678,73	28,894
678,92	29,190
679,10	29,639
679,29	28,383
679,48	27,641
679,66	26,559
679,85	27,920
680,03	29,371
680,22	28,908
680,40	30,116
680,59	28,181
680,77	30,161
680,96	30,729
681,15	29,504
681,33	30,231
681,52	28,020
681,70	29,056
681,89	30,655
682,07	29,706
682,26	29,553
682,44	29,261
682,63	30,311
682,81	30,506
683,00	31,339
683,18	29,806
683,37	31,013
683,55	30,562
683,74	31,421
683,92	34,464
684,11	31,430
684,29	29,735
684,48	29,928
684,67	29,966
684,85	30,616
685,04	30,667
685,22	31,670
685,41	29,206
685,59	30,963
685,78	30,870
685,96	29,575
686,15	32,044
686,33	30,468
686,52	31,267
686,70	31,608
686,89	32,032
687,07	32,112
687,26	32,723
687,44	31,976
687,62	30,696
687,81	33,013
687,99	32,036
688,18	32,914
688,36	32,655
688,55	33,461
688,73	33,997
688,92	30,499
689,10	32,638
689,29	34,411
689,47	33,817
689,66	31,731
689,84	32,505
690,03	34,206
690,21	32,072
690,40	32,658
690,58	32,332
690,76	32,283
690,95	33,063
691,13	33,237
691,32	34,100
691,50	35,037
691,69	34,153
691,87	32,560
692,06	33,154
692,24	33,887
692,43	35,291
692,61	31,763
692,79	33,280
692,98	33,099
693,16	36,623
693,35	32,225
693,53	34,161
693,72	34,117
693,90	35,317
694,08	33,097
694,27	34,909
694,45	36,914
694,64	34,677
694,82	33,769
695,01	34,122
695,19	35,308
695,37	34,321
695,56	33,986
695,74	33,582
695,93	35,281
696,11	34,985
696,29	34,202
696,48	33,976
696,66	35,042
696,85	35,911
697,03	32,746
697,21	36,241
697,40	34,110
697,58	35,770
697,77	34,281
697,95	35,420
698,13	38,374
698,32	33,961
698,50	35,565
698,69	35,054
698,87	35,354
699,05	35,357
699,24	33,229
699,42	33,513
699,60	32,598
699,79	33,768
699,97	34,538
700,16	33,998
700,34	37,030
700,52	36,158
700,71	34,734
700,89	35,266
701,07	34,309
701,26	35,903
701,44	34,379
701,63	33,092
701,81	35,199
701,99	36,378
702,18	35,636
702,36	32,891
702,54	34,037
702,73	34,707
702,91	34,623
703,09	34,700
703,28	34,140
703,46	34,032
703,64	35,243
703,83	35,385
704,01	37,065
704,19	35,960
704,38	34,466
704,56	33,979
704,74	36,290
704,93	34,747
705,11	36,292
705,29	35,341
705,48	38,012
705,66	35,287
705,84	34,813
706,03	31,762
706,21	34,929
706,39	35,852
706,58	34,848
706,76	33,054
706,94	36,778
707,12	34,400
707,31	34,886
707,49	33,650
707,67	35,955
707,86	36,161
708,04	34,597
708,22	34,269
708,41	35,613
708,59	36,207
708,77	33,965
708,95	34,722
709,14	39,045
709,32	35,062
709,50	33,793
709,69	35,033
709,87	34,158
710,05	35,830
710,23	34,298
710,42	34,239
710,60	36,922
710,78	36,789
710,97	34,327
711,15	36,633
711,33	36,311
711,51	34,179
711,70	34,288
711,88	34,418
712,06	36,668
712,24	35,119
712,43	35,436
712,61	34,017
712,79	35,107
712,97	34,902
713,16	36,465
713,34	34,828
713,52	37,278
713,70	34,845
713,89	35,228
714,07	35,524
714,25	36,547
714,43	38,617
714,62	34,617
714,80	36,326
714,98	33,601
715,16	35,880
715,35	33,948
715,53	34,734
715,71	36,902
715,89	37,016
716,07	35,262
716,26	39,957
716,44	35,753
716,62	38,045
716,80	36,230
716,99	35,788
717,17	38,515
717,35	37,004
717,53	34,012
717,71	34,778
717,90	35,361
718,08	35,796
718,26	33,042
718,44	35,830
718,62	37,783
718,81	36,286
718,99	34,984
719,17	34,729
719,35	35,489
719,53	34,743
719,72	33,452
719,90	36,064
720,08	35,855
720,26	34,766
720,44	34,100
720,62	35,631
720,81	37,347
720,99	38,219
721,17	36,433
721,35	36,358
721,53	36,009
721,72	37,258
721,90	35,467
722,08	36,814
722,26	35,853
722,44	36,138
722,62	35,222
722,81	35,640
722,99	36,999
723,17	37,122
723,35	36,011
723,53	34,275
723,71	37,674
723,89	39,870
724,08	35,449
724,26	35,743
724,44	34,552
724,62	35,815
724,80	33,269
724,98	35,877
725,16	37,157
725,35	36,732
725,53	36,283
725,71	34,710
725,89	37,395
726,07	36,557
726,25	37,604
726,43	35,595
726,61	37,403
726,80	37,886
726,98	35,445
727,16	34,854
727,34	36,765
727,52	35,897
727,70	35,744
727,88	35,940
728,06	35,961
728,25	34,164
728,43	34,797
728,61	34,214
728,79	36,550
728,97	36,829
729,15	34,963
729,33	38,092
729,51	35,922
729,69	36,581
729,87	36,926
730,06	35,397
730,24	36,423
730,42	38,521
730,60	34,321
730,78	39,147
730,96	36,744
731,14	37,069
731,32	36,219
731,50	35,031
731,68	36,756
731,86	36,738
732,04	36,605
732,22	35,929
732,41	38,778
732,59	36,617
732,77	37,049
732,95	39,979
733,13	38,638
733,31	38,212
733,49	33,991
733,67	37,475
733,85	37,112
734,03	35,400
734,21	36,716
734,39	34,639
734,57	36,518
734,75	38,912
734,93	35,225
735,11	37,076
735,29	35,650
735,47	38,954
735,65	37,306
735,84	34,524
736,02	35,905
736,20	39,555
736,38	34,608
736,56	34,503
736,74	35,173
736,92	35,969
737,10	36,485
737,28	36,872
737,46	37,392
737,64	36,569
737,82	36,771
738,00	37,855
738,18	38,238
738,36	35,485
738,54	34,613
738,72	35,384
738,90	37,071
739,08	36,042
739,26	37,259
739,44	37,303
739,62	36,881
739,80	38,055
739,98	36,860
740,16	35,777
740,34	36,657
740,52	37,824
740,70	36,126
740,88	35,556
741,06	36,976
741,24	37,551
741,42	36,759
741,60	36,011
741,78	38,303
741,96	35,951
742,14	34,907
742,32	36,928
742,50	37,532
742,68	36,102
742,86	35,104
743,04	33,946
743,21	36,646
743,39	37,820
743,57	37,404
743,75	36,112
743,93	36,377
744,11	34,977
744,29	35,330
744,47	36,065
744,65	35,153
744,83	35,813
745,01	35,487
745,19	37,798
745,37	38,053
745,55	37,782
745,73	37,801
745,91	36,212
746,09	34,823
746,27	36,184
746,45	34,578
746,62	35,690
746,80	35,248
746,98	35,221
747,16	37,301
747,34	36,427
747,52	36,246
747,70	36,272
747,88	36,044
748,06	35,677
748,24	36,463
748,42	36,592
748,60	34,610
748,78	33,916
748,95	38,086
749,13	38,687
749,31	36,014
749,49	35,442
749,67	38,152
749,85	38,298
750,03	36,916
750,21	36,742
750,39	37,403
750,57	35,922
750,74	37,968
750,92	35,058
751,10	37,877
751,28	33,981
751,46	35,985
751,64	37,120
751,82	39,107
752,00	37,713
752,17	36,767
752,35	36,031
752,53	38,625
752,71	35,617
752,89	38,221
753,07	34,673
753,25	38,204
753,43	36,171
753,60	38,075
753,78	35,854
753,96	37,752
754,14	37,288
754,32	36,268
754,50	36,447
754,68	35,267
754,85	35,347
755,03	37,604
755,21	36,399
755,39	39,077
755,57	37,761
755,75	38,091
755,92	35,398
756,10	35,797
756,28	39,344
756,46	35,955
756,64	35,107
756,82	38,151
756,99	35,791
757,17	36,070
757,35	35,285
757,53	38,663
757,71	39,660
757,89	36,063
758,06	38,394
758,24	36,528
758,42	36,390
758,60	35,682
758,78	36,388
758,95	36,851
759,13	37,906
759,31	35,961
759,49	35,852
759,67	36,838
759,84	36,830
760,02	37,117
760,20	37,271
760,38	37,358
760,56	35,291
760,73	36,603
760,91	37,549
761,09	39,010
761,27	36,432
761,45	36,328
761,62	37,012
761,80	35,072
761,98	35,869
762,16	36,090
762,33	36,181
762,51	38,382
762,69	38,020
762,87	35,245
763,05	37,172
763,22	35,554
763,40	35,851
763,58	36,312
763,76	36,677
763,93	37,363
764,11	36,453
764,29	34,703
764,47	37,273
764,64	35,178
764,82	37,280
765,00	36,202
765,18	34,066
765,35	35,704
765,53	37,450
765,71	37,610
765,89	35,423
766,06	36,439
766,24	34,582
766,42	36,868
766,60	36,196
766,77	36,239
766,95	35,731
767,13	36,676
767,30	36,269
767,48	35,465
767,66	37,373
767,84	34,331
768,01	36,686
768,19	35,843
768,37	36,402
768,54	36,264
768,72	35,617
768,90	36,737
769,08	37,827
769,25	38,878
769,43	34,257
769,61	33,633
769,78	37,212
769,96	37,050
770,14	35,511
770,31	36,346
770,49	36,741
770,67	36,377
770,85	36,010
771,02	38,115
771,20	35,461
771,38	37,609
771,55	36,655
771,73	36,219
771,91	36,613
772,08	38,117
772,26	36,274
772,44	38,319
772,61	37,284
772,79	33,913
772,97	37,230
773,14	34,154
773,32	36,782
773,50	35,570
773,67	36,608
773,85	37,140
774,03	37,729
774,20	37,482
774,38	37,657
774,56	35,056
774,73	37,015
774,91	35,855
775,09	36,394
775,26	38,153
775,44	38,494
775,61	37,046
775,79	36,283
775,97	37,681
776,14	34,628
776,32	37,294
776,50	36,751
776,67	36,905
776,85	36,414
777,03	33,823
777,20	37,983
777,38	37,507
777,55	37,778
777,73	34,556
777,91	33,784
778,08	36,776
778,26	36,532
778,43	37,533
778,61	33,640
778,79	34,780
778,96	34,743
779,14	38,178
779,32	37,656
779,49	36,487
779,67	37,946
779,84	39,145
780,02	38,491
780,20	33,659
780,37	39,071
780,55	32,609
780,72	37,392
780,90	37,426
781,07	37,901
781,25	36,923
781,43	37,354
781,60	36,311
781,78	38,129
781,95	37,908
782,13	35,208
782,30	37,938
782,48	38,559
782,66	35,953
782,83	35,881
783,01	41,082
783,18	38,940
783,36	38,819
783,53	38,203
783,71	35,758
783,89	36,993
784,06	38,279
784,24	40,111
784,41	38,155
784,59	37,129
784,76	37,210
784,94	36,986
785,11	37,653
785,29	38,220
785,46	36,726
785,64	36,749
785,82	37,500
785,99	36,759
786,17	37,508
786,34	37,974
786,52	37,116
786,69	38,472
786,87	36,564
787,04	35,774
787,22	36,964
787,39	38,457
787,57	39,049
787,74	37,147
787,92	41,108
788,09	38,247
788,27	38,033
788,44	37,056
788,62	38,919
788,79	37,521
788,97	38,624
789,14	36,530
789,32	37,148
789,49	36,112
789,67	39,500
789,84	37,546
790,02	36,498
790,19	39,156
790,37	36,515
790,54	40,073
790,72	39,560
790,89	42,433
791,07	37,988
791,24	36,985
791,42	36,249
791,59	37,597
791,77	37,860
791,94	36,911
792,12	37,191
792,29	39,433
792,47	39,272
792,64	39,517
792,81	38,355
792,99	37,437
793,16	35,045
793,34	37,416
793,51	37,471
793,69	41,202
793,86	37,018
794,04	37,302
794,21	40,751
794,39	37,790
794,56	36,232
794,73	38,798
794,91	39,606
795,08	39,490
795,26	37,156
795,43	39,521
795,61	39,914
795,78	40,559
795,95	41,093
796,13	36,561
796,30	39,636
796,48	38,631
796,65	37,249
796,83	37,349
797,00	43,654
797,17	35,403
797,35	38,829
797,52	38,266
797,70	43,053
797,87	38,498
798,04	35,912
798,22	38,366
798,39	37,885
798,57	40,982
798,74	39,895
798,91	38,306
799,09	36,588
799,26	42,629
799,44	40,515
799,61	37,275
799,78	39,562
799,96	39,506
800,13	38,821
800,31	36,558
800,48	40,219
800,65	40,219
800,83	37,457
801,00	36,506
801,17	37,369
801,35	38,587
801,52	38,626
801,70	38,609
801,87	38,949
802,04	41,160
802,22	37,436
802,39	38,145
802,56	39,856
802,74	38,813
802,91	37,789
803,08	37,363
803,26	39,563
803,43	42,814
803,61	39,307
803,78	37,442
803,95	43,506
804,13	42,658
804,30	36,500
804,47	40,637
804,65	39,093
804,82	39,286
804,99	37,883
805,17	40,646
805,34	39,024
805,51	46,646
805,69	36,147
805,86	36,450
806,03	45,769
806,21	40,050
806,38	41,097
806,55	45,088
806,72	42,027
806,90	38,696
807,07	40,378
807,24	40,387
807,42	38,517
807,59	41,861
807,76	36,971
807,94	39,091
808,11	39,783
808,28	42,170
808,45	37,931
808,63	41,729
808,80	43,201
808,97	41,658
809,15	39,662
809,32	43,798
809,49	36,053
809,67	35,963
809,84	40,311
810,01	39,870
810,18	45,449
810,36	43,495
810,53	42,315
810,70	39,265
810,87	43,308
811,05	41,386
811,22	38,012
811,39	38,349
811,57	43,211
811,74	39,490
811,91	35,760
812,08	39,794
812,26	41,621
812,43	36,723
812,60	42,712
812,77	40,418
812,95	43,172
813,12	37,075
813,29	37,224
813,46	44,277
813,64	39,674
813,81	42,938
813,98	39,404
814,15	40,716
814,32	42,296
814,50	43,958
814,67	41,315
814,84	41,878
815,01	42,347
815,19	33,803
815,36	32,783
815,53	40,680
815,70	44,417
815,87	44,020
816,05	37,518
816,22	43,813
816,39	43,868
816,56	40,273
816,74	41,859
816,91	40,314
817,08	46,467
817,25	43,276
817,42	39,132
817,60	41,563
817,77	41,470
817,94	42,129
818,11	42,376
818,28	39,256
818,45	39,482
818,63	40,986
818,80	38,833
818,97	39,682
819,14	45,440
819,31	47,333
819,49	41,858
819,66	39,728
819,83	41,480
820,00	43,490
820,17	38,517
820,34	43,233
820,52	48,509
820,69	45,235
820,86	39,107
821,03	38,328
821,20	43,318
821,37	48,442
821,55	32,865
821,72	38,651
821,89	43,299
822,06	46,477
822,23	37,999
822,40	37,054
822,57	41,542
822,75	48,014
822,92	37,165
823,09	38,630
823,26	43,197
823,43	45,687
823,60	42,778
823,77	41,076
823,94	46,553
824,12	47,973
824,29	42,380
824,46	40,704
824,63	48,457
824,80	46,047
824,97	42,219
825,14	42,290
825,31	44,748
825,49	40,962
825,66	40,700
825,83	37,359
826,00	43,901
826,17	52,398
826,34	43,212
826,51	38,325
826,68	38,361
826,85	44,723
827,02	44,697
827,20	35,258
827,37	38,054
827,54	41,539
827,71	41,391
827,88	43,951
828,05	46,394
828,22	44,545
828,39	40,018
828,56	45,389
828,73	46,276
828,90	49,547
829,07	38,133
829,25	44,088
829,42	46,993
829,59	40,143
829,76	38,887
829,93	36,903
830,10	45,826
830,27	39,942
830,44	42,580
830,61	40,801
830,78	54,330
830,95	44,436
831,12	38,816
831,29	42,675
831,46	40,551
831,63	45,413
831,80	42,295
831,97	34,343
832,14	47,524
832,31	57,317
832,48	37,697
832,65	42,125
832,83	46,428
833,00	43,274
833,17	39,883
833,34	42,775
833,51	51,141
833,68	47,094
833,85	42,623
834,02	42,726
834,19	39,043
834,36	45,337
834,53	36,885
834,70	40,184
834,87	46,286
835,04	41,768
835,21	42,563
835,38	33,253
835,55	41,203
835,72	50,388
835,89	46,214
836,06	47,580
836,23	48,101
836,40	37,005
836,57	39,563
836,74	47,609
836,91	48,877
837,08	44,277
837,25	46,576
837,42	35,744
837,59	47,026
837,76	43,877
837,93	40,234
838,09	39,189
838,26	47,384
838,43	50,187
838,60	48,020
838,77	44,369
838,94	49,557
839,11	41,015
839,28	46,686
839,45	38,890
839,62	47,120
839,79	41,212
839,96	44,695
840,13	44,968
840,30	45,725
840,47	39,716
840,64	41,982
840,81	45,047
840,98	40,533
841,15	45,772
841,32	33,706
841,48	57,014
841,65	47,218
841,82	41,876
841,99	41,375
842,16	41,045
842,33	51,464
842,50	43,878
842,67	47,438
842,84	43,729
843,01	48,385
843,18	49,524
843,35	52,572
843,52	40,883
843,68	59,000
843,85	46,533
844,02	35,407
844,19	36,238
844,36	56,572
844,53	39,720
844,70	44,515
844,87	52,255
845,04	45,066
845,21	40,057
845,37	58,038
845,54	39,288
845,71	33,892
845,88	60,796
846,05	37,642
846,22	36,404
846,39	42,148
846,56	52,628
846,72	40,997
846,89	46,490
847,06	62,701
847,23	60,473
847,40	34,875
847,57	41,451
847,74	47,014
847,90	54,532
848,07	46,395
848,24	44,788
848,41	55,010
848,58	58,644
848,75	44,580
848,92	35,115
849,08	44,785
849,25	53,366
849,42	30,900
849,59	41,028
849,76	40,684
849,93	51,200
850,09	48,547
850,26	38,988
850,43	49,460
850,60	34,733
850,77	47,002
850,94	51,503
851,10	47,011
851,27	52,934
851,44	45,488
851,61	33,239
851,78	53,309
851,95	57,180
852,11	35,211
852,28	58,060
852,45	62,009
852,62	51,659
852,79	52,318
852,95	38,005
853,12	60,760
853,29	49,610
853,46	41,548
853,63	50,374
853,79	43,889
853,96	44,875
854,13	50,366
854,30	45,627
854,46	60,554
854,63	52,360
854,80	59,451
854,97	33,080
855,14	56,585
855,30	56,662
855,47	51,298
855,64	37,498
855,81	54,941
855,97	53,768
856,14	50,145
856,31	37,059
856,48	67,847
856,65	77,200
856,81	51,923
856,98	39,507
857,15	46,180
857,32	53,975
857,48	24,246
857,65	51,602
857,82	51,527
857,99	55,201
858,15	43,523
858,32	44,774
858,49	52,238
858,65	62,466
858,82	54,254
858,99	48,931
859,16	59,861
859,32	58,135
859,49	45,783
859,66	48,194
859,83	48,074
859,99	49,759
860,16	54,780
860,33	40,861
860,49	50,887
860,66	60,349
860,83	39,120
861,00	55,486
861,16	59,271
861,33	47,914
861,50	34,799
861,66	50,110
861,83	68,860
862,00	60,836
862,16	69,626
862,33	35,984
862,50	79,080
862,67	57,835
862,83	52,978
863,00	70,435
863,17	61,617
863,33	66,226
863,50	17,869
863,67	34,857
863,83	73,103
864,00	61,477
864,17	37,856
864,33	48,715
864,50	56,518
864,67	59,468
864,83	64,886
865,00	45,608
865,17	49,195
865,33	72,379
865,50	29,743
865,67	45,347
865,83	61,928
866,00	88,622
866,17	51,126
866,33	70,884
866,50	64,186
866,66	58,408
866,83	46,188
867,00	61,226
867,16	59,766
867,33	73,567
867,50	31,673
867,66	40,491
867,83	64,297
868,00	50,134
868,16	39,561
868,33	38,526
868,49	68,853
868,66	69,746
868,83	53,006
868,99	77,191
869,16	75,247
869,32	62,146
869,49	52,500
869,66	47,259
869,82	80,183
869,99	88,806
870,15	38,879
870,32	71,252
870,49	66,626
870,65	103,035
870,82	50,823
870,98	52,111
871,15	93,007
871,32	53,843
871,48	29,075
871,65	29,565
871,81	37,301
871,98	35,153
872,15	42,601
872,31	30,850
872,48	91,681
872,64	71,332
872,81	29,773
872,97	57,333
873,14	64,339
873,31	33,966
873,47	97,119
873,64	49,937
873,80	76,926
873,97	87,998
874,13	36,252
874,30	59,022
874,46	92,524
874,63	51,998
874,80	36,391
874,96	47,888
875,13	114,148
875,29	55,550
875,46	101,175
875,62	57,637
875,79	76,605
875,95	62,819
876,12	30,622
876,28	52,481
876,45	100,835
876,61	78,570
876,78	38,339
876,94	50,604
877,11	91,746
877,27	101,627
877,44	59,058
877,60	70,482
877,77	95,217
877,94	88,924
878,10	32,847
878,27	65,776
878,43	107,265
878,60	78,182
878,76	45,921
878,93	44,235
879,09	106,089
879,26	92,147
879,42	83,249
879,58	75,992
879,75	82,048
879,91	92,972
880,08	51,204
880,24	26,564
880,41	98,742
880,57	51,694
880,74	38,067
880,90	77,780
881,07	38,047
881,23	33,369
881,40	53,747
881,56	82,706
881,73	89,655
881,89	66,708
882,06	45,585
882,22	154,272
882,38	122,446
882,55	130,441
882,71	49,590
882,88	56,224
883,04	90,702
883,21	182,534
883,37	83,382
883,54	85,949
883,70	166,379
883,86	113,657
884,03	47,499
884,19	29,311
884,36	-26,860
884,52	157,780
884,69	112,546
884,85	57,599
885,01	118,092
885,18	139,549
885,34	88,910
885,51	47,299
885,67	102,104
>>>>> Data<<<<< Espectral Procesado Extremo
