Fichero De Datos De SpectraSuite
++++++++++++++++++++++++++++++++++++
Fecha: Wed Apr 22 11:13:33 CEST 2009
Usuario: evoflor
Presente Oscuro Del Espectro: Sí
La Referencia de Presente Del Espectro De: Sí
Muestreados de los componentes de Número de espectros: 1
Espectrómetros: USB4F02353
Tiempo de integración (usec): 500000 (USB4F02353)
Promedio de Espectros Hechos un: 5 (USB4F02353)
El Alisar Del Furgón: 0 (USB4F02353)
Párrafo de de Corregir del la del del de Eléctrica del obscuridad: Sí (USB4F02353)
Estrobo/Lámpara Permitido: No (USB4F02353)
Correct for Detector Non-linearity: No (USB4F02353)
Párrafo de de Corregir del la del del de Externa del luz: No (USB4F02353)
Procesado del espectro de Número de pixeles en: 3648
>>>>> Comienza Data<<<<< Espectral Procesado Del EL
177,79	256,962
178,00	256,962
178,22	256,962
178,44	1087,857
178,66	-281,684
178,88	363,502
179,09	-287,255
179,31	208,183
179,53	601,873
179,75	157,244
179,96	1187,112
180,18	-74,785
180,40	335,366
180,62	317,520
180,83	215,723
181,05	-636,646
181,27	-138605,000
181,49	86,076
181,70	301,173
181,92	1064,492
182,14	412,063
182,36	75,707
182,58	584,950
182,79	823,683
183,01	-29,436
183,23	129,533
183,45	-58,169
183,66	-99,580
183,88	561,206
184,10	-1832,818
184,32	260,656
184,53	123,562
184,75	-178,721
184,97	-11,194
185,18	25,367
185,40	-566,851
185,62	99,189
185,84	41,277
186,05	271,868
186,27	-114,309
186,49	1454,038
186,71	-55,795
186,92	204,601
187,14	-90,785
187,36	177,939
187,58	114,551
187,79	-54,719
188,01	133,547
188,23	-189,219
188,45	196,777
188,66	-88,371
188,88	-1194,636
189,10	-1314,050
189,31	179,684
189,53	208,586
189,75	130,920
189,97	152,327
190,18	73,412
190,40	513,559
190,62	-140,567
190,83	-262,656
191,05	131,645
191,27	275,157
191,49	242,834
191,70	-307,236
191,92	-404,280
192,14	-47,163
192,35	362,878
192,57	3394,429
192,79	65,535
193,01	96,792
193,22	100,989
193,44	-110,589
193,66	136,287
193,87	100,225
194,09	52,878
194,31	79,888
194,53	717,517
194,74	235,169
194,96	-20,710
195,18	109,173
195,39	-216,108
195,61	-82,573
195,83	-95,880
196,04	122,840
196,26	-212,588
196,48	95,380
196,70	255,875
196,91	-30,557
197,13	157,228
197,35	-68,288
197,56	473,700
197,78	1403,769
198,00	327,308
198,21	235,947
198,43	-559,913
198,65	108,806
198,86	352,896
199,08	277,393
199,30	176,731
199,51	-164,186
199,73	196,441
199,95	510,161
200,16	283,865
200,38	337,000
200,60	157,924
200,81	383,522
201,03	198,111
201,25	-1719,050
201,46	153,663
201,68	42,418
201,90	1841,023
202,11	-360,706
202,33	92,110
202,55	-33,688
202,76	-45,315
202,98	241,481
203,20	142,764
203,41	-459,500
203,63	138,990
203,85	-149405,000
204,06	137,831
204,28	-182,181
204,50	180,883
204,71	265,557
204,93	-698,360
205,15	-40,648
205,36	-61,960
205,58	183,119
205,80	-241,512
206,01	66,473
206,23	110,503
206,45	125,988
206,66	100,828
206,88	87,723
207,10	32,739
207,31	271,795
207,53	216,014
207,75	-81,812
207,96	1067,948
208,18	-150,520
208,39	67,093
208,61	2391,571
208,83	-271,623
209,04	109,861
209,26	-99,562
209,48	288,082
209,69	172,750
209,91	291,909
210,13	39,366
210,34	23,983
210,56	128,576
210,77	-864,606
210,99	42,905
211,21	7517,941
211,42	-76,212
211,64	15,463
211,86	243,052
212,07	198,996
212,29	142,284
212,50	86,624
212,72	128,096
212,94	152,106
213,15	98,015
213,37	104,859
213,58	-0,011
213,80	-835,893
214,02	6406,176
214,23	257,856
214,45	336,410
214,67	-2195,183
214,88	-123,842
215,10	-223,424
215,31	-68,766
215,53	-106,352
215,75	275,487
215,96	1766,491
216,18	-735,141
216,39	125,181
216,61	402,849
216,83	72,344
217,04	1173,090
217,26	79,847
217,47	141,844
217,69	149,171
217,91	-139,188
218,12	-122405,000
218,34	112,506
218,55	465,531
218,77	48,654
218,99	108,221
219,20	-129,953
219,42	240,099
219,63	-34,552
219,85	-119,840
220,06	173,096
220,28	122,154
220,50	55,759
220,71	64,881
220,93	2937,830
221,14	-1107,050
221,36	-25,822
221,58	63,809
221,79	95,896
222,01	46,595
222,22	509,243
222,44	-60,618
222,65	101,085
222,87	497,238
223,09	106,288
223,30	59,431
223,52	79,029
223,73	202,720
223,95	55,782
224,16	74,237
224,38	392,429
224,60	51,792
224,81	75,186
225,03	1,988
225,24	184,488
225,46	62,799
225,67	15,400
225,89	77,755
226,10	496,099
226,32	691,240
226,54	58,876
226,75	20,648
226,97	138,955
227,18	150,804
227,40	71,783
227,61	23,222
227,83	23,718
228,04	73,199
228,26	61,319
228,47	48,416
228,69	192,630
228,91	140,323
229,12	32,285
229,34	60,083
229,55	47,697
229,77	-2,289
229,98	33,030
230,20	52,911
230,41	-72,664
230,63	94,269
230,84	12,085
231,06	73,127
231,27	-15,445
231,49	29,460
231,71	31,593
231,92	29,984
232,14	22,644
232,35	54,494
232,57	64,387
232,78	8,363
233,00	46,230
233,21	47,904
233,43	-22,363
233,64	14,968
233,86	13,690
234,07	10,845
234,29	26,365
234,50	7,012
234,72	38,949
234,93	2,466
235,15	27,180
235,36	19,707
235,58	16,247
235,79	36,355
236,01	1,580
236,22	-0,798
236,44	40,517
236,65	-4,098
236,87	18,903
237,08	8,574
237,30	1,417
237,51	-0,317
237,73	0,547
237,94	4,407
238,16	22,195
238,37	9,010
238,59	8,873
238,80	5,231
239,02	3,632
239,23	10,464
239,45	-10,135
239,66	17,166
239,88	19,937
240,09	10,955
240,31	-5,336
240,52	6,706
240,74	11,137
240,95	4,394
241,17	9,172
241,38	4,726
241,60	6,927
241,81	26,973
242,03	2,596
242,24	2,658
242,46	11,972
242,67	2,041
242,89	10,338
243,10	15,822
243,32	11,197
243,53	4,982
243,75	6,834
243,96	2,229
244,18	4,149
244,39	6,090
244,60	6,163
244,82	2,528
245,03	14,546
245,25	6,706
245,46	12,527
245,68	-0,068
245,89	15,174
246,11	10,545
246,32	11,134
246,54	1,846
246,75	5,821
246,97	11,171
247,18	14,097
247,39	-2,653
247,61	3,443
247,82	-3,275
248,04	2,766
248,25	7,442
248,47	9,275
248,68	9,735
248,90	-0,772
249,11	5,544
249,33	13,541
249,54	0,279
249,75	8,201
249,97	1,275
250,18	13,306
250,40	10,145
250,61	-4,854
250,83	-0,656
251,04	-3,228
251,25	7,852
251,47	1,912
251,68	3,534
251,90	6,196
252,11	8,508
252,33	3,276
252,54	5,288
252,76	4,885
252,97	1,905
253,18	-1,458
253,40	2,244
253,61	2,281
253,83	7,379
254,04	6,866
254,25	3,483
254,47	1,139
254,68	5,076
254,90	3,862
255,11	7,052
255,33	5,754
255,54	-2,346
255,75	5,191
255,97	4,208
256,18	-1,629
256,40	2,301
256,61	5,494
256,82	-2,291
257,04	5,160
257,25	-2,583
257,47	3,457
257,68	3,323
257,89	5,211
258,11	7,518
258,32	0,753
258,54	2,849
258,75	9,268
258,96	9,671
259,18	3,980
259,39	0,731
259,61	5,595
259,82	3,336
260,03	0,357
260,25	6,071
260,46	-2,934
260,68	4,629
260,89	-0,840
261,10	2,875
261,32	0,524
261,53	1,366
261,75	6,473
261,96	-1,996
262,17	5,088
262,39	9,144
262,60	-0,203
262,81	-2,325
263,03	8,324
263,24	2,487
263,46	0,287
263,67	2,257
263,88	2,575
264,10	3,830
264,31	0,871
264,52	3,483
264,74	4,582
264,95	1,897
265,17	2,252
265,38	1,869
265,59	4,563
265,81	4,980
266,02	-2,111
266,23	0,729
266,45	3,815
266,66	8,715
266,87	8,241
267,09	1,154
267,30	4,587
267,52	3,785
267,73	1,172
267,94	1,264
268,16	4,739
268,37	1,282
268,58	0,779
268,80	2,303
269,01	1,607
269,22	3,402
269,44	4,728
269,65	4,407
269,86	-0,494
270,08	3,308
270,29	2,044
270,50	3,627
270,72	3,501
270,93	-0,529
271,14	1,315
271,36	-0,036
271,57	5,996
271,78	1,321
272,00	3,405
272,21	2,399
272,42	4,358
272,64	5,208
272,85	-0,990
273,06	0,756
273,28	2,740
273,49	6,459
273,70	4,082
273,92	1,793
274,13	4,701
274,34	1,499
274,56	4,786
274,77	1,033
274,98	6,151
275,20	5,134
275,41	6,121
275,62	2,155
275,84	3,649
276,05	6,607
276,26	1,058
276,47	1,415
276,69	5,762
276,90	4,705
277,11	1,809
277,33	1,110
277,54	7,066
277,75	4,226
277,97	1,647
278,18	4,136
278,39	3,057
278,61	2,654
278,82	1,432
279,03	1,970
279,24	-0,847
279,46	3,026
279,67	6,103
279,88	2,187
280,10	7,665
280,31	1,425
280,52	3,066
280,73	-2,307
280,95	6,200
281,16	8,101
281,37	3,896
281,59	5,656
281,80	7,786
282,01	-2,177
282,22	2,773
282,44	-1,392
282,65	11,492
282,86	4,623
283,08	1,886
283,29	1,551
283,50	4,167
283,71	3,637
283,93	4,432
284,14	3,046
284,35	-2,332
284,56	6,315
284,78	2,753
284,99	1,237
285,20	5,453
285,42	0,973
285,63	4,493
285,84	1,108
286,05	1,734
286,27	2,404
286,48	0,446
286,69	0,906
286,90	0,523
287,12	2,179
287,33	3,764
287,54	2,574
287,75	3,483
287,97	4,333
288,18	1,504
288,39	0,521
288,60	5,497
288,82	2,312
289,03	1,665
289,24	4,347
289,45	4,503
289,67	-0,137
289,88	-0,085
290,09	3,657
290,30	4,253
290,52	0,623
290,73	1,346
290,94	-1,704
291,15	2,236
291,37	4,414
291,58	4,313
291,79	2,189
292,00	1,412
292,21	1,912
292,43	2,135
292,64	2,309
292,85	0,509
293,06	3,994
293,28	0,184
293,49	-1,795
293,70	4,768
293,91	2,507
294,12	2,299
294,34	2,299
294,55	2,495
294,76	1,737
294,97	3,277
295,19	1,611
295,40	3,491
295,61	5,521
295,82	-1,263
296,03	3,138
296,25	3,446
296,46	0,179
296,67	-0,050
296,88	-3,619
297,09	6,315
297,31	2,566
297,52	1,313
297,73	1,031
297,94	4,932
298,15	5,443
298,37	3,603
298,58	3,405
298,79	5,550
299,00	0,454
299,21	-0,580
299,43	0,316
299,64	4,131
299,85	3,723
300,06	0,944
300,27	1,124
300,49	4,562
300,70	-1,812
300,91	0,760
301,12	0,348
301,33	4,445
301,54	1,936
301,76	1,513
301,97	0,713
302,18	1,418
302,39	5,711
302,60	4,285
302,82	3,119
303,03	6,216
303,24	4,142
303,45	2,236
303,66	1,372
303,87	1,436
304,09	5,884
304,30	2,042
304,51	1,681
304,72	0,594
304,93	3,951
305,14	2,288
305,36	1,562
305,57	-0,388
305,78	3,712
305,99	2,115
306,20	1,854
306,41	1,684
306,62	1,642
306,84	0,070
307,05	-1,346
307,26	1,350
307,47	5,156
307,68	2,818
307,89	-0,537
308,11	2,595
308,32	1,824
308,53	0,547
308,74	-0,640
308,95	0,877
309,16	3,367
309,37	4,024
309,59	0,124
309,80	2,054
310,01	4,969
310,22	3,073
310,43	2,427
310,64	5,037
310,85	2,701
311,06	0,124
311,28	1,619
311,49	1,549
311,70	8,003
311,91	0,289
312,12	2,275
312,33	2,080
312,54	1,074
312,75	1,038
312,97	1,979
313,18	6,318
313,39	0,950
313,60	2,039
313,81	2,497
314,02	1,879
314,23	3,531
314,44	-0,241
314,65	1,475
314,87	-0,075
315,08	2,844
315,29	3,726
315,50	4,178
315,71	4,438
315,92	5,208
316,13	1,693
316,34	3,187
316,55	3,446
316,77	0,908
316,98	3,703
317,19	-0,121
317,40	3,769
317,61	3,563
317,82	3,619
318,03	0,122
318,24	0,226
318,45	3,147
318,66	2,989
318,87	-0,220
319,09	5,047
319,30	2,679
319,51	4,793
319,72	4,185
319,93	2,718
320,14	4,254
320,35	5,127
320,56	1,589
320,77	-0,784
320,98	5,648
321,19	1,441
321,40	3,079
321,62	3,577
321,83	2,090
322,04	2,342
322,25	3,168
322,46	5,379
322,67	3,998
322,88	4,220
323,09	0,893
323,30	3,201
323,51	3,214
323,72	3,857
323,93	1,887
324,14	2,017
324,35	-1,022
324,56	-0,682
324,77	1,175
324,99	0,392
325,20	-2,201
325,41	3,133
325,62	1,113
325,83	0,094
326,04	1,879
326,25	5,121
326,46	0,776
326,67	1,946
326,88	3,767
327,09	0,575
327,30	-1,005
327,51	2,246
327,72	3,450
327,93	3,311
328,14	-0,695
328,35	3,301
328,56	0,951
328,77	2,757
328,98	6,082
329,19	2,815
329,40	5,694
329,61	1,613
329,82	-0,826
330,04	0,448
330,25	1,630
330,46	1,693
330,67	-0,880
330,88	1,618
331,09	0,133
331,30	6,287
331,51	2,197
331,72	1,141
331,93	4,539
332,14	1,877
332,35	3,510
332,56	-0,639
332,77	4,339
332,98	0,893
333,19	0,631
333,40	1,190
333,61	1,710
333,82	3,041
334,03	3,336
334,24	2,985
334,45	2,735
334,66	3,546
334,87	4,083
335,08	1,166
335,29	-0,344
335,50	0,375
335,71	1,495
335,92	4,762
336,13	5,002
336,34	-1,235
336,55	3,871
336,76	5,201
336,97	2,214
337,18	2,505
337,39	4,389
337,60	4,331
337,81	0,221
338,02	2,027
338,23	0,406
338,44	1,786
338,65	2,766
338,86	2,278
339,07	0,320
339,28	5,081
339,49	2,796
339,70	-0,839
339,91	1,820
340,11	3,976
340,32	0,190
340,53	0,563
340,74	-2,219
340,95	-0,492
341,16	6,092
341,37	2,337
341,58	0,249
341,79	3,021
342,00	0,760
342,21	3,515
342,42	0,871
342,63	0,927
342,84	0,142
343,05	5,179
343,26	2,908
343,47	1,694
343,68	-1,692
343,89	1,590
344,10	2,199
344,31	2,791
344,52	2,786
344,73	-1,109
344,94	5,826
345,14	3,612
345,35	6,289
345,56	3,536
345,77	2,273
345,98	1,345
346,19	2,905
346,40	1,003
346,61	2,201
346,82	2,760
347,03	3,153
347,24	5,833
347,45	1,372
347,66	4,116
347,87	2,935
348,08	4,642
348,28	-0,171
348,49	3,506
348,70	7,021
348,91	4,779
349,12	-0,770
349,33	14,320
349,54	1,673
349,75	5,497
349,96	3,632
350,17	3,545
350,38	1,754
350,59	2,694
350,80	0,091
351,00	3,255
351,21	9,260
351,42	1,108
351,63	3,071
351,84	4,269
352,05	1,857
352,26	1,653
352,47	1,898
352,68	3,731
352,89	4,946
353,09	5,823
353,30	-0,421
353,51	3,535
353,72	4,961
353,93	3,039
354,14	-0,832
354,35	1,172
354,56	7,470
354,77	1,844
354,98	1,077
355,18	2,469
355,39	7,651
355,60	1,877
355,81	2,963
356,02	2,377
356,23	2,752
356,44	2,099
356,65	4,905
356,85	6,053
357,06	3,872
357,27	3,996
357,48	0,090
357,69	1,326
357,90	5,401
358,11	1,248
358,32	1,552
358,52	5,695
358,73	2,127
358,94	0,808
359,15	2,527
359,36	3,235
359,57	-0,061
359,78	0,183
359,98	1,201
360,19	0,151
360,40	3,907
360,61	4,801
360,82	0,520
361,03	6,060
361,24	2,662
361,44	1,392
361,65	3,482
361,86	0,369
362,07	1,752
362,28	2,054
362,49	-1,095
362,70	1,866
362,90	4,854
363,11	2,017
363,32	1,295
363,53	2,200
363,74	4,503
363,95	5,257
364,15	3,094
364,36	6,283
364,57	4,996
364,78	3,953
364,99	2,022
365,20	2,726
365,40	8,035
365,61	-0,896
365,82	4,125
366,03	1,774
366,24	4,193
366,45	2,466
366,65	4,294
366,86	0,305
367,07	1,024
367,28	3,598
367,49	2,969
367,69	6,946
367,90	1,345
368,11	3,094
368,32	1,636
368,53	2,693
368,73	4,486
368,94	0,990
369,15	2,775
369,36	2,605
369,57	5,667
369,78	1,124
369,98	5,335
370,19	5,479
370,40	2,176
370,61	3,294
370,82	2,462
371,02	4,102
371,23	4,547
371,44	0,190
371,65	2,123
371,85	5,484
372,06	4,188
372,27	6,774
372,48	3,197
372,69	2,252
372,89	1,792
373,10	1,161
373,31	0,583
373,52	6,130
373,73	6,504
373,93	4,307
374,14	2,976
374,35	6,716
374,56	7,545
374,76	3,663
374,97	4,288
375,18	2,483
375,39	4,363
375,60	4,600
375,80	3,452
376,01	3,204
376,22	6,902
376,43	1,698
376,63	4,380
376,84	1,657
377,05	2,549
377,26	0,096
377,46	1,859
377,67	3,368
377,88	5,966
378,09	3,006
378,29	1,626
378,50	3,529
378,71	5,703
378,92	2,957
379,12	2,774
379,33	3,319
379,54	5,916
379,75	5,207
379,95	3,293
380,16	4,869
380,37	6,570
380,58	3,653
380,78	6,790
380,99	3,809
381,20	3,158
381,41	3,943
381,61	7,443
381,82	5,456
382,03	5,787
382,24	3,557
382,44	4,086
382,65	5,942
382,86	2,851
383,06	3,613
383,27	6,597
383,48	3,077
383,69	8,256
383,89	6,526
384,10	8,261
384,31	5,691
384,51	5,896
384,72	3,794
384,93	3,453
385,14	6,529
385,34	5,166
385,55	3,732
385,76	3,773
385,96	5,945
386,17	5,380
386,38	10,923
386,59	-1,726
386,79	3,608
387,00	10,742
387,21	7,243
387,41	6,709
387,62	2,688
387,83	9,061
388,03	6,046
388,24	2,199
388,45	7,913
388,66	7,633
388,86	8,457
389,07	7,649
389,28	8,479
389,48	5,449
389,69	7,484
389,90	7,342
390,10	11,299
390,31	8,806
390,52	1,792
390,72	3,035
390,93	9,314
391,14	7,204
391,34	8,681
391,55	9,948
391,76	9,924
391,96	6,900
392,17	6,298
392,38	9,800
392,58	9,021
392,79	6,440
393,00	7,644
393,20	8,660
393,41	9,079
393,62	6,781
393,82	10,123
394,03	10,381
394,24	9,710
394,44	13,205
394,65	8,613
394,86	11,119
395,06	10,225
395,27	6,263
395,48	8,904
395,68	11,504
395,89	11,863
396,10	11,245
396,30	8,139
396,51	8,810
396,72	10,395
396,92	7,119
397,13	11,754
397,34	9,294
397,54	14,296
397,75	8,723
397,95	8,573
398,16	14,314
398,37	11,972
398,57	10,479
398,78	13,366
398,99	15,158
399,19	14,586
399,40	11,388
399,60	9,937
399,81	16,570
400,02	11,928
400,22	14,340
400,43	10,658
400,64	13,682
400,84	12,172
401,05	12,932
401,25	16,217
401,46	14,785
401,67	13,655
401,87	15,102
402,08	9,772
402,29	13,420
402,49	21,135
402,70	15,581
402,90	13,559
403,11	12,535
403,32	16,367
403,52	14,849
403,73	19,810
403,93	16,630
404,14	16,533
404,35	17,003
404,55	12,496
404,76	13,332
404,96	17,095
405,17	18,284
405,38	20,535
405,58	16,935
405,79	18,174
405,99	18,533
406,20	18,407
406,40	12,051
406,61	19,745
406,82	17,503
407,02	21,646
407,23	20,492
407,43	17,681
407,64	17,403
407,85	19,105
408,05	12,786
408,26	21,691
408,46	21,494
408,67	16,763
408,87	21,206
409,08	18,916
409,29	23,441
409,49	22,981
409,70	20,136
409,90	22,641
410,11	16,567
410,31	23,297
410,52	21,522
410,72	19,558
410,93	20,760
411,14	19,790
411,34	19,470
411,55	24,057
411,75	22,089
411,96	21,807
412,16	22,057
412,37	21,845
412,57	23,853
412,78	20,452
412,99	20,084
413,19	19,607
413,40	22,843
413,60	21,654
413,81	21,704
414,01	24,966
414,22	19,446
414,42	20,172
414,63	20,688
414,83	24,966
415,04	27,822
415,24	21,960
415,45	24,965
415,65	21,608
415,86	22,241
416,07	21,711
416,27	25,092
416,48	20,485
416,68	25,807
416,89	21,739
417,09	22,508
417,30	24,148
417,50	25,084
417,71	24,271
417,91	23,225
418,12	25,986
418,32	25,970
418,53	26,965
418,73	24,536
418,94	23,734
419,14	24,782
419,35	17,187
419,55	23,804
419,76	24,567
419,96	21,186
420,17	22,223
420,37	21,128
420,58	26,395
420,78	25,210
420,99	26,791
421,19	23,807
421,40	24,063
421,60	27,555
421,81	25,412
422,01	22,542
422,22	23,550
422,42	25,361
422,63	26,420
422,83	25,489
423,04	30,070
423,24	31,184
423,45	22,755
423,65	30,012
423,86	29,805
424,06	28,548
424,27	22,074
424,47	22,186
424,67	26,932
424,88	29,215
425,08	25,981
425,29	28,063
425,49	24,675
425,70	23,699
425,90	26,646
426,11	23,972
426,31	25,335
426,52	29,733
426,72	25,020
426,93	22,874
427,13	28,919
427,33	26,363
427,54	28,158
427,74	31,856
427,95	33,404
428,15	20,476
428,36	27,194
428,56	28,399
428,77	25,846
428,97	24,638
429,18	27,854
429,38	23,470
429,58	29,278
429,79	27,500
429,99	26,030
430,20	21,617
430,40	26,741
430,61	25,510
430,81	25,460
431,01	26,436
431,22	27,261
431,42	29,871
431,63	21,084
431,83	28,046
432,04	24,736
432,24	30,725
432,44	23,366
432,65	25,704
432,85	26,125
433,06	28,191
433,26	25,895
433,47	25,502
433,67	25,210
433,87	21,784
434,08	19,346
434,28	24,430
434,49	24,140
434,69	27,099
434,89	23,105
435,10	25,009
435,30	29,268
435,51	22,905
435,71	25,186
435,91	24,636
436,12	24,768
436,32	26,244
436,53	26,540
436,73	26,013
436,93	27,155
437,14	27,723
437,34	28,583
437,55	23,770
437,75	26,421
437,95	30,754
438,16	24,431
438,36	26,119
438,57	25,111
438,77	24,303
438,97	27,779
439,18	28,017
439,38	27,561
439,58	26,550
439,79	20,900
439,99	23,883
440,20	30,247
440,40	29,394
440,60	20,171
440,81	29,366
441,01	26,220
441,21	28,292
441,42	26,690
441,62	28,869
441,83	26,956
442,03	25,049
442,23	28,444
442,44	26,360
442,64	28,819
442,84	24,635
443,05	28,542
443,25	25,335
443,45	26,220
443,66	24,591
443,86	21,551
444,06	27,716
444,27	27,342
444,47	25,797
444,67	25,181
444,88	29,819
445,08	28,759
445,28	26,439
445,49	22,917
445,69	24,050
445,90	29,219
446,10	27,959
446,30	26,372
446,51	26,326
446,71	28,367
446,91	29,561
447,12	30,031
447,32	24,298
447,52	27,489
447,72	28,504
447,93	31,335
448,13	23,200
448,33	31,113
448,54	29,645
448,74	21,204
448,94	27,427
449,15	33,504
449,35	23,246
449,55	28,792
449,76	30,203
449,96	28,557
450,16	27,476
450,37	26,734
450,57	29,509
450,77	24,991
450,98	24,213
451,18	30,453
451,38	24,535
451,58	26,696
451,79	31,101
451,99	30,482
452,19	27,271
452,40	28,865
452,60	29,497
452,80	28,900
453,00	29,717
453,21	27,274
453,41	29,965
453,61	31,547
453,82	32,423
454,02	26,143
454,22	29,961
454,42	29,737
454,63	27,221
454,83	27,393
455,03	28,281
455,24	29,125
455,44	24,093
455,64	25,352
455,84	24,426
456,05	22,571
456,25	26,001
456,45	26,361
456,65	24,355
456,86	24,785
457,06	29,375
457,26	33,023
457,47	30,903
457,67	27,459
457,87	24,992
458,07	24,710
458,28	28,988
458,48	27,589
458,68	24,437
458,88	24,289
459,09	25,304
459,29	30,277
459,49	28,546
459,69	29,129
459,90	29,593
460,10	29,590
460,30	28,556
460,50	25,070
460,71	23,889
460,91	22,120
461,11	29,994
461,31	25,652
461,52	29,790
461,72	26,448
461,92	28,439
462,12	30,909
462,32	24,087
462,53	25,799
462,73	28,416
462,93	31,769
463,13	21,968
463,34	28,513
463,54	30,487
463,74	30,244
463,94	26,059
464,14	27,883
464,35	27,343
464,55	29,766
464,75	32,870
464,95	29,658
465,16	23,531
465,36	28,349
465,56	26,976
465,76	25,397
465,96	29,367
466,17	23,520
466,37	26,278
466,57	28,395
466,77	27,985
466,97	24,928
467,18	26,842
467,38	25,468
467,58	27,016
467,78	30,628
467,98	29,197
468,19	27,201
468,39	29,043
468,59	25,968
468,79	27,419
468,99	24,358
469,19	25,904
469,40	28,594
469,60	20,407
469,80	23,803
470,00	28,097
470,20	26,494
470,41	26,456
470,61	29,332
470,81	27,051
471,01	23,718
471,21	24,448
471,41	27,264
471,62	25,904
471,82	25,392
472,02	24,074
472,22	24,957
472,42	26,236
472,62	27,351
472,83	25,320
473,03	28,230
473,23	30,552
473,43	29,528
473,63	22,829
473,83	26,913
474,03	25,034
474,24	32,764
474,44	24,656
474,64	25,058
474,84	21,215
475,04	25,303
475,24	27,731
475,45	21,994
475,65	25,492
475,85	26,332
476,05	19,621
476,25	25,783
476,45	26,275
476,65	31,434
476,85	26,202
477,06	25,998
477,26	23,941
477,46	25,640
477,66	25,860
477,86	27,163
478,06	27,096
478,26	30,233
478,46	23,947
478,67	23,513
478,87	24,473
479,07	25,315
479,27	29,589
479,47	26,410
479,67	20,214
479,87	23,571
480,07	26,548
480,28	25,713
480,48	24,009
480,68	26,019
480,88	29,757
481,08	26,343
481,28	26,279
481,48	22,950
481,68	22,954
481,88	22,183
482,08	23,169
482,29	26,921
482,49	24,412
482,69	24,598
482,89	24,456
483,09	26,635
483,29	23,809
483,49	20,800
483,69	25,942
483,89	21,444
484,09	21,955
484,29	21,780
484,50	23,284
484,70	23,343
484,90	22,444
485,10	23,564
485,30	23,528
485,50	26,809
485,70	23,816
485,90	21,893
486,10	19,523
486,30	24,565
486,50	22,799
486,70	22,497
486,90	21,507
487,10	25,012
487,30	23,896
487,51	23,458
487,71	18,904
487,91	19,919
488,11	23,451
488,31	19,769
488,51	22,761
488,71	21,853
488,91	25,146
489,11	22,013
489,31	20,984
489,51	20,357
489,71	22,761
489,91	21,737
490,11	22,714
490,31	21,740
490,51	21,375
490,71	22,767
490,91	22,846
491,11	23,222
491,31	22,943
491,51	16,414
491,72	22,872
491,92	23,665
492,12	23,698
492,32	23,521
492,52	24,858
492,72	21,831
492,92	22,466
493,12	23,802
493,32	20,784
493,52	18,667
493,72	20,406
493,92	22,289
494,12	21,812
494,32	22,627
494,52	20,063
494,72	21,874
494,92	19,222
495,12	21,974
495,32	23,447
495,52	18,521
495,72	23,135
495,92	26,488
496,12	23,180
496,32	20,498
496,52	21,497
496,72	20,014
496,92	24,933
497,12	21,329
497,32	22,817
497,52	21,824
497,72	25,139
497,92	23,769
498,12	20,289
498,32	20,001
498,52	23,328
498,72	20,285
498,92	17,642
499,12	22,299
499,32	18,448
499,52	22,453
499,72	23,003
499,92	24,304
500,12	21,660
500,32	23,545
500,52	21,667
500,72	24,932
500,91	22,329
501,11	21,364
501,31	16,018
501,51	22,080
501,71	20,928
501,91	23,103
502,11	20,121
502,31	19,272
502,51	23,320
502,71	19,559
502,91	20,001
503,11	21,189
503,31	19,977
503,51	17,320
503,71	20,320
503,91	22,188
504,11	19,454
504,31	22,022
504,51	19,831
504,71	22,500
504,91	20,334
505,10	20,371
505,30	16,272
505,50	22,288
505,70	20,952
505,90	19,482
506,10	19,743
506,30	21,616
506,50	22,623
506,70	20,467
506,90	19,797
507,10	21,281
507,30	21,449
507,50	20,503
507,70	20,581
507,89	18,859
508,09	19,198
508,29	20,597
508,49	22,033
508,69	19,121
508,89	20,648
509,09	17,536
509,29	18,916
509,49	20,581
509,69	24,669
509,89	19,333
510,09	17,853
510,28	19,634
510,48	18,840
510,68	19,458
510,88	17,917
511,08	18,216
511,28	20,072
511,48	19,630
511,68	16,552
511,88	18,559
512,07	20,639
512,27	21,285
512,47	18,434
512,67	17,059
512,87	16,695
513,07	17,324
513,27	17,087
513,47	17,275
513,67	17,424
513,86	18,167
514,06	19,795
514,26	15,781
514,46	20,447
514,66	16,785
514,86	15,589
515,06	23,995
515,26	19,020
515,45	16,328
515,65	16,002
515,85	18,081
516,05	14,747
516,25	17,727
516,45	19,465
516,65	17,952
516,84	19,635
517,04	20,261
517,24	14,981
517,44	14,967
517,64	20,236
517,84	18,093
518,04	19,233
518,23	21,264
518,43	19,006
518,63	16,596
518,83	15,463
519,03	17,315
519,23	17,113
519,42	15,918
519,62	16,542
519,82	15,393
520,02	14,701
520,22	14,066
520,42	15,860
520,61	19,092
520,81	19,595
521,01	19,893
521,21	14,460
521,41	17,582
521,61	18,586
521,80	15,118
522,00	14,500
522,20	16,865
522,40	16,338
522,60	17,314
522,79	13,654
522,99	17,162
523,19	12,873
523,39	12,144
523,59	16,419
523,78	18,369
523,98	12,780
524,18	16,255
524,38	16,284
524,58	15,748
524,77	17,904
524,97	17,541
525,17	16,952
525,37	14,630
525,57	20,424
525,76	15,225
525,96	14,364
526,16	13,111
526,36	15,013
526,56	13,769
526,75	14,538
526,95	15,529
527,15	15,341
527,35	15,042
527,55	14,802
527,74	15,747
527,94	13,624
528,14	13,419
528,34	15,551
528,53	13,150
528,73	15,385
528,93	15,845
529,13	14,044
529,32	17,567
529,52	18,402
529,72	14,514
529,92	14,447
530,12	12,408
530,31	10,763
530,51	13,350
530,71	15,615
530,91	15,099
531,10	11,899
531,30	14,957
531,50	12,363
531,70	13,974
531,89	11,977
532,09	11,791
532,29	12,864
532,49	14,336
532,68	14,880
532,88	15,248
533,08	12,471
533,28	13,359
533,47	10,743
533,67	13,552
533,87	10,530
534,06	15,504
534,26	13,580
534,46	11,518
534,66	12,926
534,85	15,151
535,05	9,751
535,25	13,718
535,45	10,922
535,64	12,640
535,84	12,723
536,04	11,255
536,23	12,287
536,43	13,353
536,63	10,270
536,83	11,674
537,02	11,585
537,22	13,126
537,42	13,716
537,61	14,314
537,81	15,444
538,01	14,770
538,20	13,116
538,40	11,999
538,60	13,679
538,80	13,844
538,99	11,924
539,19	12,299
539,39	10,629
539,58	13,310
539,78	10,867
539,98	9,935
540,17	10,054
540,37	11,157
540,57	10,420
540,76	10,244
540,96	7,104
541,16	11,863
541,36	8,092
541,55	6,641
541,75	8,224
541,95	9,235
542,14	8,899
542,34	6,642
542,54	7,996
542,73	8,152
542,93	9,788
543,13	9,400
543,32	8,570
543,52	9,450
543,72	7,645
543,91	8,700
544,11	7,698
544,31	8,042
544,50	8,641
544,70	7,272
544,89	7,578
545,09	9,570
545,29	9,167
545,48	10,009
545,68	6,841
545,88	8,272
546,07	7,212
546,27	7,587
546,47	8,921
546,66	11,203
546,86	10,307
547,06	9,623
547,25	9,019
547,45	8,748
547,64	10,448
547,84	12,356
548,04	9,401
548,23	11,817
548,43	10,631
548,63	12,311
548,82	12,249
549,02	9,202
549,21	8,959
549,41	11,551
549,61	11,188
549,80	11,828
550,00	10,996
550,20	10,946
550,39	12,393
550,59	10,719
550,78	11,454
550,98	6,858
551,18	12,642
551,37	10,659
551,57	10,359
551,76	11,680
551,96	11,533
552,16	10,113
552,35	11,330
552,55	12,122
552,74	14,294
552,94	11,772
553,14	11,687
553,33	10,230
553,53	10,943
553,72	9,907
553,92	14,292
554,12	11,217
554,31	10,000
554,51	10,615
554,70	9,575
554,90	10,561
555,09	12,281
555,29	11,580
555,49	9,513
555,68	13,623
555,88	9,857
556,07	11,613
556,27	11,964
556,46	10,599
556,66	8,240
556,86	13,774
557,05	13,071
557,25	10,628
557,44	9,444
557,64	11,404
557,83	13,511
558,03	12,069
558,22	12,548
558,42	10,015
558,62	13,753
558,81	13,202
559,01	10,930
559,20	11,340
559,40	9,554
559,59	10,266
559,79	10,280
559,98	12,067
560,18	11,174
560,37	11,337
560,57	13,036
560,76	10,252
560,96	11,713
561,16	12,334
561,35	10,949
561,55	17,464
561,74	11,464
561,94	12,635
562,13	12,743
562,33	13,593
562,52	12,560
562,72	11,711
562,91	9,976
563,11	11,507
563,30	13,375
563,50	9,268
563,69	9,949
563,89	10,692
564,08	12,162
564,28	10,055
564,47	14,116
564,67	9,003
564,86	12,392
565,06	9,491
565,25	10,687
565,45	12,418
565,64	13,526
565,84	10,848
566,03	9,170
566,23	9,498
566,42	13,610
566,62	11,268
566,81	12,520
567,01	10,655
567,20	12,703
567,40	8,910
567,59	10,562
567,79	12,105
567,98	13,734
568,18	12,532
568,37	12,714
568,57	12,077
568,76	12,838
568,96	12,282
569,15	11,040
569,35	12,504
569,54	15,477
569,73	13,410
569,93	11,748
570,12	12,404
570,32	13,018
570,51	11,820
570,71	12,123
570,90	13,153
571,10	11,211
571,29	11,444
571,49	11,062
571,68	12,529
571,87	12,328
572,07	11,840
572,26	8,941
572,46	11,834
572,65	11,269
572,85	10,487
573,04	13,589
573,24	11,916
573,43	13,213
573,62	14,671
573,82	13,105
574,01	11,976
574,21	12,878
574,40	11,043
574,60	10,889
574,79	12,646
574,98	12,264
575,18	13,122
575,37	12,270
575,57	12,268
575,76	13,968
575,96	13,676
576,15	13,789
576,34	12,993
576,54	13,019
576,73	13,021
576,93	12,942
577,12	13,353
577,31	13,767
577,51	11,831
577,70	11,994
577,90	13,090
578,09	11,619
578,28	12,797
578,48	12,171
578,67	13,939
578,87	14,822
579,06	12,363
579,25	14,089
579,45	13,552
579,64	12,831
579,84	12,666
580,03	13,397
580,22	14,573
580,42	13,290
580,61	14,148
580,81	13,831
581,00	14,401
581,19	13,859
581,39	13,685
581,58	12,848
581,77	13,362
581,97	14,114
582,16	13,523
582,35	13,472
582,55	14,431
582,74	14,721
582,94	14,214
583,13	12,704
583,32	15,119
583,52	14,472
583,71	14,514
583,90	14,891
584,10	14,684
584,29	15,348
584,48	15,135
584,68	15,194
584,87	16,267
585,06	15,954
585,26	13,941
585,45	14,431
585,65	16,924
585,84	14,952
586,03	13,766
586,23	14,022
586,42	14,721
586,61	16,511
586,81	15,349
587,00	15,030
587,19	13,989
587,39	17,853
587,58	17,015
587,77	15,666
587,97	15,146
588,16	15,722
588,35	15,975
588,54	17,757
588,74	15,917
588,93	18,527
589,12	15,689
589,32	14,510
589,51	14,983
589,70	14,108
589,90	14,862
590,09	16,857
590,28	18,623
590,48	16,262
590,67	17,094
590,86	18,436
591,06	17,574
591,25	18,919
591,44	17,791
591,63	17,371
591,83	18,950
592,02	17,623
592,21	16,852
592,41	17,901
592,60	18,882
592,79	18,920
592,98	19,055
593,18	19,908
593,37	19,335
593,56	20,376
593,76	19,912
593,95	18,818
594,14	17,944
594,33	22,479
594,53	18,635
594,72	17,838
594,91	22,060
595,10	20,324
595,30	19,299
595,49	20,511
595,68	20,154
595,88	20,023
596,07	19,946
596,26	20,279
596,45	22,021
596,65	17,310
596,84	20,257
597,03	20,795
597,22	21,852
597,42	23,094
597,61	21,755
597,80	20,161
597,99	21,328
598,19	22,957
598,38	21,599
598,57	22,736
598,76	22,436
598,95	23,316
599,15	23,027
599,34	22,090
599,53	21,751
599,72	22,451
599,92	23,391
600,11	22,332
600,30	22,962
600,49	23,088
600,69	21,473
600,88	23,849
601,07	22,404
601,26	23,262
601,45	23,531
601,65	23,123
601,84	23,858
602,03	23,595
602,22	24,191
602,42	24,873
602,61	23,757
602,80	24,788
602,99	24,683
603,18	23,590
603,38	24,673
603,57	23,291
603,76	22,768
603,95	23,335
604,14	25,774
604,34	25,887
604,53	23,693
604,72	26,186
604,91	26,547
605,10	25,470
605,29	24,840
605,49	24,065
605,68	25,148
605,87	26,703
606,06	24,468
606,25	25,194
606,45	26,166
606,64	24,954
606,83	25,742
607,02	24,924
607,21	24,416
607,40	27,162
607,60	24,398
607,79	25,361
607,98	23,844
608,17	24,299
608,36	24,960
608,55	24,286
608,75	25,320
608,94	23,705
609,13	22,029
609,32	23,198
609,51	22,410
609,70	22,098
609,89	22,164
610,09	21,845
610,28	23,199
610,47	22,090
610,66	21,474
610,85	20,352
611,04	24,305
611,23	21,572
611,43	20,579
611,62	20,507
611,81	22,906
612,00	21,647
612,19	21,356
612,38	22,097
612,57	24,756
612,77	22,919
612,96	23,084
613,15	24,611
613,34	25,331
613,53	24,495
613,72	26,678
613,91	25,690
614,10	25,783
614,29	26,062
614,49	24,216
614,68	25,112
614,87	27,091
615,06	29,599
615,25	26,474
615,44	28,744
615,63	27,375
615,82	26,475
616,01	26,341
616,21	27,144
616,40	26,245
616,59	29,001
616,78	29,049
616,97	27,784
617,16	27,373
617,35	29,653
617,54	28,871
617,73	29,301
617,92	27,026
618,11	29,130
618,31	25,909
618,50	29,175
618,69	28,554
618,88	27,990
619,07	27,625
619,26	26,224
619,45	28,076
619,64	27,643
619,83	27,797
620,02	27,139
620,21	29,353
620,40	28,511
620,59	28,676
620,78	27,127
620,97	28,578
621,17	27,643
621,36	28,091
621,55	28,080
621,74	28,302
621,93	28,965
622,12	28,445
622,31	28,360
622,50	29,439
622,69	31,585
622,88	29,216
623,07	29,781
623,26	30,949
623,45	30,578
623,64	27,497
623,83	29,363
624,02	31,551
624,21	32,107
624,40	30,684
624,59	28,807
624,78	29,160
624,97	30,525
625,16	28,344
625,35	28,793
625,54	28,851
625,73	30,445
625,92	29,936
626,12	30,638
626,31	32,479
626,50	30,750
626,69	30,398
626,88	29,188
627,07	31,352
627,26	30,773
627,45	29,339
627,64	30,796
627,83	31,016
628,02	29,803
628,21	29,680
628,40	29,820
628,59	32,282
628,78	28,787
628,97	28,862
629,16	28,596
629,35	29,416
629,54	32,559
629,73	29,618
629,92	28,031
630,10	29,557
630,29	30,895
630,48	29,444
630,67	30,078
630,86	30,381
631,05	31,504
631,24	31,977
631,43	28,096
631,62	29,395
631,81	30,570
632,00	30,564
632,19	30,721
632,38	31,022
632,57	31,984
632,76	30,538
632,95	31,327
633,14	33,703
633,33	31,961
633,52	31,475
633,71	32,122
633,90	31,299
634,09	32,151
634,28	32,707
634,47	29,824
634,66	30,395
634,85	32,485
635,04	32,895
635,22	31,850
635,41	32,907
635,60	31,805
635,79	32,250
635,98	29,537
636,17	31,313
636,36	31,377
636,55	32,025
636,74	30,165
636,93	32,014
637,12	31,578
637,31	31,066
637,50	31,801
637,69	32,627
637,87	31,652
638,06	31,595
638,25	31,899
638,44	32,085
638,63	29,858
638,82	32,015
639,01	31,055
639,20	32,104
639,39	33,942
639,58	30,817
639,77	31,985
639,95	30,967
640,14	33,406
640,33	30,593
640,52	32,008
640,71	34,347
640,90	31,766
641,09	33,987
641,28	30,680
641,47	34,314
641,66	32,074
641,84	32,783
642,03	32,787
642,22	31,487
642,41	34,013
642,60	32,367
642,79	31,240
642,98	31,640
643,17	31,607
643,35	32,252
643,54	32,073
643,73	32,031
643,92	33,209
644,11	31,830
644,30	31,406
644,49	32,430
644,67	31,454
644,86	30,121
645,05	34,343
645,24	31,611
645,43	32,333
645,62	32,428
645,81	33,483
645,99	35,619
646,18	32,914
646,37	31,329
646,56	32,829
646,75	35,125
646,94	34,629
647,13	31,162
647,31	31,377
647,50	33,896
647,69	34,326
647,88	34,228
648,07	32,522
648,26	35,958
648,44	32,427
648,63	31,585
648,82	32,288
649,01	33,940
649,20	31,702
649,38	33,667
649,57	33,258
649,76	31,568
649,95	34,707
650,14	32,320
650,33	31,766
650,51	33,896
650,70	33,432
650,89	31,682
651,08	32,100
651,27	33,507
651,45	31,677
651,64	31,422
651,83	34,132
652,02	32,452
652,21	34,042
652,39	33,853
652,58	33,977
652,77	34,337
652,96	33,347
653,15	32,784
653,33	32,894
653,52	34,309
653,71	35,973
653,90	35,481
654,09	33,767
654,27	34,296
654,46	36,256
654,65	34,318
654,84	35,201
655,02	36,158
655,21	36,485
655,40	35,297
655,59	34,333
655,77	35,910
655,96	35,857
656,15	35,349
656,34	35,727
656,53	35,372
656,71	34,599
656,90	34,614
657,09	35,833
657,28	35,708
657,46	34,699
657,65	34,024
657,84	32,851
658,03	33,636
658,21	35,142
658,40	31,889
658,59	33,595
658,78	33,811
658,96	32,445
659,15	32,727
659,34	33,080
659,52	32,644
659,71	34,125
659,90	33,670
660,09	32,149
660,27	33,211
660,46	32,824
660,65	32,572
660,84	32,454
661,02	32,281
661,21	32,928
661,40	33,666
661,58	32,769
661,77	32,918
661,96	30,027
662,15	31,683
662,33	31,831
662,52	31,110
662,71	33,575
662,89	31,560
663,08	31,588
663,27	33,343
663,45	30,499
663,64	33,238
663,83	29,962
664,02	33,226
664,20	34,080
664,39	30,761
664,58	32,509
664,76	31,169
664,95	33,576
665,14	31,875
665,32	30,538
665,51	31,865
665,70	32,245
665,88	31,892
666,07	32,614
666,26	33,914
666,44	32,517
666,63	31,579
666,82	31,689
667,00	34,001
667,19	31,038
667,38	31,953
667,56	31,907
667,75	32,195
667,94	32,320
668,12	31,223
668,31	32,182
668,50	32,476
668,68	34,231
668,87	31,446
669,06	31,767
669,24	33,484
669,43	30,828
669,62	30,131
669,80	30,791
669,99	32,198
670,18	32,404
670,36	31,405
670,55	31,567
670,74	31,385
670,92	30,645
671,11	31,438
671,29	32,231
671,48	31,349
671,67	32,411
671,85	33,585
672,04	30,535
672,23	30,673
672,41	32,094
672,60	33,709
672,78	30,284
672,97	31,129
673,16	32,214
673,34	31,149
673,53	32,077
673,71	31,811
673,90	31,903
674,09	30,477
674,27	30,732
674,46	32,209
674,64	32,729
674,83	30,888
675,02	29,821
675,20	31,255
675,39	30,749
675,57	32,488
675,76	32,234
675,95	33,329
676,13	31,876
676,32	33,045
676,50	31,700
676,69	28,800
676,88	31,295
677,06	31,076
677,25	30,761
677,43	33,159
677,62	32,474
677,80	33,608
677,99	32,031
678,18	30,929
678,36	33,766
678,55	30,797
678,73	30,151
678,92	31,139
679,10	33,091
679,29	32,561
679,48	30,408
679,66	31,509
679,85	30,085
680,03	31,164
680,22	31,949
680,40	30,398
680,59	31,053
680,77	30,792
680,96	32,256
681,15	31,558
681,33	33,402
681,52	30,606
681,70	32,750
681,89	33,763
682,07	33,547
682,26	29,893
682,44	33,280
682,63	32,485
682,81	32,558
683,00	32,876
683,18	31,454
683,37	32,272
683,55	32,214
683,74	32,239
683,92	36,391
684,11	32,751
684,29	31,346
684,48	30,888
684,67	32,353
684,85	32,413
685,04	32,855
685,22	33,787
685,41	31,993
685,59	33,858
685,78	32,217
685,96	32,065
686,15	32,843
686,33	32,820
686,52	33,808
686,70	30,904
686,89	34,375
687,07	33,554
687,26	32,336
687,44	33,144
687,62	31,152
687,81	33,294
687,99	32,014
688,18	31,040
688,36	32,952
688,55	31,156
688,73	32,827
688,92	31,888
689,10	33,115
689,29	34,244
689,47	33,197
689,66	32,811
689,84	32,961
690,03	34,920
690,21	32,723
690,40	33,562
690,58	31,842
690,76	32,051
690,95	34,124
691,13	32,701
691,32	33,650
691,50	34,371
691,69	32,963
691,87	31,759
692,06	32,805
692,24	31,640
692,43	33,100
692,61	30,689
692,79	31,616
692,98	32,438
693,16	34,566
693,35	30,931
693,53	33,370
693,72	32,745
693,90	33,414
694,08	31,458
694,27	31,147
694,45	34,496
694,64	34,168
694,82	32,971
695,01	30,767
695,19	31,903
695,37	32,953
695,56	32,804
695,74	32,366
695,93	34,044
696,11	32,031
696,29	33,772
696,48	33,993
696,66	32,728
696,85	33,841
697,03	32,764
697,21	33,952
697,40	32,950
697,58	32,963
697,77	33,011
697,95	34,087
698,13	34,674
698,32	32,653
698,50	32,678
698,69	32,091
698,87	33,347
699,05	33,397
699,24	31,414
699,42	33,627
699,60	30,910
699,79	33,178
699,97	33,892
700,16	32,495
700,34	34,992
700,52	32,852
700,71	32,333
700,89	31,365
701,07	33,870
701,26	33,668
701,44	32,755
701,63	31,574
701,81	33,979
701,99	34,341
702,18	32,139
702,36	30,684
702,54	31,743
702,73	32,659
702,91	32,128
703,09	32,273
703,28	33,224
703,46	33,492
703,64	31,590
703,83	34,084
704,01	32,647
704,19	32,560
704,38	31,732
704,56	31,766
704,74	33,914
704,93	32,680
705,11	32,856
705,29	33,434
705,48	34,959
705,66	33,076
705,84	32,525
706,03	31,671
706,21	34,509
706,39	33,162
706,58	31,045
706,76	32,922
706,94	35,327
707,12	33,800
707,31	33,234
707,49	31,584
707,67	32,817
707,86	34,548
708,04	33,668
708,22	32,317
708,41	33,979
708,59	32,841
708,77	32,286
708,95	33,767
709,14	36,919
709,32	34,030
709,50	31,958
709,69	33,217
709,87	32,191
710,05	33,074
710,23	31,299
710,42	30,685
710,60	34,039
710,78	33,788
710,97	32,878
711,15	32,989
711,33	33,906
711,51	31,009
711,70	31,574
711,88	32,657
712,06	35,301
712,24	32,719
712,43	33,367
712,61	32,684
712,79	32,732
712,97	33,112
713,16	32,814
713,34	31,845
713,52	33,777
713,70	32,237
713,89	33,430
714,07	33,125
714,25	33,534
714,43	34,225
714,62	32,027
714,80	33,648
714,98	30,574
715,16	32,965
715,35	31,759
715,53	32,984
715,71	32,738
715,89	33,591
716,07	32,025
716,26	36,455
716,44	34,098
716,62	34,012
716,80	33,763
716,99	32,187
717,17	33,384
717,35	32,106
717,53	32,265
717,71	31,790
717,90	32,979
718,08	32,139
718,26	31,324
718,44	32,617
718,62	33,209
718,81	33,778
718,99	32,001
719,17	31,805
719,35	32,126
719,53	32,191
719,72	30,965
719,90	32,673
720,08	30,485
720,26	33,893
720,44	30,993
720,62	33,680
720,81	34,814
720,99	33,661
721,17	32,697
721,35	31,954
721,53	34,629
721,72	32,865
721,90	32,092
722,08	33,538
722,26	34,228
722,44	32,311
722,62	32,339
722,81	32,828
722,99	32,978
723,17	33,689
723,35	32,735
723,53	33,676
723,71	33,238
723,89	35,937
724,08	32,323
724,26	34,283
724,44	32,917
724,62	34,529
724,80	30,852
724,98	34,229
725,16	33,091
725,35	33,044
725,53	33,139
725,71	31,263
725,89	34,003
726,07	33,876
726,25	35,319
726,43	33,334
726,61	34,214
726,80	33,951
726,98	33,198
727,16	34,243
727,34	34,865
727,52	33,302
727,70	32,939
727,88	32,087
728,06	31,523
728,25	30,030
728,43	34,655
728,61	33,963
728,79	31,811
728,97	34,631
729,15	31,915
729,33	35,619
729,51	34,246
729,69	34,990
729,87	34,489
730,06	33,121
730,24	34,468
730,42	35,074
730,60	32,596
730,78	34,479
730,96	32,806
731,14	33,069
731,32	34,112
731,50	31,387
731,68	32,732
731,86	34,723
732,04	33,800
732,22	33,763
732,41	35,641
732,59	33,116
732,77	34,672
732,95	34,850
733,13	35,207
733,31	32,858
733,49	33,612
733,67	33,842
733,85	34,427
734,03	34,772
734,21	33,246
734,39	32,403
734,57	34,373
734,75	34,210
734,93	33,992
735,11	33,776
735,29	32,383
735,47	36,704
735,65	33,168
735,84	31,765
736,02	33,328
736,20	35,324
736,38	33,260
736,56	34,627
736,74	34,900
736,92	34,060
737,10	32,850
737,28	34,589
737,46	33,679
737,64	32,220
737,82	31,967
738,00	36,686
738,18	33,639
738,36	34,025
738,54	31,733
738,72	31,150
738,90	32,972
739,08	33,334
739,26	31,808
739,44	34,695
739,62	34,066
739,80	33,564
739,98	34,611
740,16	32,886
740,34	34,241
740,52	35,405
740,70	32,348
740,88	33,234
741,06	33,351
741,24	34,326
741,42	34,600
741,60	33,737
741,78	35,069
741,96	32,888
742,14	31,721
742,32	30,639
742,50	35,364
742,68	33,976
742,86	34,152
743,04	32,151
743,21	35,796
743,39	34,840
743,57	32,662
743,75	32,502
743,93	30,771
744,11	32,730
744,29	31,986
744,47	31,795
744,65	31,129
744,83	31,893
745,01	32,885
745,19	34,506
745,37	34,825
745,55	34,417
745,73	32,657
745,91	31,909
746,09	33,179
746,27	32,806
746,45	28,745
746,62	32,584
746,80	33,734
746,98	35,859
747,16	32,424
747,34	33,534
747,52	33,637
747,70	33,908
747,88	33,609
748,06	33,132
748,24	35,539
748,42	34,930
748,60	31,872
748,78	32,848
748,95	34,719
749,13	35,537
749,31	33,410
749,49	33,155
749,67	31,893
749,85	34,990
750,03	33,547
750,21	33,401
750,39	33,005
750,57	35,039
750,74	33,313
750,92	30,965
751,10	33,057
751,28	31,668
751,46	33,175
751,64	34,479
751,82	35,861
752,00	33,843
752,17	33,112
752,35	31,288
752,53	33,483
752,71	33,480
752,89	32,572
753,07	33,388
753,25	32,929
753,43	33,180
753,60	35,941
753,78	34,354
753,96	34,664
754,14	31,652
754,32	31,521
754,50	34,279
754,68	34,250
754,85	35,810
755,03	35,595
755,21	34,069
755,39	36,635
755,57	32,788
755,75	33,427
755,92	33,145
756,10	33,376
756,28	34,004
756,46	33,725
756,64	33,850
756,82	34,324
756,99	32,985
757,17	32,214
757,35	33,223
757,53	35,879
757,71	36,635
757,89	32,076
758,06	33,235
758,24	35,141
758,42	33,449
758,60	32,892
758,78	33,041
758,95	33,792
759,13	33,218
759,31	33,102
759,49	32,904
759,67	33,666
759,84	33,750
760,02	33,875
760,20	33,141
760,38	34,090
760,56	33,955
760,73	34,111
760,91	34,208
761,09	34,746
761,27	31,750
761,45	32,606
761,62	32,968
761,80	34,688
761,98	32,522
762,16	33,550
762,33	33,642
762,51	34,998
762,69	32,709
762,87	32,046
763,05	31,294
763,22	34,408
763,40	32,015
763,58	31,965
763,76	33,822
763,93	36,585
764,11	34,550
764,29	32,992
764,47	31,692
764,64	33,650
764,82	35,526
765,00	32,008
765,18	31,449
765,35	31,062
765,53	33,896
765,71	32,717
765,89	32,736
766,06	33,752
766,24	34,691
766,42	33,282
766,60	33,299
766,77	31,460
766,95	35,025
767,13	34,637
767,30	34,171
767,48	31,664
767,66	33,792
767,84	35,256
768,01	33,298
768,19	33,861
768,37	32,210
768,54	32,427
768,72	32,862
768,90	35,379
769,08	33,705
769,25	33,812
769,43	33,928
769,61	30,572
769,78	32,965
769,96	33,848
770,14	33,985
770,31	33,514
770,49	36,128
770,67	34,828
770,85	32,084
771,02	33,181
771,20	32,510
771,38	34,024
771,55	31,328
771,73	32,760
771,91	32,806
772,08	35,227
772,26	33,723
772,44	31,385
772,61	31,656
772,79	34,372
772,97	32,842
773,14	31,226
773,32	32,245
773,50	32,301
773,67	32,520
773,85	35,187
774,03	34,571
774,20	33,601
774,38	33,879
774,56	33,674
774,73	33,581
774,91	32,754
775,09	31,752
775,26	32,955
775,44	34,543
775,61	32,720
775,79	30,717
775,97	36,161
776,14	33,177
776,32	32,628
776,50	34,434
776,67	35,418
776,85	35,027
777,03	32,284
777,20	34,264
777,38	34,099
777,55	34,477
777,73	30,054
777,91	32,069
778,08	32,779
778,26	31,653
778,43	34,452
778,61	32,262
778,79	32,529
778,96	30,962
779,14	32,823
779,32	33,416
779,49	33,686
779,67	35,622
779,84	33,538
780,02	33,530
780,20	30,409
780,37	34,566
780,55	27,988
780,72	35,057
780,90	33,287
781,07	31,417
781,25	33,791
781,43	34,992
781,60	33,742
781,78	34,730
781,95	34,079
782,13	33,216
782,30	36,473
782,48	32,582
782,66	31,596
782,83	30,595
783,01	37,860
783,18	34,855
783,36	33,249
783,53	35,938
783,71	33,127
783,89	32,610
784,06	35,125
784,24	32,960
784,41	37,695
784,59	34,753
784,76	33,342
784,94	33,170
785,11	32,991
785,29	33,357
785,46	32,796
785,64	32,975
785,82	36,666
785,99	36,406
786,17	33,992
786,34	33,075
786,52	35,432
786,69	34,919
786,87	32,072
787,04	32,593
787,22	32,454
787,39	34,868
787,57	35,815
787,74	33,350
787,92	36,242
788,09	34,030
788,27	34,331
788,44	33,491
788,62	35,520
788,79	32,419
788,97	38,728
789,14	34,141
789,32	33,197
789,49	33,816
789,67	34,249
789,84	33,491
790,02	35,578
790,19	33,407
790,37	34,403
790,54	35,775
790,72	38,813
790,89	35,233
791,07	35,714
791,24	30,091
791,42	36,653
791,59	35,469
791,77	34,312
791,94	30,531
792,12	32,362
792,29	36,023
792,47	34,692
792,64	37,765
792,81	36,596
792,99	35,133
793,16	33,015
793,34	36,779
793,51	37,125
793,69	35,990
793,86	32,221
794,04	35,450
794,21	37,123
794,39	32,251
794,56	33,490
794,73	35,842
794,91	38,927
795,08	34,279
795,26	33,097
795,43	33,656
795,61	38,363
795,78	35,275
795,95	34,791
796,13	35,390
796,30	35,534
796,48	34,128
796,65	34,091
796,83	36,041
797,00	38,859
797,17	32,046
797,35	37,075
797,52	33,655
797,70	37,301
797,87	36,151
798,04	32,366
798,22	36,549
798,39	34,669
798,57	34,285
798,74	36,819
798,91	34,425
799,09	32,347
799,26	35,703
799,44	33,464
799,61	32,125
799,78	35,765
799,96	36,858
800,13	34,344
800,31	31,596
800,48	37,777
800,65	39,474
800,83	34,002
801,00	30,374
801,17	34,802
801,35	34,186
801,52	35,562
801,70	36,663
801,87	33,894
802,04	38,115
802,22	33,646
802,39	32,780
802,56	40,888
802,74	36,471
802,91	36,685
803,08	32,364
803,26	32,043
803,43	35,136
803,61	32,627
803,78	36,747
803,95	35,959
804,13	36,290
804,30	33,802
804,47	37,236
804,65	35,679
804,82	33,943
804,99	38,564
805,17	37,981
805,34	40,002
805,51	38,065
805,69	33,444
805,86	32,814
806,03	40,875
806,21	39,472
806,38	35,875
806,55	39,638
806,72	38,645
806,90	36,966
807,07	38,022
807,24	36,371
807,42	34,063
807,59	36,223
807,76	37,440
807,94	33,300
808,11	40,672
808,28	39,839
808,45	38,113
808,63	39,790
808,80	39,226
808,97	35,176
809,15	34,096
809,32	37,441
809,49	35,958
809,67	32,284
809,84	36,087
810,01	34,998
810,18	38,743
810,36	37,028
810,53	39,275
810,70	36,537
810,87	37,413
811,05	36,428
811,22	38,537
811,39	35,600
811,57	36,082
811,74	40,372
811,91	35,551
812,08	34,389
812,26	38,233
812,43	34,554
812,60	36,066
812,77	34,660
812,95	35,556
813,12	38,956
813,29	35,228
813,46	40,569
813,64	35,945
813,81	38,680
813,98	38,425
814,15	42,149
814,32	37,192
814,50	38,169
814,67	38,396
814,84	38,499
815,01	35,824
815,19	25,803
815,36	30,673
815,53	36,850
815,70	36,524
815,87	40,186
816,05	31,275
816,22	38,821
816,39	39,584
816,56	40,744
816,74	38,893
816,91	39,173
817,08	42,596
817,25	36,595
817,42	39,961
817,60	35,116
817,77	35,777
817,94	38,211
818,11	36,339
818,28	37,250
818,45	42,878
818,63	37,260
818,80	37,146
818,97	38,602
819,14	45,583
819,31	41,191
819,49	38,741
819,66	37,350
819,83	33,642
820,00	39,040
820,17	38,227
820,34	39,265
820,52	41,658
820,69	40,325
820,86	34,626
821,03	35,249
821,20	40,757
821,37	41,534
821,55	30,050
821,72	39,506
821,89	37,982
822,06	40,600
822,23	38,785
822,40	33,850
822,57	35,218
822,75	43,802
822,92	36,195
823,09	37,971
823,26	39,305
823,43	40,890
823,60	32,212
823,77	36,565
823,94	40,356
824,12	45,060
824,29	35,192
824,46	34,649
824,63	45,074
824,80	40,042
824,97	35,741
825,14	33,999
825,31	37,319
825,49	38,971
825,66	38,862
825,83	38,498
826,00	36,331
826,17	47,452
826,34	37,985
826,51	30,833
826,68	37,038
826,85	44,590
827,02	42,079
827,20	37,814
827,37	42,409
827,54	45,689
827,71	36,111
827,88	40,596
828,05	40,876
828,22	44,305
828,39	45,984
828,56	41,405
828,73	45,203
828,90	44,332
829,07	34,553
829,25	44,862
829,42	37,309
829,59	39,766
829,76	35,639
829,93	36,976
830,10	39,801
830,27	31,793
830,44	35,303
830,61	36,742
830,78	47,452
830,95	37,995
831,12	37,785
831,29	37,145
831,46	40,755
831,63	41,238
831,80	41,147
831,97	37,263
832,14	46,042
832,31	53,555
832,48	34,005
832,65	37,548
832,83	42,800
833,00	43,234
833,17	36,252
833,34	39,379
833,51	44,281
833,68	45,956
833,85	42,700
834,02	40,949
834,19	40,415
834,36	44,985
834,53	36,275
834,70	37,803
834,87	46,616
835,04	35,739
835,21	38,142
835,38	35,230
835,55	38,376
835,72	53,325
835,89	37,342
836,06	43,717
836,23	51,147
836,40	37,289
836,57	37,622
836,74	44,878
836,91	36,422
837,08	42,299
837,25	38,751
837,42	35,297
837,59	35,554
837,76	41,606
837,93	42,009
838,09	36,198
838,26	39,333
838,43	48,919
838,60	43,661
838,77	39,766
838,94	44,756
839,11	40,129
839,28	38,923
839,45	40,688
839,62	37,486
839,79	43,190
839,96	44,791
840,13	42,588
840,30	38,275
840,47	32,003
840,64	38,762
840,81	43,037
840,98	37,254
841,15	46,105
841,32	38,737
841,48	52,135
841,65	37,835
841,82	41,557
841,99	40,034
842,16	32,475
842,33	43,046
842,50	46,756
842,67	39,526
842,84	45,838
843,01	40,984
843,18	45,438
843,35	40,333
843,52	34,439
843,68	47,952
843,85	40,283
844,02	36,060
844,19	37,109
844,36	55,070
844,53	44,185
844,70	48,101
844,87	42,649
845,04	47,595
845,21	38,241
845,37	48,758
845,54	34,465
845,71	30,511
845,88	49,006
846,05	38,811
846,22	32,364
846,39	37,193
846,56	58,059
846,72	35,373
846,89	36,474
847,06	51,765
847,23	38,685
847,40	35,965
847,57	24,337
847,74	38,708
847,90	53,547
848,07	43,776
848,24	46,745
848,41	39,890
848,58	55,149
848,75	49,693
848,92	38,340
849,08	40,715
849,25	42,679
849,42	41,555
849,59	46,991
849,76	45,312
849,93	37,223
850,09	47,296
850,26	32,660
850,43	51,837
850,60	44,256
850,77	37,776
850,94	37,192
851,10	44,274
851,27	44,853
851,44	34,852
851,61	22,817
851,78	51,150
851,95	46,628
852,11	33,476
852,28	38,827
852,45	48,554
852,62	42,679
852,79	50,953
852,95	39,097
853,12	55,631
853,29	38,923
853,46	41,938
853,63	41,738
853,79	35,806
853,96	38,617
854,13	50,965
854,30	40,499
854,46	61,404
854,63	56,635
854,80	53,129
854,97	38,578
855,14	59,461
855,30	47,484
855,47	46,950
855,64	49,758
855,81	43,094
855,97	47,531
856,14	41,721
856,31	25,822
856,48	50,007
856,65	57,812
856,81	39,651
856,98	33,762
857,15	28,246
857,32	53,406
857,48	28,595
857,65	51,398
857,82	41,255
857,99	65,095
858,15	42,653
858,32	52,824
858,49	35,566
858,65	62,366
858,82	42,020
858,99	49,802
859,16	58,298
859,32	49,676
859,49	48,815
859,66	46,519
859,83	46,093
859,99	42,923
860,16	56,361
860,33	46,747
860,49	58,190
860,66	54,725
860,83	44,464
861,00	45,461
861,16	57,115
861,33	55,638
861,50	42,937
861,66	50,009
861,83	62,998
862,00	38,436
862,16	62,291
862,33	37,430
862,50	66,737
862,67	55,182
862,83	45,686
863,00	58,051
863,17	79,636
863,33	50,921
863,50	31,236
863,67	36,627
863,83	49,363
864,00	56,320
864,17	39,976
864,33	51,698
864,50	66,406
864,67	49,468
864,83	45,154
865,00	47,311
865,17	45,561
865,33	54,556
865,50	41,472
865,67	50,445
865,83	56,897
866,00	74,107
866,17	65,420
866,33	38,618
866,50	80,211
866,66	55,998
866,83	67,204
867,00	51,948
867,16	74,734
867,33	62,515
867,50	17,814
867,66	23,746
867,83	73,858
868,00	60,727
868,16	35,444
868,33	49,188
868,49	39,161
868,66	73,248
868,83	53,066
868,99	52,653
869,16	86,313
869,32	75,624
869,49	46,676
869,66	38,783
869,82	71,844
869,99	70,208
870,15	47,851
870,32	52,111
870,49	93,562
870,65	100,265
870,82	62,078
870,98	49,120
871,15	66,601
871,32	51,096
871,48	25,666
871,65	38,035
871,81	59,971
871,98	39,594
872,15	41,067
872,31	38,013
872,48	80,457
872,64	37,020
872,81	30,778
872,97	42,118
873,14	103,022
873,31	76,013
873,47	40,692
873,64	57,124
873,80	94,512
873,97	69,577
874,13	34,339
874,30	49,652
874,46	88,587
874,63	46,132
874,80	48,359
874,96	37,516
875,13	101,514
875,29	46,317
875,46	60,825
875,62	47,671
875,79	76,136
875,95	71,410
876,12	55,868
876,28	56,855
876,45	87,828
876,61	57,676
876,78	42,537
876,94	54,161
877,11	89,258
877,27	65,568
877,44	27,607
877,60	57,076
877,77	85,181
877,94	127,589
878,10	36,033
878,27	71,098
878,43	121,701
878,60	17,832
878,76	68,204
878,93	58,536
879,09	112,954
879,26	125,239
879,42	102,428
879,58	62,382
879,75	109,174
879,91	119,358
880,08	-25,146
880,24	59,303
880,41	84,685
880,57	95,264
880,74	30,168
880,90	51,572
881,07	77,145
881,23	159,991
881,40	49,254
881,56	66,329
881,73	86,980
881,89	63,189
882,06	12,431
882,22	147,093
882,38	146,472
882,55	137,633
882,71	44,292
882,88	15,973
883,04	105,174
883,21	134,170
883,37	29,048
883,54	31,181
883,70	102,607
883,86	91,892
884,03	71,234
884,19	59,416
884,36	-60,476
884,52	194,932
884,69	46,705
884,85	64,260
885,01	81,824
885,18	76,114
885,34	94,744
885,51	-10,331
885,67	76,845
>>>>> Data<<<<< Espectral Procesado Extremo
