Fichero De Datos De SpectraSuite
++++++++++++++++++++++++++++++++++++
Fecha: Wed Apr 22 11:16:21 CEST 2009
Usuario: evoflor
Presente Oscuro Del Espectro: Sí
La Referencia de Presente Del Espectro De: Sí
Muestreados de los componentes de Número de espectros: 1
Espectrómetros: USB4F02353
Tiempo de integración (usec): 500000 (USB4F02353)
Promedio de Espectros Hechos un: 5 (USB4F02353)
El Alisar Del Furgón: 0 (USB4F02353)
Párrafo de de Corregir del la del del de Eléctrica del obscuridad: Sí (USB4F02353)
Estrobo/Lámpara Permitido: No (USB4F02353)
Correct for Detector Non-linearity: No (USB4F02353)
Párrafo de de Corregir del la del del de Externa del luz: No (USB4F02353)
Procesado del espectro de Número de pixeles en: 3648
>>>>> Comienza Data<<<<< Espectral Procesado Del EL
177,79	252,848
178,00	252,848
178,22	252,848
178,44	2033,571
178,66	-149,483
178,88	198,225
179,09	-177,638
179,31	318,339
179,53	555,557
179,75	331,762
179,96	577,112
180,18	-192,138
180,40	416,704
180,62	158,475
180,83	-121,302
181,05	-948,110
181,27	-103845,000
181,49	7,076
181,70	264,404
181,92	673,325
182,14	337,184
182,36	25,153
182,58	-417,450
182,79	668,504
183,01	47,724
183,23	166,091
183,45	-322,292
183,66	109,978
183,88	414,971
184,10	-2313,545
184,32	172,389
184,53	155,267
184,75	-143,909
184,97	42,056
185,18	-168,130
185,40	-793,486
185,62	112,393
185,84	175,644
186,05	113,585
186,27	-100,302
186,49	2574,808
186,71	60,644
186,92	150,599
187,14	-204,099
187,36	107,542
187,58	42,722
187,79	78,807
188,01	135,464
188,23	-302,685
188,45	18,256
188,66	198,415
188,88	-1544,455
189,10	-1317,450
189,31	36,271
189,53	43,330
189,75	411,920
189,97	326,712
190,18	16,931
190,40	483,794
190,62	-200,365
190,83	-237,053
191,05	67,798
191,27	358,414
191,49	433,032
191,70	-187,716
191,92	-696,992
192,14	-45,067
192,35	433,011
192,57	3198,429
192,79	25,792
193,01	106,112
193,22	90,694
193,44	169,889
193,66	86,500
193,87	104,807
194,09	85,805
194,31	111,178
194,53	285,629
194,74	-51,702
194,96	44,175
195,18	106,819
195,39	-143,391
195,61	-65,546
195,83	-249,228
196,04	85,316
196,26	-435,905
196,48	-21,752
196,70	383,588
196,91	68,575
197,13	-24,190
197,35	135,658
197,56	572,276
197,78	1607,799
198,00	1091,224
198,21	421,092
198,43	-839,215
198,65	92,597
198,86	240,809
199,08	145,721
199,30	99,079
199,51	-259,104
199,73	245,713
199,95	310,507
200,16	354,404
200,38	219,767
200,60	258,552
200,81	158,769
201,03	233,274
201,25	-1290,450
201,46	113,605
201,68	24,925
201,90	3362,386
202,11	-282,996
202,33	147,657
202,55	341,812
202,76	19,170
202,98	270,889
203,20	-135,793
203,41	-210,237
203,63	84,930
203,85	-86745,000
204,06	111,473
204,28	-70,229
204,50	154,873
204,71	309,090
204,93	-256,440
205,15	-50,467
205,36	-83,260
205,58	169,952
205,80	-127,809
206,01	102,670
206,23	172,460
206,45	178,087
206,66	76,643
206,88	-71,672
207,10	146,011
207,31	215,026
207,53	121,843
207,75	76,848
207,96	989,888
208,18	-128,063
208,39	83,997
208,61	4329,857
208,83	-120,954
209,04	260,910
209,26	-358,272
209,48	181,402
209,69	237,169
209,91	563,666
210,13	70,975
210,34	190,424
210,56	205,086
210,77	-1526,339
210,99	138,873
211,21	8437,941
211,42	-92,474
211,64	12,264
211,86	252,447
212,07	297,030
212,29	183,957
212,50	117,972
212,72	247,096
212,94	152,404
213,15	144,783
213,37	196,509
213,58	-62,627
213,80	-76,607
214,02	11667,353
214,23	312,673
214,45	237,197
214,67	-1848,110
214,88	-13,238
215,10	-227,192
215,31	-68,024
215,53	-58,534
215,75	197,817
215,96	1522,640
216,18	-502,183
216,39	217,031
216,61	214,945
216,83	274,754
217,04	1480,281
217,26	-8,153
217,47	82,356
217,69	163,565
217,91	19,987
218,12	-84045,000
218,34	153,148
218,55	418,687
218,77	-24,901
218,99	76,999
219,20	-76,263
219,42	251,593
219,63	118,241
219,85	54,445
220,06	-78,288
220,28	169,976
220,50	6,125
220,71	70,663
220,93	1942,358
221,14	-1695,450
221,36	97,428
221,58	46,827
221,79	-25,315
222,01	631,422
222,22	612,138
222,44	84,775
222,65	82,986
222,87	15,000
223,09	132,628
223,30	44,870
223,52	206,678
223,73	87,171
223,95	16,965
224,16	-56,814
224,38	145,841
224,60	82,150
224,81	101,032
225,03	77,693
225,24	90,110
225,46	112,699
225,67	19,164
225,89	29,902
226,10	475,437
226,32	585,960
226,54	34,133
226,75	20,006
226,97	106,689
227,18	135,982
227,40	28,562
227,61	51,072
227,83	-21,179
228,04	92,900
228,26	48,195
228,47	43,408
228,69	194,129
228,91	193,391
229,12	112,586
229,34	36,715
229,55	36,598
229,77	18,475
229,98	1,158
230,20	56,578
230,41	18,693
230,63	44,438
230,84	14,137
231,06	6,181
231,27	17,427
231,49	46,452
231,71	13,122
231,92	20,001
232,14	5,818
232,35	37,243
232,57	14,671
232,78	21,614
233,00	53,951
233,21	35,612
233,43	-6,296
233,64	4,336
233,86	21,949
234,07	4,441
234,29	5,830
234,50	4,997
234,72	36,458
234,93	-10,191
235,15	25,256
235,36	30,201
235,58	12,798
235,79	48,051
236,01	19,369
236,22	11,884
236,44	37,021
236,65	23,018
236,87	32,354
237,08	-2,660
237,30	4,671
237,51	28,206
237,73	8,524
237,94	11,535
238,16	23,690
238,37	5,012
238,59	10,134
238,80	6,682
239,02	1,492
239,23	24,503
239,45	-9,723
239,66	13,813
239,88	23,813
240,09	16,091
240,31	-8,071
240,52	11,915
240,74	8,475
240,95	3,074
241,17	9,978
241,38	8,717
241,60	-4,613
241,81	16,060
242,03	12,363
242,24	15,894
242,46	18,171
242,67	7,252
242,89	8,376
243,10	16,720
243,32	14,402
243,53	15,203
243,75	11,418
243,96	8,350
244,18	8,253
244,39	6,999
244,60	13,403
244,82	3,032
245,03	17,843
245,25	10,627
245,46	26,380
245,68	3,778
245,89	17,812
246,11	13,929
246,32	7,448
246,54	2,953
246,75	5,473
246,97	12,772
247,18	15,572
247,39	0,719
247,61	7,934
247,82	4,060
248,04	6,004
248,25	5,659
248,47	12,696
248,68	13,462
248,90	2,459
249,11	11,214
249,33	12,372
249,54	3,091
249,75	6,106
249,97	5,172
250,18	13,854
250,40	12,700
250,61	-7,174
250,83	1,584
251,04	-2,629
251,25	10,872
251,47	2,937
251,68	5,822
251,90	11,922
252,11	10,572
252,33	4,884
252,54	8,535
252,76	7,944
252,97	1,018
253,18	0,262
253,40	4,458
253,61	0,351
253,83	9,949
254,04	8,283
254,25	6,576
254,47	3,799
254,68	8,843
254,90	6,142
255,11	7,880
255,33	5,771
255,54	6,072
255,75	6,684
255,97	6,793
256,18	3,716
256,40	4,620
256,61	6,798
256,82	0,659
257,04	6,251
257,25	3,165
257,47	7,588
257,68	6,997
257,89	8,137
258,11	11,637
258,32	9,339
258,54	7,390
258,75	6,883
258,96	9,810
259,18	6,960
259,39	6,030
259,61	9,495
259,82	3,477
260,03	5,564
260,25	5,681
260,46	2,474
260,68	4,687
260,89	4,536
261,10	7,830
261,32	6,427
261,53	4,074
261,75	7,407
261,96	3,384
262,17	9,219
262,39	9,365
262,60	1,440
262,81	0,099
263,03	10,968
263,24	8,049
263,46	-0,189
263,67	4,606
263,88	2,958
264,10	6,575
264,31	0,348
264,52	6,601
264,74	8,071
264,95	3,012
265,17	6,732
265,38	5,662
265,59	9,601
265,81	7,445
266,02	4,237
266,23	1,971
266,45	10,690
266,66	6,693
266,87	10,214
267,09	0,373
267,30	5,421
267,52	9,936
267,73	3,947
267,94	7,858
268,16	7,739
268,37	3,567
268,58	2,686
268,80	2,953
269,01	2,693
269,22	9,232
269,44	4,560
269,65	1,701
269,86	-1,202
270,08	6,451
270,29	2,437
270,50	2,952
270,72	5,378
270,93	1,867
271,14	-3,091
271,36	2,178
271,57	5,105
271,78	7,597
272,00	5,404
272,21	5,467
272,42	6,042
272,64	11,262
272,85	5,110
273,06	2,283
273,28	9,171
273,49	7,262
273,70	8,535
273,92	5,497
274,13	7,291
274,34	5,023
274,56	4,111
274,77	3,787
274,98	6,619
275,20	4,114
275,41	5,584
275,62	7,591
275,84	6,891
276,05	11,679
276,26	2,376
276,47	1,499
276,69	9,485
276,90	6,393
277,11	5,787
277,33	5,598
277,54	6,662
277,75	4,720
277,97	4,404
278,18	5,288
278,39	7,147
278,61	0,083
278,82	7,514
279,03	7,418
279,24	3,533
279,46	3,337
279,67	7,034
279,88	6,440
280,10	6,984
280,31	0,854
280,52	6,586
280,73	1,825
280,95	7,687
281,16	8,145
281,37	4,514
281,59	8,739
281,80	10,476
282,01	7,414
282,22	3,844
282,44	2,702
282,65	6,818
282,86	7,501
283,08	3,815
283,29	4,384
283,50	5,449
283,71	5,819
283,93	3,320
284,14	8,248
284,35	0,895
284,56	6,077
284,78	2,703
284,99	4,447
285,20	10,441
285,42	3,050
285,63	6,061
285,84	1,181
286,05	2,567
286,27	6,563
286,48	3,135
286,69	3,958
286,90	5,067
287,12	2,649
287,33	2,077
287,54	4,696
287,75	5,236
287,97	4,558
288,18	6,999
288,39	0,937
288,60	6,252
288,82	6,890
289,03	2,203
289,24	8,417
289,45	7,809
289,67	4,560
289,88	2,908
290,09	6,275
290,30	3,396
290,52	2,313
290,73	3,725
290,94	1,659
291,15	2,973
291,37	4,182
291,58	4,600
291,79	3,747
292,00	4,966
292,21	4,698
292,43	4,361
292,64	1,605
292,85	3,760
293,06	7,231
293,28	1,482
293,49	2,412
293,70	6,144
293,91	8,074
294,12	6,105
294,34	1,421
294,55	6,380
294,76	2,800
294,97	6,660
295,19	2,077
295,40	4,689
295,61	4,945
295,82	2,201
296,03	4,755
296,25	4,196
296,46	4,049
296,67	2,907
296,88	1,933
297,09	7,159
297,31	5,115
297,52	6,044
297,73	4,011
297,94	6,143
298,15	4,706
298,37	3,289
298,58	3,790
298,79	4,006
299,00	1,774
299,21	4,802
299,43	2,587
299,64	9,171
299,85	4,247
300,06	4,302
300,27	4,121
300,49	7,011
300,70	4,152
300,91	5,157
301,12	3,838
301,33	8,068
301,54	4,328
301,76	4,501
301,97	4,975
302,18	3,044
302,39	6,773
302,60	8,291
302,82	4,455
303,03	10,079
303,24	7,234
303,45	4,961
303,66	4,724
303,87	4,882
304,09	7,735
304,30	4,821
304,51	3,803
304,72	4,167
304,93	5,047
305,14	4,823
305,36	0,595
305,57	3,625
305,78	4,991
305,99	4,992
306,20	4,131
306,41	2,597
306,62	4,239
306,84	2,655
307,05	1,062
307,26	3,750
307,47	6,786
307,68	5,913
307,89	4,747
308,11	4,567
308,32	2,598
308,53	5,051
308,74	0,846
308,95	3,590
309,16	3,603
309,37	8,625
309,59	3,978
309,80	6,145
310,01	4,954
310,22	4,152
310,43	2,507
310,64	2,444
310,85	4,632
311,06	1,543
311,28	3,340
311,49	5,989
311,70	9,270
311,91	1,668
312,12	3,895
312,33	3,618
312,54	6,523
312,75	3,509
312,97	1,889
313,18	6,400
313,39	4,562
313,60	4,351
313,81	5,026
314,02	4,634
314,23	6,698
314,44	2,106
314,65	3,563
314,87	3,320
315,08	1,444
315,29	4,937
315,50	6,685
315,71	8,333
315,92	5,802
316,13	5,899
316,34	6,721
316,55	5,044
316,77	1,776
316,98	3,066
317,19	5,833
317,40	6,177
317,61	7,260
317,82	4,586
318,03	2,422
318,24	3,442
318,45	7,490
318,66	3,922
318,87	1,378
319,09	6,626
319,30	5,616
319,51	4,187
319,72	5,582
319,93	4,449
320,14	5,372
320,35	5,009
320,56	2,393
320,77	4,066
320,98	9,524
321,19	5,234
321,40	2,882
321,62	6,412
321,83	5,194
322,04	6,264
322,25	1,702
322,46	8,039
322,67	5,259
322,88	5,663
323,09	3,386
323,30	8,853
323,51	4,778
323,72	6,438
323,93	4,141
324,14	3,682
324,35	1,466
324,56	3,220
324,77	4,536
324,99	4,540
325,20	-1,281
325,41	3,118
325,62	3,881
325,83	2,535
326,04	2,863
326,25	6,662
326,46	1,959
326,67	5,260
326,88	3,402
327,09	3,794
327,30	3,886
327,51	4,940
327,72	4,298
327,93	6,046
328,14	3,740
328,35	2,983
328,56	5,563
328,77	4,158
328,98	5,788
329,19	5,431
329,40	5,293
329,61	3,136
329,82	3,495
330,04	3,568
330,25	2,875
330,46	7,082
330,67	4,615
330,88	3,350
331,09	3,293
331,30	3,432
331,51	5,013
331,72	4,709
331,93	6,184
332,14	4,587
332,35	8,225
332,56	4,908
332,77	4,533
332,98	2,427
333,19	3,900
333,40	6,515
333,61	6,666
333,82	6,632
334,03	7,563
334,24	5,141
334,45	1,351
334,66	6,791
334,87	5,843
335,08	2,686
335,29	3,270
335,50	2,822
335,71	3,445
335,92	7,444
336,13	4,985
336,34	-0,124
336,55	5,445
336,76	8,713
336,97	6,416
337,18	0,748
337,39	3,981
337,60	5,344
337,81	4,862
338,02	3,926
338,23	6,887
338,44	4,658
338,65	4,277
338,86	6,095
339,07	4,216
339,28	6,061
339,49	2,080
339,70	2,137
339,91	3,176
340,11	7,424
340,32	4,054
340,53	3,199
340,74	1,374
340,95	2,907
341,16	6,156
341,37	5,172
341,58	2,889
341,79	3,746
342,00	3,675
342,21	2,974
342,42	3,466
342,63	5,024
342,84	3,096
343,05	4,945
343,26	4,306
343,47	7,860
343,68	2,521
343,89	3,958
344,10	8,914
344,31	7,617
344,52	3,827
344,73	4,778
344,94	3,950
345,14	5,167
345,35	6,507
345,56	4,734
345,77	4,164
345,98	4,318
346,19	5,166
346,40	3,363
346,61	3,995
346,82	5,784
347,03	5,022
347,24	6,489
347,45	4,631
347,66	5,925
347,87	1,987
348,08	5,474
348,28	2,207
348,49	3,206
348,70	3,245
348,91	6,649
349,12	3,462
349,33	15,204
349,54	3,716
349,75	6,796
349,96	5,773
350,17	5,672
350,38	3,314
350,59	6,471
350,80	3,650
351,00	6,780
351,21	6,653
351,42	5,068
351,63	1,757
351,84	3,403
352,05	7,666
352,26	2,140
352,47	3,369
352,68	6,277
352,89	7,169
353,09	5,921
353,30	0,523
353,51	5,614
353,72	5,272
353,93	8,398
354,14	1,121
354,35	4,008
354,56	8,765
354,77	6,031
354,98	-0,587
355,18	4,596
355,39	9,617
355,60	4,948
355,81	3,238
356,02	5,066
356,23	4,443
356,44	4,599
356,65	3,899
356,85	10,421
357,06	6,950
357,27	5,034
357,48	4,659
357,69	8,853
357,90	4,259
358,11	1,085
358,32	4,308
358,52	5,940
358,73	4,472
358,94	3,123
359,15	8,766
359,36	6,031
359,57	2,044
359,78	7,711
359,98	4,305
360,19	2,000
360,40	4,242
360,61	8,318
360,82	5,183
361,03	8,377
361,24	6,726
361,44	5,154
361,65	4,190
361,86	1,117
362,07	7,482
362,28	3,167
362,49	1,198
362,70	3,418
362,90	7,136
363,11	3,779
363,32	2,077
363,53	6,052
363,74	6,912
363,95	8,120
364,15	5,256
364,36	9,392
364,57	4,923
364,78	3,043
364,99	3,645
365,20	8,101
365,40	9,202
365,61	2,122
365,82	7,311
366,03	6,354
366,24	5,506
366,45	2,593
366,65	5,835
366,86	4,093
367,07	2,600
367,28	3,046
367,49	4,287
367,69	10,224
367,90	6,550
368,11	9,264
368,32	3,473
368,53	7,201
368,73	6,872
368,94	6,912
369,15	5,500
369,36	9,922
369,57	5,647
369,78	4,289
369,98	8,752
370,19	7,893
370,40	4,854
370,61	4,953
370,82	5,057
371,02	6,662
371,23	11,103
371,44	3,737
371,65	6,943
371,85	8,103
372,06	7,387
372,27	7,063
372,48	6,435
372,69	5,236
372,89	4,281
373,10	3,850
373,31	6,323
373,52	8,375
373,73	11,378
373,93	4,746
374,14	7,529
374,35	9,505
374,56	8,135
374,76	5,235
374,97	5,145
375,18	6,800
375,39	8,799
375,60	9,086
375,80	8,035
376,01	4,294
376,22	8,678
376,43	7,786
376,63	9,319
376,84	5,983
377,05	9,270
377,26	6,504
377,46	5,052
377,67	5,144
377,88	7,387
378,09	8,172
378,29	5,313
378,50	9,798
378,71	8,292
378,92	4,508
379,12	5,937
379,33	7,282
379,54	9,664
379,75	8,356
379,95	6,598
380,16	12,106
380,37	10,898
380,58	7,287
380,78	11,940
380,99	8,867
381,20	8,292
381,41	10,060
381,61	10,667
381,82	7,811
382,03	6,910
382,24	9,561
382,44	7,995
382,65	7,118
382,86	9,924
383,06	8,531
383,27	8,907
383,48	7,526
383,69	11,087
383,89	9,028
384,10	12,087
384,31	8,960
384,51	11,541
384,72	11,074
384,93	11,391
385,14	9,009
385,34	13,070
385,55	7,509
385,76	8,160
385,96	14,034
386,17	6,779
386,38	12,220
386,59	13,917
386,79	11,099
387,00	15,358
387,21	13,898
387,41	11,929
387,62	8,854
387,83	14,409
388,03	10,372
388,24	7,908
388,45	14,436
388,66	12,152
388,86	11,121
389,07	9,083
389,28	18,604
389,48	11,248
389,69	11,974
389,90	13,681
390,10	15,544
390,31	14,855
390,52	5,722
390,72	10,975
390,93	14,332
391,14	12,245
391,34	12,377
391,55	15,352
391,76	18,232
391,96	13,812
392,17	13,983
392,38	16,533
392,58	13,415
392,79	12,473
393,00	13,698
393,20	13,680
393,41	12,151
393,62	13,082
393,82	14,185
394,03	14,800
394,24	14,462
394,44	18,230
394,65	13,984
394,86	15,578
395,06	16,339
395,27	13,178
395,48	16,236
395,68	14,505
395,89	18,859
396,10	20,000
396,30	15,212
396,51	14,001
396,72	17,464
396,92	15,567
397,13	18,033
397,34	12,971
397,54	20,834
397,75	14,915
397,95	13,703
398,16	20,336
398,37	16,496
398,57	18,415
398,78	18,172
398,99	19,665
399,19	20,269
399,40	19,463
399,60	15,485
399,81	17,750
400,02	16,456
400,22	22,616
400,43	15,551
400,64	20,586
400,84	17,767
401,05	21,221
401,25	23,004
401,46	23,174
401,67	17,289
401,87	23,147
402,08	18,563
402,29	21,267
402,49	22,600
402,70	18,669
402,90	20,786
403,11	22,252
403,32	22,759
403,52	23,480
403,73	20,778
403,93	22,830
404,14	23,630
404,35	20,614
404,55	18,913
404,76	18,177
404,96	25,132
405,17	23,277
405,38	26,124
405,58	24,351
405,79	27,522
405,99	21,897
406,20	23,038
406,40	22,609
406,61	28,645
406,82	22,310
407,02	26,856
407,23	25,523
407,43	23,318
407,64	22,627
407,85	24,108
408,05	20,035
408,26	31,739
408,46	27,061
408,67	19,103
408,87	22,146
409,08	25,411
409,29	28,656
409,49	29,640
409,70	24,752
409,90	27,531
410,11	28,703
410,31	31,720
410,52	25,825
410,72	25,595
410,93	29,980
411,14	23,229
411,34	25,077
411,55	28,051
411,75	29,957
411,96	26,603
412,16	29,666
412,37	23,998
412,57	28,071
412,78	24,407
412,99	27,641
413,19	27,643
413,40	29,835
413,60	24,871
413,81	27,265
414,01	29,240
414,22	22,197
414,42	24,709
414,63	23,911
414,83	31,862
415,04	30,072
415,24	31,919
415,45	30,563
415,65	32,701
415,86	31,386
416,07	27,733
416,27	26,483
416,48	32,021
416,68	30,580
416,89	26,225
417,09	26,637
417,30	35,649
417,50	32,029
417,71	31,001
417,91	33,019
418,12	31,168
418,32	31,199
418,53	31,670
418,73	28,602
418,94	28,571
419,14	31,437
419,35	26,701
419,55	29,822
419,76	32,592
419,96	31,520
420,17	27,171
420,37	29,721
420,58	32,116
420,78	33,191
420,99	31,443
421,19	30,846
421,40	30,747
421,60	34,763
421,81	28,513
422,01	32,974
422,22	27,613
422,42	32,256
422,63	31,820
422,83	27,595
423,04	32,152
423,24	33,958
423,45	32,624
423,65	32,232
423,86	34,541
424,06	35,095
424,27	30,068
424,47	28,017
424,67	32,897
424,88	31,512
425,08	28,853
425,29	37,493
425,49	31,147
425,70	27,341
425,90	32,803
426,11	31,016
426,31	30,862
426,52	33,861
426,72	31,316
426,93	31,033
427,13	33,152
427,33	32,976
427,54	33,873
427,74	31,940
427,95	34,767
428,15	31,432
428,36	32,317
428,56	33,993
428,77	35,369
428,97	32,829
429,18	33,396
429,38	30,856
429,58	37,690
429,79	33,757
429,99	30,467
430,20	29,434
430,40	38,033
430,61	31,847
430,81	28,764
431,01	35,491
431,22	33,187
431,42	32,880
431,63	31,656
431,83	33,661
432,04	35,209
432,24	36,953
432,44	33,525
432,65	30,295
432,85	29,885
433,06	31,732
433,26	31,495
433,47	27,213
433,67	32,338
433,87	32,117
434,08	27,313
434,28	31,722
434,49	29,168
434,69	31,276
434,89	27,770
435,10	26,941
435,30	34,115
435,51	30,980
435,71	28,093
435,91	31,388
436,12	30,716
436,32	31,261
436,53	30,722
436,73	32,485
436,93	35,545
437,14	28,204
437,34	35,347
437,55	34,077
437,75	31,144
437,95	36,620
438,16	30,677
438,36	32,206
438,57	33,434
438,77	26,970
438,97	36,980
439,18	39,309
439,38	32,250
439,58	30,546
439,79	32,496
439,99	30,107
440,20	32,787
440,40	35,956
440,60	31,869
440,81	34,194
441,01	34,288
441,21	36,191
441,42	33,999
441,62	37,692
441,83	34,898
442,03	33,720
442,23	31,342
442,44	30,412
442,64	33,973
442,84	29,701
443,05	31,885
443,25	31,416
443,45	33,324
443,66	40,741
443,86	28,809
444,06	29,997
444,27	31,043
444,47	27,403
444,67	30,640
444,88	34,253
445,08	37,082
445,28	31,677
445,49	33,287
445,69	32,057
445,90	34,693
446,10	32,451
446,30	32,917
446,51	33,135
446,71	34,563
446,91	36,055
447,12	39,588
447,32	31,342
447,52	35,309
447,72	35,523
447,93	34,798
448,13	30,797
448,33	40,144
448,54	37,749
448,74	31,766
448,94	35,926
449,15	39,047
449,35	34,807
449,55	30,822
449,76	35,847
449,96	36,286
450,16	37,769
450,37	28,135
450,57	34,012
450,77	31,324
450,98	33,490
451,18	35,091
451,38	33,692
451,58	33,186
451,79	33,246
451,99	34,624
452,19	34,570
452,40	35,826
452,60	30,103
452,80	31,508
453,00	38,059
453,21	33,902
453,41	37,881
453,61	35,153
453,82	33,902
454,02	29,875
454,22	36,616
454,42	38,325
454,63	34,526
454,83	34,054
455,03	37,478
455,24	34,383
455,44	33,363
455,64	34,674
455,84	29,259
456,05	30,848
456,25	30,956
456,45	34,478
456,65	33,570
456,86	38,075
457,06	34,772
457,26	39,757
457,47	37,951
457,67	33,618
457,87	33,885
458,07	33,078
458,28	33,324
458,48	35,110
458,68	31,267
458,88	34,761
459,09	36,438
459,29	35,517
459,49	29,770
459,69	36,613
459,90	37,868
460,10	32,643
460,30	34,420
460,50	32,163
460,71	37,318
460,91	31,293
461,11	33,917
461,31	27,903
461,52	37,751
461,72	33,350
461,92	33,287
462,12	40,471
462,32	32,734
462,53	36,604
462,73	29,655
462,93	38,758
463,13	35,054
463,34	32,758
463,54	33,778
463,74	35,740
463,94	29,422
464,14	35,691
464,35	32,040
464,55	40,883
464,75	36,278
464,95	33,136
465,16	31,975
465,36	36,665
465,56	33,409
465,76	33,588
465,96	36,486
466,17	33,455
466,37	30,433
466,57	31,974
466,77	35,714
466,97	28,828
467,18	36,287
467,38	35,191
467,58	35,128
467,78	37,710
467,98	37,143
468,19	39,712
468,39	34,889
468,59	35,687
468,79	34,593
468,99	28,079
469,19	29,750
469,40	38,542
469,60	29,045
469,80	31,163
470,00	37,502
470,20	34,181
470,41	32,068
470,61	34,883
470,81	34,635
471,01	30,037
471,21	35,899
471,41	30,034
471,62	32,403
471,82	36,739
472,02	34,919
472,22	35,031
472,42	34,994
472,62	36,481
472,83	34,854
473,03	33,211
473,23	32,515
473,43	38,460
473,63	33,950
473,83	35,549
474,03	32,471
474,24	37,044
474,44	29,955
474,64	32,277
474,84	32,002
475,04	37,029
475,24	35,941
475,45	34,161
475,65	32,649
475,85	37,287
476,05	33,710
476,25	33,713
476,45	34,758
476,65	38,751
476,85	34,065
477,06	33,163
477,26	32,886
477,46	35,976
477,66	33,961
477,86	33,770
478,06	32,477
478,26	37,706
478,46	33,672
478,67	38,388
478,87	33,495
479,07	34,739
479,27	36,147
479,47	35,982
479,67	27,838
479,87	33,021
480,07	27,964
480,28	31,723
480,48	31,291
480,68	38,668
480,88	34,969
481,08	33,458
481,28	35,013
481,48	32,412
481,68	33,492
481,88	32,372
482,08	32,723
482,29	37,683
482,49	29,514
482,69	32,823
482,89	31,750
483,09	34,490
483,29	32,023
483,49	29,905
483,69	32,932
483,89	31,585
484,09	31,804
484,29	28,104
484,50	30,999
484,70	31,461
484,90	31,318
485,10	31,909
485,30	34,262
485,50	35,339
485,70	33,374
485,90	31,989
486,10	26,328
486,30	31,150
486,50	30,557
486,70	30,452
486,90	34,474
487,10	34,766
487,30	30,209
487,51	32,539
487,71	29,149
487,91	31,783
488,11	32,794
488,31	30,252
488,51	33,572
488,71	28,844
488,91	33,737
489,11	29,443
489,31	30,187
489,51	31,616
489,71	33,184
489,91	31,209
490,11	28,197
490,31	33,596
490,51	30,738
490,71	29,713
490,91	30,356
491,11	30,933
491,31	33,799
491,51	30,838
491,72	32,412
491,92	33,280
492,12	34,687
492,32	34,495
492,52	34,891
492,72	31,951
492,92	33,098
493,12	34,199
493,32	32,525
493,52	29,596
493,72	30,330
493,92	35,580
494,12	32,373
494,32	31,930
494,52	28,065
494,72	30,678
494,92	31,853
495,12	32,948
495,32	35,260
495,52	31,884
495,72	32,393
495,92	33,668
496,12	33,335
496,32	30,500
496,52	33,328
496,72	29,344
496,92	32,983
497,12	31,785
497,32	31,934
497,52	32,964
497,72	35,047
497,92	34,228
498,12	31,034
498,32	33,074
498,52	33,448
498,72	29,657
498,92	30,894
499,12	32,926
499,32	31,597
499,52	33,258
499,72	33,545
499,92	33,985
500,12	33,219
500,32	34,665
500,52	30,374
500,72	36,857
500,91	34,006
501,11	31,177
501,31	30,211
501,51	34,114
501,71	31,176
501,91	34,216
502,11	32,933
502,31	32,683
502,51	34,093
502,71	32,094
502,91	30,554
503,11	31,271
503,31	31,945
503,51	30,235
503,71	30,374
503,91	35,109
504,11	34,659
504,31	31,504
504,51	35,119
504,71	36,927
504,91	34,895
505,10	33,428
505,30	32,286
505,50	32,311
505,70	30,954
505,90	32,519
506,10	28,526
506,30	31,183
506,50	31,279
506,70	34,920
506,90	32,200
507,10	32,921
507,30	30,843
507,50	36,446
507,70	33,843
507,89	31,556
508,09	32,887
508,29	33,059
508,49	31,804
508,69	31,439
508,89	31,052
509,09	33,581
509,29	31,836
509,49	33,429
509,69	35,500
509,89	31,016
510,09	30,931
510,28	32,614
510,48	33,193
510,68	32,144
510,88	29,441
511,08	28,488
511,28	31,547
511,48	30,615
511,68	31,451
511,88	29,619
512,07	33,118
512,27	32,237
512,47	30,920
512,67	30,304
512,87	30,617
513,07	31,918
513,27	26,898
513,47	28,515
513,67	27,937
513,86	32,476
514,06	31,624
514,26	32,441
514,46	30,835
514,66	29,821
514,86	31,040
515,06	32,540
515,26	31,563
515,45	30,829
515,65	29,358
515,85	30,759
516,05	29,054
516,25	28,103
516,45	30,333
516,65	28,108
516,84	28,980
517,04	31,076
517,24	29,704
517,44	31,490
517,64	29,223
517,84	31,449
518,04	28,603
518,23	30,856
518,43	33,393
518,63	29,711
518,83	29,533
519,03	28,379
519,23	30,533
519,42	31,264
519,62	30,145
519,82	30,342
520,02	29,940
520,22	28,116
520,42	29,803
520,61	29,450
520,81	30,688
521,01	33,668
521,21	29,437
521,41	29,610
521,61	30,565
521,80	27,655
522,00	28,985
522,20	29,549
522,40	29,447
522,60	29,874
522,79	27,939
522,99	29,829
523,19	28,377
523,39	26,275
523,59	30,135
523,78	30,405
523,98	26,929
524,18	28,652
524,38	27,157
524,58	29,543
524,77	30,576
524,97	27,027
525,17	28,442
525,37	25,495
525,57	28,924
525,76	27,922
525,96	31,298
526,16	25,544
526,36	25,195
526,56	29,126
526,75	25,028
526,95	30,170
527,15	30,091
527,35	29,050
527,55	28,982
527,74	28,568
527,94	26,066
528,14	26,946
528,34	27,680
528,53	27,702
528,73	28,863
528,93	29,293
529,13	26,475
529,32	28,600
529,52	33,161
529,72	26,119
529,92	26,096
530,12	24,258
530,31	25,690
530,51	26,511
530,71	27,317
530,91	28,207
531,10	26,533
531,30	26,974
531,50	27,174
531,70	28,773
531,89	28,374
532,09	26,897
532,29	25,268
532,49	25,125
532,68	27,218
532,88	25,898
533,08	26,076
533,28	26,159
533,47	27,565
533,67	29,451
533,87	21,735
534,06	31,088
534,26	25,915
534,46	24,429
534,66	26,802
534,85	25,775
535,05	24,126
535,25	25,617
535,45	24,654
535,64	26,944
535,84	25,085
536,04	25,628
536,23	25,307
536,43	26,311
536,63	23,836
536,83	28,619
537,02	25,708
537,22	24,087
537,42	27,942
537,61	22,832
537,81	24,680
538,01	24,596
538,20	26,390
538,40	24,111
538,60	23,427
538,80	23,160
538,99	24,793
539,19	23,191
539,39	23,107
539,58	21,782
539,78	20,854
539,98	21,426
540,17	21,272
540,37	21,513
540,57	19,870
540,76	19,980
540,96	17,766
541,16	23,150
541,36	19,919
541,55	18,150
541,75	18,307
541,95	19,337
542,14	17,295
542,34	18,951
542,54	17,701
542,73	18,956
542,93	18,678
543,13	18,215
543,32	17,789
543,52	17,021
543,72	17,178
543,91	17,942
544,11	17,391
544,31	20,133
544,50	18,928
544,70	17,236
544,89	18,067
545,09	20,102
545,29	16,437
545,48	18,582
545,68	17,342
545,88	17,310
546,07	18,400
546,27	19,264
546,47	18,320
546,66	19,645
546,86	22,134
547,06	19,321
547,25	19,972
547,45	22,260
547,64	21,667
547,84	23,784
548,04	20,293
548,23	24,094
548,43	23,561
548,63	23,602
548,82	23,247
549,02	22,114
549,21	21,592
549,41	21,968
549,61	23,995
549,80	21,977
550,00	22,589
550,20	20,607
550,39	20,156
550,59	23,103
550,78	22,615
550,98	24,184
551,18	24,861
551,37	23,212
551,57	22,306
551,76	23,983
551,96	23,721
552,16	23,343
552,35	23,877
552,55	23,611
552,74	24,329
552,94	24,257
553,14	23,343
553,33	23,534
553,53	23,387
553,72	26,175
553,92	25,918
554,12	24,600
554,31	23,833
554,51	22,390
554,70	23,251
554,90	23,943
555,09	26,306
555,29	23,527
555,49	23,427
555,68	26,824
555,88	24,618
556,07	24,950
556,27	23,230
556,46	23,123
556,66	22,981
556,86	23,847
557,05	23,523
557,25	23,890
557,44	25,718
557,64	23,842
557,83	24,350
558,03	23,750
558,22	21,940
558,42	25,831
558,62	24,584
558,81	24,520
559,01	22,796
559,20	24,786
559,40	23,537
559,59	24,918
559,79	23,007
559,98	25,895
560,18	23,643
560,37	24,691
560,57	28,203
560,76	25,439
560,96	22,307
561,16	25,616
561,35	22,246
561,55	29,596
561,74	25,170
561,94	25,797
562,13	24,651
562,33	27,908
562,52	26,434
562,72	23,586
562,91	22,943
563,11	23,753
563,30	26,033
563,50	23,845
563,69	25,077
563,89	24,034
564,08	26,278
564,28	24,239
564,47	24,437
564,67	24,028
564,86	24,079
565,06	23,128
565,25	24,864
565,45	25,583
565,64	26,459
565,84	23,938
566,03	22,912
566,23	23,552
566,42	26,786
566,62	27,491
566,81	23,419
567,01	25,289
567,20	26,770
567,40	22,141
567,59	22,992
567,79	24,920
567,98	25,977
568,18	26,008
568,37	25,559
568,57	25,003
568,76	26,257
568,96	23,714
569,15	24,572
569,35	25,513
569,54	27,894
569,73	27,431
569,93	24,945
570,12	25,458
570,32	25,125
570,51	26,271
570,71	25,779
570,90	27,621
571,10	25,018
571,29	25,402
571,49	24,348
571,68	26,771
571,87	25,382
572,07	26,379
572,26	24,080
572,46	27,017
572,65	26,228
572,85	23,931
573,04	23,751
573,24	25,794
573,43	26,327
573,62	26,463
573,82	25,562
574,01	24,601
574,21	25,849
574,40	24,343
574,60	24,191
574,79	27,323
574,98	25,959
575,18	25,613
575,37	24,681
575,57	25,105
575,76	26,568
575,96	26,797
576,15	25,844
576,34	25,535
576,54	26,332
576,73	26,114
576,93	26,035
577,12	26,751
577,31	26,676
577,51	24,662
577,70	25,628
577,90	25,988
578,09	25,127
578,28	25,561
578,48	25,866
578,67	28,048
578,87	27,139
579,06	23,184
579,25	26,419
579,45	27,096
579,64	25,678
579,84	24,636
580,03	23,674
580,22	27,653
580,42	24,781
580,61	25,863
580,81	25,950
581,00	26,541
581,19	26,858
581,39	26,386
581,58	26,277
581,77	26,056
581,97	27,888
582,16	24,968
582,35	26,032
582,55	25,906
582,74	26,706
582,94	26,600
583,13	25,028
583,32	25,785
583,52	26,495
583,71	27,563
583,90	26,998
584,10	27,455
584,29	27,773
584,48	26,190
584,68	26,002
584,87	27,861
585,06	26,479
585,26	25,609
585,45	25,998
585,65	28,764
585,84	26,165
586,03	26,998
586,23	26,210
586,42	28,470
586,61	27,284
586,81	26,235
587,00	27,133
587,19	25,005
587,39	29,663
587,58	26,932
587,77	28,220
587,97	28,473
588,16	26,603
588,35	28,930
588,54	28,191
588,74	27,085
588,93	27,684
589,12	28,175
589,32	28,925
589,51	28,227
589,70	27,254
589,90	27,975
590,09	27,502
590,28	31,128
590,48	29,005
590,67	29,431
590,86	28,464
591,06	28,372
591,25	30,382
591,44	29,049
591,63	28,939
591,83	30,292
592,02	29,090
592,21	28,358
592,41	28,988
592,60	30,716
592,79	29,130
592,98	29,090
593,18	30,057
593,37	30,126
593,56	29,948
593,76	30,259
593,95	30,092
594,14	29,184
594,33	31,658
594,53	29,715
594,72	29,249
594,91	31,261
595,10	30,120
595,30	29,755
595,49	30,231
595,68	30,135
595,88	31,350
596,07	33,868
596,26	32,663
596,45	30,899
596,65	29,160
596,84	30,848
597,03	31,631
597,22	32,226
597,42	34,477
597,61	31,888
597,80	31,526
597,99	31,490
598,19	31,517
598,38	32,496
598,57	31,367
598,76	33,809
598,95	32,881
599,15	31,150
599,34	31,976
599,53	31,591
599,72	32,667
599,92	33,621
600,11	31,948
600,30	33,588
600,49	33,020
600,69	31,436
600,88	32,878
601,07	31,704
601,26	32,076
601,45	32,255
601,65	31,263
601,84	32,974
602,03	32,350
602,22	33,636
602,42	34,129
602,61	32,390
602,80	32,800
602,99	34,492
603,18	32,612
603,38	33,335
603,57	33,575
603,76	33,307
603,95	33,488
604,14	33,653
604,34	34,042
604,53	32,962
604,72	34,149
604,91	34,516
605,10	34,864
605,29	34,184
605,49	32,309
605,68	34,395
605,87	34,579
606,06	34,527
606,25	32,819
606,45	34,018
606,64	32,703
606,83	33,409
607,02	33,023
607,21	34,614
607,40	33,169
607,60	31,720
607,79	32,495
607,98	30,329
608,17	31,299
608,36	31,242
608,55	30,978
608,75	31,961
608,94	32,374
609,13	28,541
609,32	28,239
609,51	28,776
609,70	29,412
609,89	30,070
610,09	28,717
610,28	29,950
610,47	28,278
610,66	27,992
610,85	27,256
611,04	29,817
611,23	27,886
611,43	28,828
611,62	28,086
611,81	29,071
612,00	28,723
612,19	28,471
612,38	28,382
612,57	30,719
612,77	29,629
612,96	30,288
613,15	30,490
613,34	31,419
613,53	32,626
613,72	33,731
613,91	32,602
614,10	31,374
614,29	34,003
614,49	31,834
614,68	30,486
614,87	33,330
615,06	36,780
615,25	33,265
615,44	34,677
615,63	33,172
615,82	34,756
616,01	33,689
616,21	32,809
616,40	35,950
616,59	35,773
616,78	33,646
616,97	34,171
617,16	34,456
617,35	35,881
617,54	35,716
617,73	35,341
617,92	36,101
618,11	36,126
618,31	34,383
618,50	37,974
618,69	35,072
618,88	35,046
619,07	33,249
619,26	34,033
619,45	33,306
619,64	34,705
619,83	35,789
620,02	34,115
620,21	37,330
620,40	36,419
620,59	33,985
620,78	35,177
620,97	35,491
621,17	33,888
621,36	35,925
621,55	36,057
621,74	35,729
621,93	36,595
622,12	34,326
622,31	33,746
622,50	35,580
622,69	37,740
622,88	37,077
623,07	37,753
623,26	37,138
623,45	36,885
623,64	35,470
623,83	35,422
624,02	37,146
624,21	37,359
624,40	36,101
624,59	36,276
624,78	37,082
624,97	38,318
625,16	34,580
625,35	35,141
625,54	35,525
625,73	37,440
625,92	36,906
626,12	39,264
626,31	38,327
626,50	35,738
626,69	38,420
626,88	35,083
627,07	38,222
627,26	35,628
627,45	36,397
627,64	36,349
627,83	36,928
628,02	35,652
628,21	35,736
628,40	36,317
628,59	38,240
628,78	36,401
628,97	37,370
629,16	34,729
629,35	37,699
629,54	39,378
629,73	35,994
629,92	34,062
630,10	37,515
630,29	38,018
630,48	37,882
630,67	36,701
630,86	37,988
631,05	37,535
631,24	37,736
631,43	35,082
631,62	36,710
631,81	36,486
632,00	35,985
632,19	36,195
632,38	36,538
632,57	38,746
632,76	35,870
632,95	38,353
633,14	40,012
633,33	37,313
633,52	38,885
633,71	38,131
633,90	36,491
634,09	37,341
634,28	39,038
634,47	36,878
634,66	37,755
634,85	37,209
635,04	39,728
635,22	37,959
635,41	37,162
635,60	38,730
635,79	38,998
635,98	36,068
636,17	38,137
636,36	38,289
636,55	37,746
636,74	36,897
636,93	37,757
637,12	41,470
637,31	38,816
637,50	36,276
637,69	38,594
637,87	38,522
638,06	37,654
638,25	37,837
638,44	38,805
638,63	38,097
638,82	37,918
639,01	38,028
639,20	36,927
639,39	39,322
639,58	37,418
639,77	38,872
639,95	37,207
640,14	38,808
640,33	39,068
640,52	37,070
640,71	39,093
640,90	38,264
641,09	40,182
641,28	37,140
641,47	39,847
641,66	38,254
641,84	37,396
642,03	40,085
642,22	39,270
642,41	39,376
642,60	38,427
642,79	38,580
642,98	38,967
643,17	37,479
643,35	36,825
643,54	37,157
643,73	39,796
643,92	40,243
644,11	37,885
644,30	36,600
644,49	40,232
644,67	39,576
644,86	36,784
645,05	38,709
645,24	37,434
645,43	39,631
645,62	36,959
645,81	37,683
645,99	40,595
646,18	39,662
646,37	38,994
646,56	38,465
646,75	39,170
646,94	40,613
647,13	38,365
647,31	38,365
647,50	40,061
647,69	40,339
647,88	37,515
648,07	40,003
648,26	43,041
648,44	39,779
648,63	37,474
648,82	38,416
649,01	39,930
649,20	36,769
649,38	38,250
649,57	39,283
649,76	38,655
649,95	40,536
650,14	38,171
650,33	37,216
650,51	38,685
650,70	40,073
650,89	37,655
651,08	37,289
651,27	39,281
651,45	37,298
651,64	37,827
651,83	38,940
652,02	39,030
652,21	40,407
652,39	39,035
652,58	40,423
652,77	38,138
652,96	39,396
653,15	39,592
653,33	39,541
653,52	40,506
653,71	41,746
653,90	39,486
654,09	40,721
654,27	38,835
654,46	42,354
654,65	40,659
654,84	40,362
655,02	41,415
655,21	40,183
655,40	41,643
655,59	40,850
655,77	40,912
655,96	40,672
656,15	40,766
656,34	42,966
656,53	40,718
656,71	41,514
656,90	39,663
657,09	41,059
657,28	40,929
657,46	38,959
657,65	39,687
657,84	39,859
658,03	40,693
658,21	40,451
658,40	39,720
658,59	38,860
658,78	39,706
658,96	39,505
659,15	38,027
659,34	39,157
659,52	40,381
659,71	38,973
659,90	38,015
660,09	36,908
660,27	38,141
660,46	39,700
660,65	38,202
660,84	37,922
661,02	38,147
661,21	39,090
661,40	38,097
661,58	37,668
661,77	39,274
661,96	36,952
662,15	38,948
662,33	36,720
662,52	36,909
662,71	39,397
662,89	36,999
663,08	36,107
663,27	38,425
663,45	37,748
663,64	37,958
663,83	36,426
664,02	37,722
664,20	39,406
664,39	36,606
664,58	37,380
664,76	38,163
664,95	37,973
665,14	36,470
665,32	36,369
665,51	39,016
665,70	38,190
665,88	39,051
666,07	38,279
666,26	38,853
666,44	38,900
666,63	36,158
666,82	38,498
667,00	39,377
667,19	36,035
667,38	39,286
667,56	39,243
667,75	37,796
667,94	38,762
668,12	36,046
668,31	38,472
668,50	38,576
668,68	38,499
668,87	37,842
669,06	37,210
669,24	39,741
669,43	37,415
669,62	36,924
669,80	35,493
669,99	36,901
670,18	37,963
670,36	36,287
670,55	38,277
670,74	39,012
670,92	36,147
671,11	38,816
671,29	38,509
671,48	37,868
671,67	38,022
671,85	38,342
672,04	37,254
672,23	37,072
672,41	38,111
672,60	37,375
672,78	36,892
672,97	35,927
673,16	38,356
673,34	38,276
673,53	37,726
673,71	36,384
673,90	38,895
674,09	37,183
674,27	37,067
674,46	37,004
674,64	38,298
674,83	37,084
675,02	36,736
675,20	37,577
675,39	36,714
675,57	38,293
675,76	35,393
675,95	39,360
676,13	39,485
676,32	39,369
676,50	38,103
676,69	36,076
676,88	37,933
677,06	36,748
677,25	37,999
677,43	39,895
677,62	37,844
677,80	38,155
677,99	38,442
678,18	39,107
678,36	40,278
678,55	36,536
678,73	38,691
678,92	38,681
679,10	37,932
679,29	38,715
679,48	36,712
679,66	38,294
679,85	37,689
680,03	37,066
680,22	37,674
680,40	36,637
680,59	35,980
680,77	35,778
680,96	38,567
681,15	37,861
681,33	38,747
681,52	36,479
681,70	37,953
681,89	39,027
682,07	37,322
682,26	38,500
682,44	37,908
682,63	39,041
682,81	38,464
683,00	38,853
683,18	37,915
683,37	39,070
683,55	37,491
683,74	39,260
683,92	44,486
684,11	37,856
684,29	39,626
684,48	36,693
684,67	38,629
684,85	39,265
685,04	38,403
685,22	38,221
685,41	38,473
685,59	39,337
685,78	37,368
685,96	38,140
686,15	37,786
686,33	38,686
686,52	38,511
686,70	38,251
686,89	38,499
687,07	38,832
687,26	39,879
687,44	39,593
687,62	38,247
687,81	39,409
687,99	38,102
688,18	38,061
688,36	39,215
688,55	39,473
688,73	38,781
688,92	36,740
689,10	38,543
689,29	39,760
689,47	40,863
689,66	37,652
689,84	39,074
690,03	37,217
690,21	38,575
690,40	38,998
690,58	36,557
690,76	37,344
690,95	39,749
691,13	39,431
691,32	39,352
691,50	40,021
691,69	40,779
691,87	37,017
692,06	38,746
692,24	38,399
692,43	38,640
692,61	36,512
692,79	36,870
692,98	37,272
693,16	40,822
693,35	38,251
693,53	39,213
693,72	39,469
693,90	40,435
694,08	38,222
694,27	38,925
694,45	41,016
694,64	41,586
694,82	38,372
695,01	37,823
695,19	41,361
695,37	38,232
695,56	38,404
695,74	39,213
695,93	38,908
696,11	38,488
696,29	40,109
696,48	39,011
696,66	40,285
696,85	38,990
697,03	37,820
697,21	40,331
697,40	40,151
697,58	40,112
697,77	39,055
697,95	39,840
698,13	40,174
698,32	39,216
698,50	39,742
698,69	38,261
698,87	39,261
699,05	39,120
699,24	38,143
699,42	39,731
699,60	35,649
699,79	38,897
699,97	38,932
700,16	37,156
700,34	40,555
700,52	38,393
700,71	39,083
700,89	38,380
701,07	39,737
701,26	40,560
701,44	38,342
701,63	37,459
701,81	39,174
701,99	40,580
702,18	36,836
702,36	37,072
702,54	37,730
702,73	39,073
702,91	39,122
703,09	38,433
703,28	38,641
703,46	39,900
703,64	37,130
703,83	37,825
704,01	39,506
704,19	38,318
704,38	38,746
704,56	38,205
704,74	40,283
704,93	39,826
705,11	39,797
705,29	38,108
705,48	40,826
705,66	40,419
705,84	38,810
706,03	37,538
706,21	39,626
706,39	38,514
706,58	38,464
706,76	35,898
706,94	40,302
707,12	41,019
707,31	38,439
707,49	37,681
707,67	38,708
707,86	41,821
708,04	40,031
708,22	38,465
708,41	39,061
708,59	37,353
708,77	36,699
708,95	39,292
709,14	42,258
709,32	40,370
709,50	38,911
709,69	37,186
709,87	38,843
710,05	38,447
710,23	39,501
710,42	37,272
710,60	37,968
710,78	39,622
710,97	38,724
711,15	38,264
711,33	39,207
711,51	38,324
711,70	38,111
711,88	37,033
712,06	39,950
712,24	37,800
712,43	39,506
712,61	37,684
712,79	37,770
712,97	38,993
713,16	38,728
713,34	39,406
713,52	39,648
713,70	39,761
713,89	38,250
714,07	38,220
714,25	37,031
714,43	40,643
714,62	39,831
714,80	38,974
714,98	36,872
715,16	39,340
715,35	37,433
715,53	38,268
715,71	39,622
715,89	40,766
716,07	40,281
716,26	41,781
716,44	38,614
716,62	40,104
716,80	39,521
716,99	38,941
717,17	41,769
717,35	38,142
717,53	37,735
717,71	37,540
717,90	38,718
718,08	38,717
718,26	36,634
718,44	40,476
718,62	39,263
718,81	38,962
718,99	38,609
719,17	36,924
719,35	38,868
719,53	37,922
719,72	39,139
719,90	38,839
720,08	38,054
720,26	40,949
720,44	38,197
720,62	38,910
720,81	39,740
720,99	41,829
721,17	39,966
721,35	40,983
721,53	40,112
721,72	40,940
721,90	37,175
722,08	38,691
722,26	38,994
722,44	39,806
722,62	38,008
722,81	37,313
722,99	38,044
723,17	38,517
723,35	38,593
723,53	39,211
723,71	40,202
723,89	41,958
724,08	38,837
724,26	38,097
724,44	37,146
724,62	37,392
724,80	39,918
724,98	39,392
725,16	40,526
725,35	38,759
725,53	40,010
725,71	37,178
725,89	39,234
726,07	41,178
726,25	40,625
726,43	39,255
726,61	37,651
726,80	39,698
726,98	38,787
727,16	39,718
727,34	40,456
727,52	41,311
727,70	37,712
727,88	38,896
728,06	37,740
728,25	37,895
728,43	38,838
728,61	37,425
728,79	38,456
728,97	40,264
729,15	39,232
729,33	40,863
729,51	40,152
729,69	40,584
729,87	39,495
730,06	39,076
730,24	40,046
730,42	42,033
730,60	38,730
730,78	40,859
730,96	38,845
731,14	40,973
731,32	40,375
731,50	38,456
731,68	38,894
731,86	39,819
732,04	38,902
732,22	38,514
732,41	41,515
732,59	40,315
732,77	40,160
732,95	41,618
733,13	41,075
733,31	39,153
733,49	36,390
733,67	42,190
733,85	40,880
734,03	40,471
734,21	37,682
734,39	39,263
734,57	38,230
734,75	40,129
734,93	36,926
735,11	39,706
735,29	37,625
735,47	39,916
735,65	38,350
735,84	37,853
736,02	39,974
736,20	41,218
736,38	39,483
736,56	37,937
736,74	39,261
736,92	37,730
737,10	37,666
737,28	39,951
737,46	39,220
737,64	38,910
737,82	37,959
738,00	39,160
738,18	40,434
738,36	38,697
738,54	39,360
738,72	37,725
738,90	39,458
739,08	40,588
739,26	37,963
739,44	39,211
739,62	39,443
739,80	41,651
739,98	40,431
740,16	38,982
740,34	39,339
740,52	40,465
740,70	38,098
740,88	37,342
741,06	39,176
741,24	39,739
741,42	41,375
741,60	37,732
741,78	41,779
741,96	38,533
742,14	38,007
742,32	36,752
742,50	39,426
742,68	39,642
742,86	38,173
743,04	37,760
743,21	38,911
743,39	39,042
743,57	37,176
743,75	37,923
743,93	37,897
744,11	36,394
744,29	37,998
744,47	38,471
744,65	39,195
744,83	35,476
745,01	39,895
745,19	40,199
745,37	41,263
745,55	40,548
745,73	37,365
745,91	37,654
746,09	37,701
746,27	39,061
746,45	35,635
746,62	38,432
746,80	39,143
746,98	39,481
747,16	38,405
747,34	37,139
747,52	39,147
747,70	38,653
747,88	38,579
748,06	38,336
748,24	39,212
748,42	40,033
748,60	37,382
748,78	37,034
748,95	39,205
749,13	42,535
749,31	38,036
749,49	38,655
749,67	38,669
749,85	41,412
750,03	38,862
750,21	40,284
750,39	38,952
750,57	40,226
750,74	40,711
750,92	37,672
751,10	40,349
751,28	37,939
751,46	40,211
751,64	38,446
751,82	40,082
752,00	39,573
752,17	39,329
752,35	36,953
752,53	38,332
752,71	39,994
752,89	40,342
753,07	38,797
753,25	40,564
753,43	37,120
753,60	40,961
753,78	39,190
753,96	41,161
754,14	40,370
754,32	39,607
754,50	39,213
754,68	39,480
754,85	39,988
755,03	40,369
755,21	39,671
755,39	40,989
755,57	38,526
755,75	39,482
755,92	38,709
756,10	40,375
756,28	41,490
756,46	39,040
756,64	38,519
756,82	40,366
756,99	39,486
757,17	38,034
757,35	38,063
757,53	41,320
757,71	39,247
757,89	38,610
758,06	40,157
758,24	39,921
758,42	38,117
758,60	38,583
758,78	40,629
758,95	38,107
759,13	38,551
759,31	38,738
759,49	37,638
759,67	38,919
759,84	40,375
760,02	40,178
760,20	39,357
760,38	40,091
760,56	37,493
760,73	39,161
760,91	41,237
761,09	40,020
761,27	37,652
761,45	39,606
761,62	39,313
761,80	38,612
761,98	39,265
762,16	39,180
762,33	37,521
762,51	40,095
762,69	40,205
762,87	38,709
763,05	39,686
763,22	37,752
763,40	40,282
763,58	36,943
763,76	38,893
763,93	39,691
764,11	41,573
764,29	38,399
764,47	39,418
764,64	41,393
764,82	42,586
765,00	38,236
765,18	36,946
765,35	37,988
765,53	38,868
765,71	39,353
765,89	37,677
766,06	39,330
766,24	40,107
766,42	39,321
766,60	38,336
766,77	39,071
766,95	39,143
767,13	39,656
767,30	37,854
767,48	38,984
767,66	39,009
767,84	38,469
768,01	40,730
768,19	38,677
768,37	39,623
768,54	39,602
768,72	38,767
768,90	39,643
769,08	38,934
769,25	39,956
769,43	37,620
769,61	38,756
769,78	41,012
769,96	38,442
770,14	39,227
770,31	41,998
770,49	41,272
770,67	42,263
770,85	37,715
771,02	38,623
771,20	39,565
771,38	40,947
771,55	37,686
771,73	38,304
771,91	37,664
772,08	42,512
772,26	37,955
772,44	39,275
772,61	38,421
772,79	38,208
772,97	39,894
773,14	39,164
773,32	42,034
773,50	36,850
773,67	39,287
773,85	41,652
774,03	40,126
774,20	39,520
774,38	38,203
774,56	38,560
774,73	38,009
774,91	37,016
775,09	39,415
775,26	38,067
775,44	38,817
775,61	40,942
775,79	38,359
775,97	40,290
776,14	37,400
776,32	37,466
776,50	37,580
776,67	38,815
776,85	37,882
777,03	37,557
777,20	40,624
777,38	39,617
777,55	39,425
777,73	36,979
777,91	38,154
778,08	40,468
778,26	37,668
778,43	40,696
778,61	35,284
778,79	39,347
778,96	38,461
779,14	36,805
779,32	39,352
779,49	40,722
779,67	37,310
779,84	39,728
780,02	38,058
780,20	36,909
780,37	40,966
780,55	32,976
780,72	42,026
780,90	42,974
781,07	40,368
781,25	39,908
781,43	39,479
781,60	41,220
781,78	38,207
781,95	39,777
782,13	38,136
782,30	40,139
782,48	39,745
782,66	37,246
782,83	38,413
783,01	43,729
783,18	40,262
783,36	37,466
783,53	41,398
783,71	37,059
783,89	38,016
784,06	40,416
784,24	39,835
784,41	43,501
784,59	39,885
784,76	39,185
784,94	39,974
785,11	40,101
785,29	41,039
785,46	39,268
785,64	39,034
785,82	40,514
785,99	39,253
786,17	36,536
786,34	36,811
786,52	38,868
786,69	42,563
786,87	39,074
787,04	39,253
787,22	38,972
787,39	39,804
787,57	40,548
787,74	39,747
787,92	40,080
788,09	42,654
788,27	37,562
788,44	36,908
788,62	38,286
788,79	40,927
788,97	39,822
789,14	38,755
789,32	40,046
789,49	41,618
789,67	40,554
789,84	40,164
790,02	42,436
790,19	37,847
790,37	40,470
790,54	40,956
790,72	42,472
790,89	41,568
791,07	39,704
791,24	40,220
791,42	41,046
791,59	40,112
791,77	38,797
791,94	38,556
792,12	39,776
792,29	39,352
792,47	40,908
792,64	41,791
792,81	40,240
792,99	38,375
793,16	40,094
793,34	43,183
793,51	39,008
793,69	41,869
793,86	42,097
794,04	41,474
794,21	45,803
794,39	38,944
794,56	37,521
794,73	40,748
794,91	42,730
795,08	38,590
795,26	40,344
795,43	39,486
795,61	42,099
795,78	40,075
795,95	41,031
796,13	41,404
796,30	41,629
796,48	39,798
796,65	41,172
796,83	40,412
797,00	44,526
797,17	38,704
797,35	40,751
797,52	41,640
797,70	41,735
797,87	40,846
798,04	38,669
798,22	39,641
798,39	39,258
798,57	38,905
798,74	40,896
798,91	39,270
799,09	39,990
799,26	42,792
799,44	38,867
799,61	38,045
799,78	42,982
799,96	41,343
800,13	38,384
800,31	40,879
800,48	42,262
800,65	44,792
800,83	40,796
801,00	40,169
801,17	39,097
801,35	42,531
801,52	39,422
801,70	39,682
801,87	41,787
802,04	44,444
802,22	40,320
802,39	39,086
802,56	43,442
802,74	42,774
802,91	37,750
803,08	39,763
803,26	41,759
803,43	42,032
803,61	40,565
803,78	40,405
803,95	41,418
804,13	44,880
804,30	41,657
804,47	41,304
804,65	41,621
804,82	40,851
804,99	41,803
805,17	37,112
805,34	43,401
805,51	46,603
805,69	39,242
805,86	41,843
806,03	45,284
806,21	42,558
806,38	41,446
806,55	43,505
806,72	42,986
806,90	42,618
807,07	42,160
807,24	41,466
807,42	40,976
807,59	43,571
807,76	38,402
807,94	39,115
808,11	42,443
808,28	44,501
808,45	39,597
808,63	40,624
808,80	45,412
808,97	41,815
809,15	42,440
809,32	43,891
809,49	40,700
809,67	42,151
809,84	41,047
810,01	46,772
810,18	45,579
810,36	45,077
810,53	42,989
810,70	42,242
810,87	40,043
811,05	39,767
811,22	41,481
811,39	42,797
811,57	43,389
811,74	46,117
811,91	38,392
812,08	42,473
812,26	43,620
812,43	40,962
812,60	39,299
812,77	40,253
812,95	45,856
813,12	41,413
813,29	37,521
813,46	42,041
813,64	42,014
813,81	43,409
813,98	40,877
814,15	42,795
814,32	46,256
814,50	48,393
814,67	42,347
814,84	43,562
815,01	44,085
815,19	33,510
815,36	39,214
815,53	42,392
815,70	40,610
815,87	44,809
816,05	36,470
816,22	43,645
816,39	43,253
816,56	47,558
816,74	43,584
816,91	42,137
817,08	49,217
817,25	44,707
817,42	42,711
817,60	46,975
817,77	43,926
817,94	45,561
818,11	42,651
818,28	44,806
818,45	44,289
818,63	40,586
818,80	44,132
818,97	45,139
819,14	49,066
819,31	46,604
819,49	43,671
819,66	40,323
819,83	41,466
820,00	44,603
820,17	46,772
820,34	42,331
820,52	47,724
820,69	43,949
820,86	40,339
821,03	42,245
821,20	45,650
821,37	45,798
821,55	38,375
821,72	40,187
821,89	46,466
822,06	50,677
822,23	40,346
822,40	41,288
822,57	46,777
822,75	48,557
822,92	42,918
823,09	39,626
823,26	47,927
823,43	48,818
823,60	43,279
823,77	43,164
823,94	46,133
824,12	44,646
824,29	39,331
824,46	43,271
824,63	47,198
824,80	39,668
824,97	45,812
825,14	42,712
825,31	44,340
825,49	43,478
825,66	40,115
825,83	44,965
826,00	46,784
826,17	51,729
826,34	47,351
826,51	40,212
826,68	44,543
826,85	45,993
827,02	44,333
827,20	42,425
827,37	44,153
827,54	45,045
827,71	40,942
827,88	49,066
828,05	49,997
828,22	46,573
828,39	47,674
828,56	45,685
828,73	42,524
828,90	51,395
829,07	43,511
829,25	45,857
829,42	47,142
829,59	42,777
829,76	40,937
829,93	42,208
830,10	47,824
830,27	38,619
830,44	44,289
830,61	48,937
830,78	36,505
830,95	47,178
831,12	42,771
831,29	40,360
831,46	35,908
831,63	38,639
831,80	45,888
831,97	44,482
832,14	50,747
832,31	55,696
832,48	39,503
832,65	51,901
832,83	45,133
833,00	51,217
833,17	43,954
833,34	46,582
833,51	47,620
833,68	52,735
833,85	50,026
834,02	39,110
834,19	43,143
834,36	48,044
834,53	33,402
834,70	40,692
834,87	51,861
835,04	52,073
835,21	44,734
835,38	39,863
835,55	45,792
835,72	50,431
835,89	42,025
836,06	47,692
836,23	53,256
836,40	36,984
836,57	46,038
836,74	48,027
836,91	44,160
837,08	50,189
837,25	46,210
837,42	40,537
837,59	37,730
837,76	46,911
837,93	47,085
838,09	39,938
838,26	49,551
838,43	58,375
838,60	44,394
838,77	43,225
838,94	46,768
839,11	48,809
839,28	35,794
839,45	44,531
839,62	49,030
839,79	41,679
839,96	46,214
840,13	46,147
840,30	47,064
840,47	37,495
840,64	44,720
840,81	50,322
840,98	43,505
841,15	57,255
841,32	44,509
841,48	54,861
841,65	50,139
841,82	46,692
841,99	47,645
842,16	39,956
842,33	46,117
842,50	44,725
842,67	43,254
842,84	48,192
843,01	50,144
843,18	48,740
843,35	51,230
843,52	43,416
843,68	47,393
843,85	37,446
844,02	41,589
844,19	44,529
844,36	46,176
844,53	44,137
844,70	47,470
844,87	45,747
845,04	56,647
845,21	36,431
845,37	58,680
845,54	47,880
845,71	44,556
845,88	55,295
846,05	37,943
846,22	38,234
846,39	50,316
846,56	53,370
846,72	36,046
846,89	42,073
847,06	53,315
847,23	51,369
847,40	38,479
847,57	40,358
847,74	55,967
847,90	55,097
848,07	51,232
848,24	50,821
848,41	57,282
848,58	55,090
848,75	44,463
848,92	49,123
849,08	47,307
849,25	51,780
849,42	47,076
849,59	50,855
849,76	49,563
849,93	52,149
850,09	50,191
850,26	38,078
850,43	54,971
850,60	47,860
850,77	40,645
850,94	58,876
851,10	44,410
851,27	47,656
851,44	42,955
851,61	47,984
851,78	56,661
851,95	50,387
852,11	39,338
852,28	41,260
852,45	43,198
852,62	54,202
852,79	37,330
852,95	42,126
853,12	53,709
853,29	51,971
853,46	57,885
853,63	48,749
853,79	43,654
853,96	44,082
854,13	50,782
854,30	47,352
854,46	62,611
854,63	52,115
854,80	53,058
854,97	40,070
855,14	47,479
855,30	53,338
855,47	46,878
855,64	50,928
855,81	48,967
855,97	68,807
856,14	59,032
856,31	48,538
856,48	51,634
856,65	72,077
856,81	47,507
856,98	46,871
857,15	49,992
857,32	56,001
857,48	53,321
857,65	56,281
857,82	62,205
857,99	47,012
858,15	53,896
858,32	49,116
858,49	60,674
858,65	71,724
858,82	55,539
858,99	44,336
859,16	47,384
859,32	59,555
859,49	51,409
859,66	47,422
859,83	48,035
859,99	54,119
860,16	61,044
860,33	48,157
860,49	58,711
860,66	62,200
860,83	47,339
861,00	52,538
861,16	60,265
861,33	61,119
861,50	47,871
861,66	50,504
861,83	59,790
862,00	52,236
862,16	66,526
862,33	52,553
862,50	69,008
862,67	58,988
862,83	34,490
863,00	51,673
863,17	75,901
863,33	58,579
863,50	34,543
863,67	45,451
863,83	49,909
864,00	63,479
864,17	49,433
864,33	46,466
864,50	57,778
864,67	58,802
864,83	41,984
865,00	45,703
865,17	42,397
865,33	67,156
865,50	40,493
865,67	53,816
865,83	59,418
866,00	74,386
866,17	47,826
866,33	61,462
866,50	86,054
866,66	71,384
866,83	60,582
867,00	82,830
867,16	61,595
867,33	83,229
867,50	25,893
867,66	44,208
867,83	68,873
868,00	65,439
868,16	56,592
868,33	42,675
868,49	73,035
868,66	79,440
868,83	46,075
868,99	51,993
869,16	76,345
869,32	70,651
869,49	58,325
869,66	67,502
869,82	85,164
869,99	92,016
870,15	50,827
870,32	68,976
870,49	86,122
870,65	103,199
870,82	48,341
870,98	53,054
871,15	101,927
871,32	64,384
871,48	29,567
871,65	40,426
871,81	72,363
871,98	53,426
872,15	33,583
872,31	45,957
872,48	107,187
872,64	60,223
872,81	26,670
872,97	63,272
873,14	85,184
873,31	62,916
873,47	60,579
873,64	37,164
873,80	103,220
873,97	90,891
874,13	28,461
874,30	50,712
874,46	112,966
874,63	64,944
874,80	42,937
874,96	45,417
875,13	75,582
875,29	76,019
875,46	88,111
875,62	34,370
875,79	71,517
875,95	77,506
876,12	31,116
876,28	14,316
876,45	104,018
876,61	44,282
876,78	28,861
876,94	32,903
877,11	102,415
877,27	67,355
877,44	107,185
877,60	43,077
877,77	121,565
877,94	69,824
878,10	51,893
878,27	67,068
878,43	101,750
878,60	63,581
878,76	59,211
878,93	24,259
879,09	118,822
879,26	72,023
879,42	87,095
879,58	44,876
879,75	86,494
879,91	108,303
880,08	-5,681
880,24	38,451
880,41	63,565
880,57	69,108
880,74	52,459
880,90	16,197
881,07	75,690
881,23	109,068
881,40	64,053
881,56	102,746
881,73	89,126
881,89	75,493
882,06	51,922
882,22	148,019
882,38	148,445
882,55	126,537
882,71	24,268
882,88	53,729
883,04	182,410
883,21	152,575
883,37	71,961
883,54	59,744
883,70	119,947
883,86	91,625
884,03	70,585
884,19	52,255
884,36	-29,964
884,52	82,873
884,69	30,945
884,85	21,310
885,01	224,336
885,18	111,571
885,34	-7,602
885,51	-2,638
885,67	74,444
>>>>> Data<<<<< Espectral Procesado Extremo
