Fichero De Datos De SpectraSuite
++++++++++++++++++++++++++++++++++++
Fecha: Wed Apr 22 11:15:38 CEST 2009
Usuario: evoflor
Presente Oscuro Del Espectro: Sí
La Referencia de Presente Del Espectro De: Sí
Muestreados de los componentes de Número de espectros: 1
Espectrómetros: USB4F02353
Tiempo de integración (usec): 500000 (USB4F02353)
Promedio de Espectros Hechos un: 5 (USB4F02353)
El Alisar Del Furgón: 0 (USB4F02353)
Párrafo de de Corregir del la del del de Eléctrica del obscuridad: Sí (USB4F02353)
Estrobo/Lámpara Permitido: No (USB4F02353)
Correct for Detector Non-linearity: No (USB4F02353)
Párrafo de de Corregir del la del del de Externa del luz: No (USB4F02353)
Procesado del espectro de Número de pixeles en: 3648
>>>>> Comienza Data<<<<< Espectral Procesado Del EL
177,79	167,497
178,00	167,497
178,22	167,497
178,44	1508,571
178,66	-77,666
178,88	136,417
179,09	-105,191
179,31	135,339
179,53	605,944
179,75	161,205
179,96	826,034
180,18	-170,215
180,40	399,745
180,62	375,915
180,83	-288,347
181,05	-685,610
181,27	-138120,000
181,49	20,609
181,70	60,462
181,92	623,452
182,14	543,434
182,36	121,377
182,58	-508,200
182,79	930,000
183,01	-22,823
183,23	184,896
183,45	-197,908
183,66	-57,611
183,88	272,471
184,10	-3542,182
184,32	292,871
184,53	99,451
184,75	-158,533
184,97	32,398
185,18	-146,278
185,40	-452,019
185,62	111,551
185,84	95,240
186,05	188,108
186,27	-50,456
186,49	-18,462
186,71	-73,736
186,92	45,127
187,14	-84,899
187,36	144,148
187,58	98,631
187,79	-78,602
188,01	253,818
188,23	-318,239
188,45	74,566
188,66	17,946
188,88	-2167,636
189,10	-931,200
189,31	-108,225
189,53	-5,803
189,75	455,045
189,97	-102,231
190,18	129,270
190,40	325,412
190,62	-112,141
190,83	-132,140
191,05	24,992
191,27	14,057
191,49	116,881
191,70	-110,192
191,92	-156,102
192,14	-18,757
192,35	418,886
192,57	-785,143
192,79	58,715
193,01	39,456
193,22	94,311
193,44	-13,003
193,66	71,412
193,87	-8,737
194,09	50,468
194,31	122,982
194,53	223,217
194,74	-32,710
194,96	16,650
195,18	147,162
195,39	-67,599
195,61	-120,936
195,83	-182,870
196,04	98,549
196,26	101,910
196,48	-63,367
196,70	186,918
196,91	134,943
197,13	37,519
197,35	40,169
197,56	533,498
197,78	1682,239
198,00	739,301
198,21	460,777
198,43	-970,465
198,65	112,689
198,86	98,633
199,08	187,279
199,30	170,283
199,51	-212,443
199,73	123,852
199,95	226,040
200,16	320,077
200,38	190,105
200,60	154,665
200,81	311,178
201,03	40,272
201,25	-1363,200
201,46	187,434
201,68	-2,997
201,90	2832,273
202,11	-351,985
202,33	180,108
202,55	567,750
202,76	-75,652
202,98	177,073
203,20	-283,269
203,41	-130,105
203,63	142,354
203,85	-71520,000
204,06	-38,701
204,28	1,157
204,50	132,995
204,71	348,975
204,93	-111,840
205,15	191,024
205,36	-136,750
205,58	215,010
205,80	-36,172
206,01	-9,576
206,23	118,078
206,45	192,828
206,66	148,616
206,88	-156,504
207,10	295,500
207,31	238,967
207,53	260,914
207,75	71,555
207,96	594,179
208,18	-80,580
208,39	37,638
208,61	3097,714
208,83	-237,064
209,04	182,056
209,26	-26,820
209,48	113,559
209,69	173,419
209,91	335,878
210,13	84,374
210,34	-66,538
210,56	95,825
210,77	-1371,024
210,99	49,573
211,21	3783,529
211,42	-40,029
211,64	-25,856
211,86	312,962
212,07	225,607
212,29	176,581
212,50	56,506
212,72	216,231
212,94	26,375
213,15	82,693
213,37	114,757
213,58	-150,599
213,80	-1043,571
214,02	1718,824
214,23	160,073
214,45	340,721
214,67	-1322,195
214,88	31,812
215,10	-110,070
215,31	124,716
215,53	-33,818
215,75	39,861
215,96	1724,348
216,18	-6,761
216,39	129,513
216,61	114,891
216,83	407,679
217,04	1106,966
217,26	113,903
217,47	170,976
217,69	281,780
217,91	114,897
218,12	-36420,000
218,34	120,206
218,55	502,440
218,77	111,767
218,99	122,164
219,20	-78,770
219,42	233,872
219,63	70,107
219,85	-24,300
220,06	-19,154
220,28	216,701
220,50	139,343
220,71	104,540
220,93	3590,943
221,14	-1561,200
221,36	143,748
221,58	79,418
221,79	53,317
222,01	585,517
222,22	517,895
222,44	-470,562
222,65	117,084
222,87	34,406
223,09	112,169
223,30	80,904
223,52	83,824
223,73	88,494
223,95	-28,563
224,16	99,216
224,38	120,427
224,60	13,624
224,81	34,385
225,03	129,317
225,24	140,293
225,46	44,053
225,67	31,820
225,89	25,288
226,10	391,627
226,32	1090,560
226,54	6,231
226,75	-10,872
226,97	92,082
227,18	112,049
227,40	3,083
227,61	71,572
227,83	-14,190
228,04	185,577
228,26	75,740
228,47	49,206
228,69	107,158
228,91	85,323
229,12	94,562
229,34	44,670
229,55	78,121
229,77	-3,258
229,98	-24,058
230,20	28,447
230,41	-2,105
230,63	23,944
230,84	34,919
231,06	39,964
231,27	-20,057
231,49	19,782
231,71	22,278
231,92	28,553
232,14	16,539
232,35	37,280
232,57	71,123
232,78	3,723
233,00	22,921
233,21	13,093
233,43	-1,851
233,64	25,560
233,86	25,393
234,07	22,627
234,29	15,401
234,50	13,664
234,72	32,085
234,93	-1,547
235,15	15,849
235,36	26,903
235,58	4,789
235,79	34,041
236,01	18,507
236,22	16,371
236,44	38,222
236,65	14,833
236,87	22,246
237,08	6,639
237,30	-14,079
237,51	17,724
237,73	-7,724
237,94	7,674
238,16	14,911
238,37	3,717
238,59	15,791
238,80	7,969
239,02	4,510
239,23	19,889
239,45	-14,841
239,66	21,016
239,88	25,355
240,09	12,604
240,31	-2,192
240,52	2,152
240,74	11,187
240,95	3,501
241,17	2,235
241,38	-5,549
241,60	12,380
241,81	25,262
242,03	6,624
242,24	10,828
242,46	14,385
242,67	1,371
242,89	12,058
243,10	12,952
243,32	14,062
243,53	10,152
243,75	6,060
243,96	4,716
244,18	8,550
244,39	7,005
244,60	8,577
244,82	-0,446
245,03	13,047
245,25	10,777
245,46	16,803
245,68	0,236
245,89	12,596
246,11	5,136
246,32	8,050
246,54	3,786
246,75	8,884
246,97	10,379
247,18	13,338
247,39	2,241
247,61	7,517
247,82	0,790
248,04	7,307
248,25	3,691
248,47	10,915
248,68	10,646
248,90	-3,894
249,11	10,585
249,33	11,446
249,54	5,328
249,75	7,038
249,97	5,017
250,18	19,086
250,40	10,367
250,61	-3,743
250,83	-0,885
251,04	2,102
251,25	4,279
251,47	-0,027
251,68	6,987
251,90	6,706
252,11	8,948
252,33	1,564
252,54	3,906
252,76	7,810
252,97	2,927
253,18	3,959
253,40	3,291
253,61	1,400
253,83	8,978
254,04	11,133
254,25	5,811
254,47	3,803
254,68	2,669
254,90	-0,734
255,11	4,165
255,33	5,181
255,54	9,079
255,75	2,929
255,97	7,196
256,18	3,587
256,40	6,741
256,61	4,226
256,82	0,571
257,04	8,533
257,25	-0,777
257,47	4,011
257,68	2,164
257,89	2,452
258,11	9,812
258,32	4,409
258,54	4,544
258,75	6,001
258,96	11,090
259,18	3,957
259,39	1,352
259,61	9,957
259,82	2,438
260,03	7,986
260,25	4,228
260,46	3,548
260,68	0,019
260,89	2,059
261,10	3,865
261,32	3,608
261,53	5,717
261,75	6,731
261,96	-0,979
262,17	8,018
262,39	9,245
262,60	1,036
262,81	-2,057
263,03	11,051
263,24	6,713
263,46	-1,252
263,67	2,428
263,88	2,430
264,10	5,592
264,31	0,019
264,52	8,269
264,74	5,058
264,95	4,153
265,17	4,681
265,38	3,478
265,59	7,265
265,81	7,328
266,02	-2,092
266,23	4,966
266,45	6,646
266,66	10,839
266,87	7,298
267,09	2,843
267,30	8,221
267,52	6,871
267,73	5,197
267,94	3,586
268,16	4,868
268,37	5,622
268,58	5,249
268,80	4,187
269,01	3,729
269,22	4,114
269,44	4,708
269,65	4,807
269,86	3,744
270,08	6,058
270,29	0,093
270,50	3,862
270,72	9,068
270,93	0,623
271,14	0,017
271,36	-0,570
271,57	5,372
271,78	4,922
272,00	6,400
272,21	4,706
272,42	3,176
272,64	6,455
272,85	-0,349
273,06	2,400
273,28	0,779
273,49	5,543
273,70	4,600
273,92	5,078
274,13	8,478
274,34	1,004
274,56	3,969
274,77	1,120
274,98	7,263
275,20	6,470
275,41	6,206
275,62	4,674
275,84	4,157
276,05	6,073
276,26	0,193
276,47	-1,327
276,69	3,150
276,90	3,937
277,11	2,173
277,33	6,052
277,54	5,934
277,75	4,242
277,97	1,766
278,18	3,727
278,39	6,306
278,61	2,356
278,82	4,994
279,03	4,941
279,24	3,796
279,46	0,182
279,67	9,760
279,88	3,280
280,10	6,623
280,31	-2,835
280,52	5,830
280,73	0,312
280,95	3,635
281,16	5,924
281,37	5,347
281,59	5,833
281,80	8,486
282,01	3,063
282,22	2,476
282,44	1,154
282,65	5,650
282,86	8,458
283,08	1,109
283,29	4,728
283,50	2,733
283,71	8,389
283,93	4,711
284,14	7,786
284,35	2,095
284,56	5,769
284,78	2,797
284,99	3,665
285,20	3,590
285,42	3,418
285,63	4,447
285,84	1,307
286,05	3,848
286,27	6,108
286,48	1,561
286,69	2,849
286,90	4,081
287,12	4,314
287,33	2,673
287,54	1,835
287,75	3,556
287,97	2,892
288,18	1,433
288,39	0,535
288,60	3,735
288,82	2,804
289,03	1,678
289,24	3,727
289,45	7,454
289,67	3,384
289,88	1,490
290,09	3,641
290,30	5,647
290,52	2,450
290,73	4,077
290,94	3,420
291,15	5,372
291,37	5,799
291,58	3,856
291,79	4,710
292,00	5,422
292,21	4,282
292,43	3,066
292,64	1,910
292,85	1,512
293,06	3,636
293,28	2,352
293,49	0,461
293,70	4,909
293,91	2,106
294,12	2,285
294,34	3,670
294,55	6,780
294,76	4,435
294,97	5,698
295,19	0,039
295,40	4,196
295,61	5,888
295,82	1,997
296,03	3,507
296,25	5,551
296,46	2,568
296,67	2,859
296,88	-0,368
297,09	5,736
297,31	3,289
297,52	3,824
297,73	2,343
297,94	7,274
298,15	2,074
298,37	3,490
298,58	5,295
298,79	6,030
299,00	2,306
299,21	2,610
299,43	0,960
299,64	5,795
299,85	3,244
300,06	1,025
300,27	3,996
300,49	7,038
300,70	0,944
300,91	3,345
301,12	1,901
301,33	6,288
301,54	2,618
301,76	3,673
301,97	2,519
302,18	2,748
302,39	5,862
302,60	8,101
302,82	0,454
303,03	6,034
303,24	2,896
303,45	4,771
303,66	5,200
303,87	4,295
304,09	5,225
304,30	0,862
304,51	1,380
304,72	0,795
304,93	4,999
305,14	4,325
305,36	2,695
305,57	-0,134
305,78	4,041
305,99	2,244
306,20	2,572
306,41	0,646
306,62	2,051
306,84	2,259
307,05	2,165
307,26	2,805
307,47	6,125
307,68	4,700
307,89	3,528
308,11	3,704
308,32	1,318
308,53	3,721
308,74	-0,506
308,95	2,545
309,16	3,931
309,37	5,360
309,59	2,095
309,80	6,320
310,01	5,366
310,22	6,738
310,43	2,085
310,64	4,237
310,85	3,491
311,06	3,028
311,28	4,233
311,49	4,127
311,70	6,588
311,91	2,416
312,12	1,646
312,33	3,453
312,54	5,714
312,75	1,701
312,97	2,337
313,18	6,136
313,39	2,227
313,60	3,297
313,81	6,046
314,02	4,828
314,23	4,214
314,44	1,650
314,65	-0,714
314,87	1,291
315,08	3,937
315,29	5,180
315,50	2,509
315,71	6,176
315,92	5,901
316,13	5,305
316,34	5,033
316,55	1,869
316,77	4,376
316,98	2,894
317,19	3,105
317,40	4,221
317,61	3,374
317,82	2,839
318,03	2,838
318,24	0,638
318,45	4,756
318,66	1,834
318,87	1,697
319,09	6,218
319,30	3,658
319,51	4,091
319,72	4,494
319,93	4,501
320,14	6,973
320,35	4,780
320,56	1,129
320,77	0,256
320,98	5,354
321,19	5,982
321,40	3,324
321,62	4,833
321,83	4,562
322,04	2,753
322,25	4,925
322,46	7,723
322,67	6,540
322,88	3,815
323,09	2,217
323,30	5,654
323,51	6,071
323,72	7,448
323,93	2,078
324,14	4,253
324,35	0,702
324,56	-0,494
324,77	2,507
324,99	2,657
325,20	-1,203
325,41	3,856
325,62	4,076
325,83	1,789
326,04	1,937
326,25	2,715
326,46	2,878
326,67	6,293
326,88	5,182
327,09	3,245
327,30	1,758
327,51	6,260
327,72	4,659
327,93	4,564
328,14	0,475
328,35	5,101
328,56	4,964
328,77	3,826
328,98	3,712
329,19	5,590
329,40	4,141
329,61	2,180
329,82	2,051
330,04	2,622
330,25	2,562
330,46	3,346
330,67	2,134
330,88	2,647
331,09	3,560
331,30	3,355
331,51	3,189
331,72	3,815
331,93	3,759
332,14	0,501
332,35	5,353
332,56	5,123
332,77	5,298
332,98	0,354
333,19	2,273
333,40	4,296
333,61	3,748
333,82	5,629
334,03	3,402
334,24	5,772
334,45	2,184
334,66	7,155
334,87	4,466
335,08	1,788
335,29	2,080
335,50	1,485
335,71	3,368
335,92	5,304
336,13	5,223
336,34	0,013
336,55	5,792
336,76	4,948
336,97	5,038
337,18	3,018
337,39	3,670
337,60	4,449
337,81	4,010
338,02	4,558
338,23	4,534
338,44	2,954
338,65	4,753
338,86	7,035
339,07	1,476
339,28	5,906
339,49	2,809
339,70	3,623
339,91	4,207
340,11	6,432
340,32	2,645
340,53	1,326
340,74	0,948
340,95	2,690
341,16	5,862
341,37	4,033
341,58	-1,509
341,79	3,446
342,00	5,713
342,21	3,369
342,42	1,945
342,63	2,629
342,84	0,183
343,05	5,192
343,26	5,002
343,47	3,825
343,68	3,792
343,89	2,864
344,10	6,556
344,31	5,211
344,52	4,219
344,73	1,981
344,94	4,479
345,14	3,514
345,35	5,262
345,56	3,356
345,77	1,753
345,98	3,333
346,19	5,510
346,40	4,453
346,61	3,580
346,82	2,125
347,03	0,886
347,24	4,696
347,45	1,133
347,66	9,225
347,87	3,907
348,08	6,099
348,28	1,040
348,49	4,876
348,70	6,868
348,91	3,619
349,12	-0,500
349,33	17,360
349,54	1,418
349,75	5,310
349,96	4,682
350,17	4,702
350,38	2,294
350,59	8,762
350,80	3,804
351,00	6,062
351,21	8,147
351,42	3,053
351,63	-0,269
351,84	3,738
352,05	2,841
352,26	4,833
352,47	3,342
352,68	4,314
352,89	8,364
353,09	7,001
353,30	1,128
353,51	4,178
353,72	6,798
353,93	7,320
354,14	-0,047
354,35	3,770
354,56	3,953
354,77	5,054
354,98	0,642
355,18	4,128
355,39	7,806
355,60	2,236
355,81	2,537
356,02	4,497
356,23	3,171
356,44	4,302
356,65	3,782
356,85	12,149
357,06	7,221
357,27	6,378
357,48	1,633
357,69	4,435
357,90	4,171
358,11	0,797
358,32	4,131
358,52	6,266
358,73	3,027
358,94	5,280
359,15	5,911
359,36	4,992
359,57	1,228
359,78	4,914
359,98	5,928
360,19	2,695
360,40	4,979
360,61	8,436
360,82	0,810
361,03	6,842
361,24	6,255
361,44	3,886
361,65	5,888
361,86	4,374
362,07	3,058
362,28	4,658
362,49	1,201
362,70	5,997
362,90	4,640
363,11	1,823
363,32	2,511
363,53	7,169
363,74	8,376
363,95	3,845
364,15	6,025
364,36	8,079
364,57	4,700
364,78	5,987
364,99	3,002
365,20	6,177
365,40	5,321
365,61	4,438
365,82	6,305
366,03	3,531
366,24	5,740
366,45	6,657
366,65	3,220
366,86	3,548
367,07	5,312
367,28	4,398
367,49	4,468
367,69	5,635
367,90	4,933
368,11	4,654
368,32	4,011
368,53	6,641
368,73	5,701
368,94	3,494
369,15	3,398
369,36	7,020
369,57	3,054
369,78	0,951
369,98	6,645
370,19	6,665
370,40	3,907
370,61	2,034
370,82	3,692
371,02	4,676
371,23	8,267
371,44	4,560
371,65	7,570
371,85	6,967
372,06	5,202
372,27	3,524
372,48	8,051
372,69	3,424
372,89	3,502
373,10	2,595
373,31	6,002
373,52	6,204
373,73	9,584
373,93	3,955
374,14	5,245
374,35	5,753
374,56	6,920
374,76	6,799
374,97	3,239
375,18	6,677
375,39	6,481
375,60	7,180
375,80	6,669
376,01	5,252
376,22	6,638
376,43	5,972
376,63	4,546
376,84	6,861
377,05	9,859
377,26	4,524
377,46	2,755
377,67	3,415
377,88	4,422
378,09	5,229
378,29	1,804
378,50	6,123
378,71	7,081
378,92	2,006
379,12	5,310
379,33	1,943
379,54	7,736
379,75	4,406
379,95	5,575
380,16	7,700
380,37	10,354
380,58	6,477
380,78	8,704
380,99	5,601
381,20	6,587
381,41	7,583
381,61	7,272
381,82	4,893
382,03	5,998
382,24	7,224
382,44	8,821
382,65	7,580
382,86	9,230
383,06	5,783
383,27	9,107
383,48	3,124
383,69	8,607
383,89	8,593
384,10	7,875
384,31	3,798
384,51	9,238
384,72	7,761
384,93	4,356
385,14	8,427
385,34	8,806
385,55	6,104
385,76	7,194
385,96	10,154
386,17	7,705
386,38	11,965
386,59	10,794
386,79	5,690
387,00	10,822
387,21	10,864
387,41	10,163
387,62	5,533
387,83	11,795
388,03	7,303
388,24	4,379
388,45	7,367
388,66	10,003
388,86	10,553
389,07	8,206
389,28	12,035
389,48	5,330
389,69	10,898
389,90	7,882
390,10	12,046
390,31	14,103
390,52	5,027
390,72	9,640
390,93	11,617
391,14	9,133
391,34	10,041
391,55	10,117
391,76	12,810
391,96	12,158
392,17	10,693
392,38	14,211
392,58	11,098
392,79	10,704
393,00	8,728
393,20	9,450
393,41	12,516
393,62	11,120
393,82	10,570
394,03	10,196
394,24	11,327
394,44	14,362
394,65	13,494
394,86	12,971
395,06	15,638
395,27	12,777
395,48	13,945
395,68	15,825
395,89	12,802
396,10	16,363
396,30	12,745
396,51	12,928
396,72	9,901
396,92	13,410
397,13	20,081
397,34	13,407
397,54	16,363
397,75	12,825
397,95	14,064
398,16	14,943
398,37	14,807
398,57	16,879
398,78	17,285
398,99	19,332
399,19	18,829
399,40	17,584
399,60	15,421
399,81	17,135
400,02	16,256
400,22	19,716
400,43	16,616
400,64	18,225
400,84	14,978
401,05	19,775
401,25	18,593
401,46	17,344
401,67	20,415
401,87	20,162
402,08	16,478
402,29	18,681
402,49	18,517
402,70	21,414
402,90	15,056
403,11	18,042
403,32	21,526
403,52	20,868
403,73	18,935
403,93	22,575
404,14	24,442
404,35	22,367
404,55	16,424
404,76	20,922
404,96	19,437
405,17	24,394
405,38	25,626
405,58	21,700
405,79	24,501
405,99	23,508
406,20	24,204
406,40	22,502
406,61	24,187
406,82	19,226
407,02	23,700
407,23	20,894
407,43	24,446
407,64	21,581
407,85	24,624
408,05	21,689
408,26	29,500
408,46	25,478
408,67	22,951
408,87	24,857
409,08	26,787
409,29	30,405
409,49	30,238
409,70	27,631
409,90	25,339
410,11	24,760
410,31	29,383
410,52	23,003
410,72	25,599
410,93	27,534
411,14	24,253
411,34	21,997
411,55	24,209
411,75	29,792
411,96	25,571
412,16	26,672
412,37	25,017
412,57	30,053
412,78	29,373
412,99	26,335
413,19	30,616
413,40	26,277
413,60	24,840
413,81	27,268
414,01	30,687
414,22	27,526
414,42	29,384
414,63	28,218
414,83	28,423
415,04	27,945
415,24	29,076
415,45	27,135
415,65	31,603
415,86	30,999
416,07	27,271
416,27	27,792
416,48	32,415
416,68	29,724
416,89	26,265
417,09	30,831
417,30	32,620
417,50	30,455
417,71	31,624
417,91	33,938
418,12	23,364
418,32	32,470
418,53	29,055
418,73	26,232
418,94	31,895
419,14	32,755
419,35	27,610
419,55	32,434
419,76	32,170
419,96	30,723
420,17	28,830
420,37	30,716
420,58	36,518
420,78	31,557
420,99	30,235
421,19	30,781
421,40	31,414
421,60	32,644
421,81	31,437
422,01	30,363
422,22	27,688
422,42	38,203
422,63	31,568
422,83	32,096
423,04	30,914
423,24	36,572
423,45	29,982
423,65	32,684
423,86	36,691
424,06	35,937
424,27	33,166
424,47	30,406
424,67	29,812
424,88	30,391
425,08	29,245
425,29	36,834
425,49	30,888
425,70	29,004
425,90	34,369
426,11	31,979
426,31	31,009
426,52	32,505
426,72	34,313
426,93	30,382
427,13	36,925
427,33	32,140
427,54	34,610
427,74	37,117
427,95	36,812
428,15	33,534
428,36	31,916
428,56	29,760
428,77	35,305
428,97	34,691
429,18	32,115
429,38	31,485
429,58	37,110
429,79	34,988
429,99	32,302
430,20	26,364
430,40	39,682
430,61	31,268
430,81	28,317
431,01	35,665
431,22	37,178
431,42	32,231
431,63	30,058
431,83	34,534
432,04	32,103
432,24	34,358
432,44	30,170
432,65	30,992
432,85	34,281
433,06	34,834
433,26	28,964
433,47	30,509
433,67	30,119
433,87	31,205
434,08	29,476
434,28	30,552
434,49	32,481
434,69	33,881
434,89	29,461
435,10	30,549
435,30	38,952
435,51	28,509
435,71	32,856
435,91	31,922
436,12	30,558
436,32	31,328
436,53	33,802
436,73	33,126
436,93	35,067
437,14	32,682
437,34	37,577
437,55	32,507
437,75	35,029
437,95	34,006
438,16	34,669
438,36	32,396
438,57	30,084
438,77	33,188
438,97	36,874
439,18	36,242
439,38	30,836
439,58	33,536
439,79	35,130
439,99	31,813
440,20	34,768
440,40	33,303
440,60	31,587
440,81	35,116
441,01	33,677
441,21	37,656
441,42	36,746
441,62	34,105
441,83	34,721
442,03	33,799
442,23	35,274
442,44	34,343
442,64	33,719
442,84	33,153
443,05	34,331
443,25	32,996
443,45	35,321
443,66	33,304
443,86	32,977
444,06	32,998
444,27	32,997
444,47	32,466
444,67	31,815
444,88	33,216
445,08	31,846
445,28	33,854
445,49	32,131
445,69	33,141
445,90	33,583
446,10	34,856
446,30	35,260
446,51	37,585
446,71	39,799
446,91	39,225
447,12	34,359
447,32	30,876
447,52	33,969
447,72	33,488
447,93	33,615
448,13	30,083
448,33	41,786
448,54	40,925
448,74	28,942
448,94	34,139
449,15	38,797
449,35	38,685
449,55	32,506
449,76	40,035
449,96	36,106
450,16	37,085
450,37	35,822
450,57	33,327
450,77	31,208
450,98	37,375
451,18	37,576
451,38	32,591
451,58	33,453
451,79	34,876
451,99	39,095
452,19	34,268
452,40	38,921
452,60	30,580
452,80	32,563
453,00	38,063
453,21	34,684
453,41	41,405
453,61	33,594
453,82	39,380
454,02	33,071
454,22	38,806
454,42	35,133
454,63	34,684
454,83	35,363
455,03	35,243
455,24	32,779
455,44	34,225
455,64	31,717
455,84	33,184
456,05	35,023
456,25	31,327
456,45	33,302
456,65	33,943
456,86	40,109
457,06	38,389
457,26	39,842
457,47	36,719
457,67	38,153
457,87	32,396
458,07	34,635
458,28	39,587
458,48	38,393
458,68	31,190
458,88	42,088
459,09	39,165
459,29	35,601
459,49	36,314
459,69	39,328
459,90	40,999
460,10	33,687
460,30	38,819
460,50	35,100
460,71	36,954
460,91	34,866
461,11	35,662
461,31	30,955
461,52	37,755
461,72	35,400
461,92	37,187
462,12	39,261
462,32	34,875
462,53	35,772
462,73	36,320
462,93	35,074
463,13	38,139
463,34	34,800
463,54	36,874
463,74	36,111
463,94	33,269
464,14	36,389
464,35	31,754
464,55	41,248
464,75	36,996
464,95	36,992
465,16	32,953
465,36	37,334
465,56	33,159
465,76	32,913
465,96	36,716
466,17	39,526
466,37	29,793
466,57	37,621
466,77	34,844
466,97	35,576
467,18	37,559
467,38	36,613
467,58	33,153
467,78	37,931
467,98	37,989
468,19	38,191
468,39	37,543
468,59	39,443
468,79	39,319
468,99	31,789
469,19	34,470
469,40	34,513
469,60	29,438
469,80	30,420
470,00	36,794
470,20	34,902
470,41	32,364
470,61	36,420
470,81	38,164
471,01	32,973
471,21	33,352
471,41	35,922
471,62	35,722
471,82	33,073
472,02	32,585
472,22	33,071
472,42	33,488
472,62	35,956
472,83	32,822
473,03	39,963
473,23	35,837
473,43	39,510
473,63	33,544
473,83	36,658
474,03	33,605
474,24	36,879
474,44	35,900
474,64	36,931
474,84	34,473
475,04	35,318
475,24	37,512
475,45	32,894
475,65	36,032
475,85	36,478
476,05	31,875
476,25	34,162
476,45	32,459
476,65	37,985
476,85	34,714
477,06	32,131
477,26	33,821
477,46	32,496
477,66	34,338
477,86	35,855
478,06	32,542
478,26	38,303
478,46	36,485
478,67	35,107
478,87	33,854
479,07	36,291
479,27	35,778
479,47	33,623
479,67	31,012
479,87	30,621
480,07	35,138
480,28	35,154
480,48	33,569
480,68	34,942
480,88	36,149
481,08	35,408
481,28	33,292
481,48	34,077
481,68	34,222
481,88	32,635
482,08	31,869
482,29	35,503
482,49	33,124
482,69	33,178
482,89	34,031
483,09	37,615
483,29	32,571
483,49	31,558
483,69	32,090
483,89	32,466
484,09	33,198
484,29	32,139
484,50	35,029
484,70	31,351
484,90	32,570
485,10	32,174
485,30	34,374
485,50	35,871
485,70	33,675
485,90	32,102
486,10	29,239
486,30	33,006
486,50	33,532
486,70	32,104
486,90	32,485
487,10	33,181
487,30	33,105
487,51	34,327
487,71	30,898
487,91	29,151
488,11	32,292
488,31	29,846
488,51	32,196
488,71	30,451
488,91	34,644
489,11	30,423
489,31	32,027
489,51	32,189
489,71	33,282
489,91	31,096
490,11	29,280
490,31	32,655
490,51	32,832
490,71	33,391
490,91	31,430
491,11	33,048
491,31	33,585
491,51	29,793
491,72	32,483
491,92	32,694
492,12	36,356
492,32	30,650
492,52	34,488
492,72	35,324
492,92	33,881
493,12	33,542
493,32	34,463
493,52	30,494
493,72	32,315
493,92	34,341
494,12	32,595
494,32	34,705
494,52	34,258
494,72	34,070
494,92	31,878
495,12	34,024
495,32	36,077
495,52	33,239
495,72	33,413
495,92	34,381
496,12	36,475
496,32	31,455
496,52	31,759
496,72	33,142
496,92	32,918
497,12	33,047
497,32	35,182
497,52	36,306
497,72	35,417
497,92	34,230
498,12	32,407
498,32	33,813
498,52	33,546
498,72	34,009
498,92	31,287
499,12	34,133
499,32	32,932
499,52	34,705
499,72	34,806
499,92	34,145
500,12	38,683
500,32	36,430
500,52	32,430
500,72	37,981
500,91	36,065
501,11	34,348
501,31	33,100
501,51	35,536
501,71	37,279
501,91	34,419
502,11	36,304
502,31	33,352
502,51	35,610
502,71	33,521
502,91	33,889
503,11	33,904
503,31	34,612
503,51	30,732
503,71	31,652
503,91	36,436
504,11	34,043
504,31	35,485
504,51	37,935
504,71	36,408
504,91	35,014
505,10	34,241
505,30	37,252
505,50	33,556
505,70	32,742
505,90	35,277
506,10	30,834
506,30	34,633
506,50	36,189
506,70	35,060
506,90	34,260
507,10	34,165
507,30	35,806
507,50	34,079
507,70	35,273
507,89	33,430
508,09	32,588
508,29	33,554
508,49	34,538
508,69	33,664
508,89	31,640
509,09	34,820
509,29	32,106
509,49	37,196
509,69	40,319
509,89	36,155
510,09	31,433
510,28	34,400
510,48	35,859
510,68	31,850
510,88	31,926
511,08	35,080
511,28	34,598
511,48	33,689
511,68	33,852
511,88	30,885
512,07	34,594
512,27	34,620
512,47	34,108
512,67	29,963
512,87	33,761
513,07	33,938
513,27	32,297
513,47	33,117
513,67	30,638
513,86	34,667
514,06	34,181
514,26	31,984
514,46	33,689
514,66	32,471
514,86	32,365
515,06	35,255
515,26	35,735
515,45	32,370
515,65	30,068
515,85	31,683
516,05	30,616
516,25	34,464
516,45	29,710
516,65	32,451
516,84	31,749
517,04	34,372
517,24	31,214
517,44	32,870
517,64	35,068
517,84	31,970
518,04	32,441
518,23	31,761
518,43	34,503
518,63	29,357
518,83	30,961
519,03	29,604
519,23	32,912
519,42	31,948
519,62	32,696
519,82	31,275
520,02	33,270
520,22	29,990
520,42	32,621
520,61	33,552
520,81	34,055
521,01	32,316
521,21	31,241
521,41	32,381
521,61	34,105
521,80	30,148
522,00	29,810
522,20	32,328
522,40	33,132
522,60	29,297
522,79	28,438
522,99	32,448
523,19	30,820
523,39	29,131
523,59	31,928
523,78	33,370
523,98	31,057
524,18	29,364
524,38	30,474
524,58	31,284
524,77	36,113
524,97	32,274
525,17	32,084
525,37	28,775
525,57	33,185
525,76	30,413
525,96	32,816
526,16	28,296
526,36	27,716
526,56	32,139
526,75	30,528
526,95	30,820
527,15	28,967
527,35	30,516
527,55	30,197
527,74	31,555
527,94	31,022
528,14	30,118
528,34	30,730
528,53	28,895
528,73	29,487
528,93	32,576
529,13	28,874
529,32	32,359
529,52	32,452
529,72	30,510
529,92	27,635
530,12	27,516
530,31	29,458
530,51	28,424
530,71	29,256
530,91	32,043
531,10	27,435
531,30	28,863
531,50	27,201
531,70	29,688
531,89	29,534
532,09	28,118
532,29	29,167
532,49	29,582
532,68	28,448
532,88	27,701
533,08	24,953
533,28	29,027
533,47	29,559
533,67	29,407
533,87	26,872
534,06	33,251
534,26	29,120
534,46	28,161
534,66	29,530
534,85	29,093
535,05	24,458
535,25	27,654
535,45	26,151
535,64	30,436
535,84	27,211
536,04	24,654
536,23	27,786
536,43	32,103
536,63	25,810
536,83	26,889
537,02	30,704
537,22	26,130
537,42	26,984
537,61	26,304
537,81	26,188
538,01	25,224
538,20	26,091
538,40	24,835
538,60	27,137
538,80	26,518
538,99	27,003
539,19	23,821
539,39	24,447
539,58	24,308
539,78	22,574
539,98	23,013
540,17	22,169
540,37	23,904
540,57	19,460
540,76	21,711
540,96	18,502
541,16	21,274
541,36	19,953
541,55	16,536
541,75	18,708
541,95	19,083
542,14	18,160
542,34	17,694
542,54	18,470
542,73	19,995
542,93	19,824
543,13	17,950
543,32	17,966
543,52	19,432
543,72	17,778
543,91	19,521
544,11	16,876
544,31	18,007
544,50	18,628
544,70	18,087
544,89	19,490
545,09	20,819
545,29	18,829
545,48	19,427
545,68	19,092
545,88	19,292
546,07	19,429
546,27	19,120
546,47	20,931
546,66	21,470
546,86	21,997
547,06	19,717
547,25	21,364
547,45	22,772
547,64	22,907
547,84	24,574
548,04	23,679
548,23	23,304
548,43	24,145
548,63	24,418
548,82	25,377
549,02	22,502
549,21	22,319
549,41	23,948
549,61	23,761
549,80	23,526
550,00	23,869
550,20	21,666
550,39	24,698
550,59	24,151
550,78	24,619
550,98	21,191
551,18	25,568
551,37	26,092
551,57	23,907
551,76	25,101
551,96	26,061
552,16	21,972
552,35	26,419
552,55	24,494
552,74	25,824
552,94	27,242
553,14	24,646
553,33	24,505
553,53	24,555
553,72	25,501
553,92	25,858
554,12	24,137
554,31	23,875
554,51	25,101
554,70	21,786
554,90	25,005
555,09	27,387
555,29	26,810
555,49	24,781
555,68	28,298
555,88	24,747
556,07	25,376
556,27	27,911
556,46	23,946
556,66	23,983
556,86	26,130
557,05	24,067
557,25	27,232
557,44	24,550
557,64	23,927
557,83	25,065
558,03	25,354
558,22	24,749
558,42	23,784
558,62	27,196
558,81	25,925
559,01	24,879
559,20	27,230
559,40	26,681
559,59	24,076
559,79	25,202
559,98	27,466
560,18	24,205
560,37	25,820
560,57	26,359
560,76	24,352
560,96	23,988
561,16	25,363
561,35	26,791
561,55	27,111
561,74	24,838
561,94	28,473
562,13	25,083
562,33	27,871
562,52	28,080
562,72	25,843
562,91	25,705
563,11	24,913
563,30	27,712
563,50	22,895
563,69	25,138
563,89	25,228
564,08	25,910
564,28	23,557
564,47	24,904
564,67	26,042
564,86	25,603
565,06	25,239
565,25	24,866
565,45	25,741
565,64	26,732
565,84	23,844
566,03	24,626
566,23	25,090
566,42	26,538
566,62	25,334
566,81	25,029
567,01	24,632
567,20	26,300
567,40	24,309
567,59	23,121
567,79	27,272
567,98	29,408
568,18	25,577
568,37	26,469
568,57	26,484
568,76	27,791
568,96	25,342
569,15	25,800
569,35	27,657
569,54	28,177
569,73	26,962
569,93	25,111
570,12	26,103
570,32	27,747
570,51	27,482
570,71	27,356
570,90	28,541
571,10	27,061
571,29	25,576
571,49	26,074
571,68	28,570
571,87	27,533
572,07	27,148
572,26	24,142
572,46	27,272
572,65	27,863
572,85	23,576
573,04	27,171
573,24	27,214
573,43	29,171
573,62	28,045
573,82	27,917
574,01	26,737
574,21	28,484
574,40	24,872
574,60	25,490
574,79	28,086
574,98	26,568
575,18	28,211
575,37	26,757
575,57	28,081
575,76	27,915
575,96	28,279
576,15	28,345
576,34	27,145
576,54	26,856
576,73	28,218
576,93	27,076
577,12	27,891
577,31	28,432
577,51	25,945
577,70	25,445
577,90	27,145
578,09	27,368
578,28	27,222
578,48	27,215
578,67	28,280
578,87	28,382
579,06	26,890
579,25	27,271
579,45	28,701
579,64	27,226
579,84	27,588
580,03	26,433
580,22	29,805
580,42	27,020
580,61	28,641
580,81	28,087
581,00	28,585
581,19	29,085
581,39	28,440
581,58	28,980
581,77	28,229
581,97	29,679
582,16	27,484
582,35	28,526
582,55	27,776
582,74	30,003
582,94	28,912
583,13	27,253
583,32	29,506
583,52	29,107
583,71	28,996
583,90	30,227
584,10	28,493
584,29	29,906
584,48	27,842
584,68	28,753
584,87	30,720
585,06	28,748
585,26	28,116
585,45	27,484
585,65	31,297
585,84	28,569
586,03	29,127
586,23	28,102
586,42	28,523
586,61	31,882
586,81	29,184
587,00	29,597
587,19	29,287
587,39	31,210
587,58	30,411
587,77	30,841
587,97	28,461
588,16	29,412
588,35	29,725
588,54	30,954
588,74	28,993
588,93	32,540
589,12	31,441
589,32	30,932
589,51	29,135
589,70	29,163
589,90	30,465
590,09	29,499
590,28	34,283
590,48	31,131
590,67	30,747
590,86	32,588
591,06	31,461
591,25	32,875
591,44	32,257
591,63	31,762
591,83	33,076
592,02	33,572
592,21	31,927
592,41	31,869
592,60	33,006
592,79	33,503
592,98	32,854
593,18	32,805
593,37	32,486
593,56	33,184
593,76	34,028
593,95	32,158
594,14	32,561
594,33	34,750
594,53	32,255
594,72	31,519
594,91	36,193
595,10	32,076
595,30	33,596
595,49	33,047
595,68	35,574
595,88	34,584
596,07	35,527
596,26	34,073
596,45	32,602
596,65	33,197
596,84	34,702
597,03	33,714
597,22	34,915
597,42	36,908
597,61	34,678
597,80	35,954
597,99	35,434
598,19	35,039
598,38	35,184
598,57	35,517
598,76	35,117
598,95	36,393
599,15	35,931
599,34	34,629
599,53	36,679
599,72	35,705
599,92	37,199
600,11	36,787
600,30	36,268
600,49	37,116
600,69	35,547
600,88	38,476
601,07	37,265
601,26	35,785
601,45	38,747
601,65	36,284
601,84	37,418
602,03	35,908
602,22	37,777
602,42	37,110
602,61	36,656
602,80	38,054
602,99	36,808
603,18	35,673
603,38	37,780
603,57	36,087
603,76	36,924
603,95	36,013
604,14	37,558
604,34	38,411
604,53	36,570
604,72	38,904
604,91	37,716
605,10	38,502
605,29	38,401
605,49	37,099
605,68	36,657
605,87	39,294
606,06	37,858
606,25	36,631
606,45	37,831
606,64	38,298
606,83	37,736
607,02	36,464
607,21	39,557
607,40	38,935
607,60	34,787
607,79	36,807
607,98	34,568
608,17	33,941
608,36	34,301
608,55	34,342
608,75	35,010
608,94	33,677
609,13	31,555
609,32	29,574
609,51	32,342
609,70	30,325
609,89	33,092
610,09	31,482
610,28	33,581
610,47	32,264
610,66	29,857
610,85	29,300
611,04	31,198
611,23	30,901
611,43	31,943
611,62	30,384
611,81	30,721
612,00	31,258
612,19	29,519
612,38	31,970
612,57	32,012
612,77	32,353
612,96	33,532
613,15	32,534
613,34	35,071
613,53	34,541
613,72	35,677
613,91	35,215
614,10	33,967
614,29	36,122
614,49	34,773
614,68	35,071
614,87	38,020
615,06	39,293
615,25	34,601
615,44	38,890
615,63	36,075
615,82	35,212
616,01	35,992
616,21	37,197
616,40	38,927
616,59	38,788
616,78	39,408
616,97	38,113
617,16	37,640
617,35	39,667
617,54	37,896
617,73	39,400
617,92	37,574
618,11	39,622
618,31	36,144
618,50	38,582
618,69	38,545
618,88	38,251
619,07	37,343
619,26	36,495
619,45	38,504
619,64	37,523
619,83	36,073
620,02	37,419
620,21	39,158
620,40	38,822
620,59	37,339
620,78	37,250
620,97	39,752
621,17	35,886
621,36	38,921
621,55	38,146
621,74	38,461
621,93	37,751
622,12	38,532
622,31	36,871
622,50	37,603
622,69	39,449
622,88	39,632
623,07	41,406
623,26	39,483
623,45	41,125
623,64	39,405
623,83	37,450
624,02	39,928
624,21	40,718
624,40	39,645
624,59	39,024
624,78	39,027
624,97	42,014
625,16	37,766
625,35	38,873
625,54	38,009
625,73	38,038
625,92	40,411
626,12	40,373
626,31	40,206
626,50	41,035
626,69	38,637
626,88	38,609
627,07	39,286
627,26	39,505
627,45	38,150
627,64	38,473
627,83	40,267
628,02	38,977
628,21	37,004
628,40	37,828
628,59	40,234
628,78	37,785
628,97	37,163
629,16	37,962
629,35	37,990
629,54	41,043
629,73	37,979
629,92	38,582
630,10	39,881
630,29	39,026
630,48	38,444
630,67	38,319
630,86	39,976
631,05	39,463
631,24	40,916
631,43	38,014
631,62	38,643
631,81	38,471
632,00	38,537
632,19	37,433
632,38	38,684
632,57	39,493
632,76	40,694
632,95	40,381
633,14	40,799
633,33	41,027
633,52	40,418
633,71	39,929
633,90	37,159
634,09	40,398
634,28	40,716
634,47	37,681
634,66	38,765
634,85	39,440
635,04	42,793
635,22	41,280
635,41	40,424
635,60	41,930
635,79	41,674
635,98	38,968
636,17	40,885
636,36	39,152
636,55	39,566
636,74	39,477
636,93	40,670
637,12	41,014
637,31	39,773
637,50	39,876
637,69	41,087
637,87	39,946
638,06	40,241
638,25	38,731
638,44	40,065
638,63	38,213
638,82	40,390
639,01	39,895
639,20	37,927
639,39	40,545
639,58	40,680
639,77	40,675
639,95	39,438
640,14	41,087
640,33	38,953
640,52	38,446
640,71	41,252
640,90	39,116
641,09	42,700
641,28	38,664
641,47	39,774
641,66	40,110
641,84	39,462
642,03	38,924
642,22	40,616
642,41	43,118
642,60	40,734
642,79	40,481
642,98	39,944
643,17	38,897
643,35	40,939
643,54	39,557
643,73	41,225
643,92	40,735
644,11	39,192
644,30	38,926
644,49	41,274
644,67	37,731
644,86	40,288
645,05	42,828
645,24	39,722
645,43	39,247
645,62	40,083
645,81	39,774
645,99	41,523
646,18	41,283
646,37	41,216
646,56	39,567
646,75	40,999
646,94	42,953
647,13	40,027
647,31	39,673
647,50	39,551
647,69	41,778
647,88	41,269
648,07	39,561
648,26	42,547
648,44	40,554
648,63	38,274
648,82	41,248
649,01	41,568
649,20	37,531
649,38	39,042
649,57	40,295
649,76	38,478
649,95	40,784
650,14	38,616
650,33	37,108
650,51	39,960
650,70	40,693
650,89	38,738
651,08	39,162
651,27	38,820
651,45	39,112
651,64	39,238
651,83	39,343
652,02	40,440
652,21	41,476
652,39	41,276
652,58	40,593
652,77	39,805
652,96	41,828
653,15	41,069
653,33	39,762
653,52	41,905
653,71	42,604
653,90	41,581
654,09	43,355
654,27	41,790
654,46	42,852
654,65	42,028
654,84	41,694
655,02	42,925
655,21	42,701
655,40	43,249
655,59	42,022
655,77	43,478
655,96	42,635
656,15	43,183
656,34	42,542
656,53	42,749
656,71	42,936
656,90	43,099
657,09	42,902
657,28	42,503
657,46	40,107
657,65	42,498
657,84	40,767
658,03	42,560
658,21	42,099
658,40	39,871
658,59	40,166
658,78	41,507
658,96	39,768
659,15	39,334
659,34	41,321
659,52	40,635
659,71	39,863
659,90	38,044
660,09	38,137
660,27	39,945
660,46	41,662
660,65	39,041
660,84	39,208
661,02	40,309
661,21	39,631
661,40	39,343
661,58	38,419
661,77	40,578
661,96	36,967
662,15	38,964
662,33	38,544
662,52	37,802
662,71	39,773
662,89	38,895
663,08	38,268
663,27	38,551
663,45	37,708
663,64	38,880
663,83	36,303
664,02	38,410
664,20	39,964
664,39	37,737
664,58	38,852
664,76	38,590
664,95	37,626
665,14	36,951
665,32	38,616
665,51	37,822
665,70	38,825
665,88	40,263
666,07	38,280
666,26	39,642
666,44	39,070
666,63	35,623
666,82	37,439
667,00	38,455
667,19	36,719
667,38	38,717
667,56	37,384
667,75	38,402
667,94	38,024
668,12	37,875
668,31	39,384
668,50	37,182
668,68	38,224
668,87	37,349
669,06	37,813
669,24	38,118
669,43	37,780
669,62	35,963
669,80	35,829
669,99	38,029
670,18	38,953
670,36	36,913
670,55	37,548
670,74	38,801
670,92	36,615
671,11	38,927
671,29	37,354
671,48	37,155
671,67	37,358
671,85	38,766
672,04	35,670
672,23	36,736
672,41	36,752
672,60	37,457
672,78	36,509
672,97	36,785
673,16	38,140
673,34	36,493
673,53	37,864
673,71	37,299
673,90	37,448
674,09	37,076
674,27	37,374
674,46	36,900
674,64	38,219
674,83	37,372
675,02	35,143
675,20	38,743
675,39	35,603
675,57	37,597
675,76	35,848
675,95	38,126
676,13	38,124
676,32	37,824
676,50	37,555
676,69	36,521
676,88	36,051
677,06	35,279
677,25	37,246
677,43	39,802
677,62	35,855
677,80	36,430
677,99	36,704
678,18	38,677
678,36	40,158
678,55	36,367
678,73	37,158
678,92	37,408
679,10	38,364
679,29	37,123
679,48	38,257
679,66	37,635
679,85	36,965
680,03	36,193
680,22	36,954
680,40	35,033
680,59	38,115
680,77	35,993
680,96	38,298
681,15	35,867
681,33	38,966
681,52	34,751
681,70	38,924
681,89	38,567
682,07	39,455
682,26	38,394
682,44	39,153
682,63	38,935
682,81	38,706
683,00	39,145
683,18	36,548
683,37	38,965
683,55	37,479
683,74	39,111
683,92	43,646
684,11	39,996
684,29	38,989
684,48	35,738
684,67	38,324
684,85	37,729
685,04	38,665
685,22	39,137
685,41	39,292
685,59	39,711
685,78	37,994
685,96	38,521
686,15	38,243
686,33	39,257
686,52	39,156
686,70	38,502
686,89	39,802
687,07	40,178
687,26	40,878
687,44	38,747
687,62	39,086
687,81	39,793
687,99	37,468
688,18	38,759
688,36	40,108
688,55	40,031
688,73	41,810
688,92	37,041
689,10	39,660
689,29	40,658
689,47	42,219
689,66	39,473
689,84	39,235
690,03	38,345
690,21	40,503
690,40	39,967
690,58	38,224
690,76	39,949
690,95	40,603
691,13	39,854
691,32	41,727
691,50	41,007
691,69	40,458
691,87	40,001
692,06	38,286
692,24	38,703
692,43	40,257
692,61	38,151
692,79	39,386
692,98	38,357
693,16	41,935
693,35	39,458
693,53	39,241
693,72	40,347
693,90	41,623
694,08	40,630
694,27	38,993
694,45	43,505
694,64	42,811
694,82	39,556
695,01	38,939
695,19	41,335
695,37	40,494
695,56	40,212
695,74	42,091
695,93	41,600
696,11	41,019
696,29	40,639
696,48	41,721
696,66	42,998
696,85	41,941
697,03	38,569
697,21	41,879
697,40	40,086
697,58	40,643
697,77	40,636
697,95	41,378
698,13	41,965
698,32	40,407
698,50	41,318
698,69	39,623
698,87	41,857
699,05	40,131
699,24	39,715
699,42	41,120
699,60	38,283
699,79	40,949
699,97	41,202
700,16	38,314
700,34	42,260
700,52	42,163
700,71	40,864
700,89	39,665
701,07	41,263
701,26	42,411
701,44	40,245
701,63	38,801
701,81	42,960
701,99	41,753
702,18	39,441
702,36	39,845
702,54	40,736
702,73	42,202
702,91	41,223
703,09	39,018
703,28	40,002
703,46	41,464
703,64	40,347
703,83	42,132
704,01	41,306
704,19	40,063
704,38	38,638
704,56	39,910
704,74	41,467
704,93	41,299
705,11	41,943
705,29	42,546
705,48	42,977
705,66	40,814
705,84	40,004
706,03	39,393
706,21	40,707
706,39	39,210
706,58	40,082
706,76	38,097
706,94	41,125
707,12	40,523
707,31	39,540
707,49	39,205
707,67	42,180
707,86	42,820
708,04	40,320
708,22	38,097
708,41	40,118
708,59	40,739
708,77	38,606
708,95	42,159
709,14	43,092
709,32	40,712
709,50	38,674
709,69	38,307
709,87	40,218
710,05	41,641
710,23	40,344
710,42	38,961
710,60	40,660
710,78	40,806
710,97	40,492
711,15	39,663
711,33	41,791
711,51	39,676
711,70	37,543
711,88	39,080
712,06	41,951
712,24	39,297
712,43	41,737
712,61	39,250
712,79	42,115
712,97	39,313
713,16	42,597
713,34	39,976
713,52	41,581
713,70	40,844
713,89	40,832
714,07	40,368
714,25	41,781
714,43	43,829
714,62	39,935
714,80	40,323
714,98	38,675
715,16	41,125
715,35	40,364
715,53	38,845
715,71	42,140
715,89	43,543
716,07	42,239
716,26	44,130
716,44	41,303
716,62	41,343
716,80	42,069
716,99	41,980
717,17	40,870
717,35	37,316
717,53	41,344
717,71	39,872
717,90	41,392
718,08	38,795
718,26	37,844
718,44	42,841
718,62	43,624
718,81	41,874
718,99	40,572
719,17	40,690
719,35	41,618
719,53	40,632
719,72	40,417
719,90	42,097
720,08	40,680
720,26	41,719
720,44	37,959
720,62	40,607
720,81	40,871
720,99	44,385
721,17	39,842
721,35	42,834
721,53	41,562
721,72	42,318
721,90	41,529
722,08	40,703
722,26	40,034
722,44	40,969
722,62	40,946
722,81	40,306
722,99	40,066
723,17	40,603
723,35	41,308
723,53	40,338
723,71	41,631
723,89	42,767
724,08	39,756
724,26	41,564
724,44	41,174
724,62	43,156
724,80	40,496
724,98	41,783
725,16	43,268
725,35	39,631
725,53	39,930
725,71	40,182
725,89	41,759
726,07	44,064
726,25	44,062
726,43	41,988
726,61	41,826
726,80	42,192
726,98	40,571
727,16	40,385
727,34	41,500
727,52	40,178
727,70	39,623
727,88	39,663
728,06	38,617
728,25	40,516
728,43	40,329
728,61	40,754
728,79	41,339
728,97	41,005
729,15	40,857
729,33	43,515
729,51	39,593
729,69	42,849
729,87	41,807
730,06	42,824
730,24	41,408
730,42	43,023
730,60	39,927
730,78	42,863
730,96	41,743
731,14	43,453
731,32	41,568
731,50	38,504
731,68	41,406
731,86	39,663
732,04	42,586
732,22	42,199
732,41	44,945
732,59	42,856
732,77	42,625
732,95	42,811
733,13	41,695
733,31	42,283
733,49	41,601
733,67	41,241
733,85	41,127
734,03	41,559
734,21	40,878
734,39	40,629
734,57	41,165
734,75	42,179
734,93	39,453
735,11	40,673
735,29	38,817
735,47	43,886
735,65	42,778
735,84	40,970
736,02	42,507
736,20	42,470
736,38	41,506
736,56	41,106
736,74	43,223
736,92	41,923
737,10	40,590
737,28	42,970
737,46	41,632
737,64	43,182
737,82	41,420
738,00	42,752
738,18	41,214
738,36	42,825
738,54	41,696
738,72	41,647
738,90	39,357
739,08	41,190
739,26	39,265
739,44	42,117
739,62	42,231
739,80	43,289
739,98	41,483
740,16	40,414
740,34	41,244
740,52	42,924
740,70	39,785
740,88	38,750
741,06	40,942
741,24	40,913
741,42	42,974
741,60	39,822
741,78	42,539
741,96	42,100
742,14	41,748
742,32	41,172
742,50	41,241
742,68	40,087
742,86	40,963
743,04	42,277
743,21	41,676
743,39	41,687
743,57	40,559
743,75	41,692
743,93	39,690
744,11	38,326
744,29	40,367
744,47	40,063
744,65	39,330
744,83	39,452
745,01	40,305
745,19	41,395
745,37	43,694
745,55	42,294
745,73	41,948
745,91	42,253
746,09	40,485
746,27	41,078
746,45	38,273
746,62	41,097
746,80	40,478
746,98	40,845
747,16	39,548
747,34	41,971
747,52	41,810
747,70	40,067
747,88	42,390
748,06	40,692
748,24	41,348
748,42	41,846
748,60	41,671
748,78	39,951
748,95	42,221
749,13	43,615
749,31	41,652
749,49	40,623
749,67	40,824
749,85	42,893
750,03	39,343
750,21	41,101
750,39	41,041
750,57	42,052
750,74	41,178
750,92	40,877
751,10	43,753
751,28	39,831
751,46	41,085
751,64	41,553
751,82	41,554
752,00	41,873
752,17	41,295
752,35	40,584
752,53	41,610
752,71	42,835
752,89	41,278
753,07	41,250
753,25	42,752
753,43	40,479
753,60	43,068
753,78	38,827
753,96	43,085
754,14	40,528
754,32	40,024
754,50	42,064
754,68	43,011
754,85	43,798
755,03	42,463
755,21	43,733
755,39	44,413
755,57	41,546
755,75	41,469
755,92	40,179
756,10	42,645
756,28	42,978
756,46	40,135
756,64	42,464
756,82	39,445
756,99	42,076
757,17	39,802
757,35	39,305
757,53	44,557
757,71	44,507
757,89	41,492
758,06	43,648
758,24	41,187
758,42	40,496
758,60	41,282
758,78	41,014
758,95	42,993
759,13	41,644
759,31	40,358
759,49	39,382
759,67	41,276
759,84	42,246
760,02	42,802
760,20	41,836
760,38	42,150
760,56	41,385
760,73	42,259
760,91	42,293
761,09	42,180
761,27	41,148
761,45	41,841
761,62	41,266
761,80	42,724
761,98	42,602
762,16	40,462
762,33	40,423
762,51	44,598
762,69	40,305
762,87	39,553
763,05	43,322
763,22	41,616
763,40	40,896
763,58	40,856
763,76	42,142
763,93	43,394
764,11	41,342
764,29	42,825
764,47	42,027
764,64	40,464
764,82	43,391
765,00	39,665
765,18	39,471
765,35	39,749
765,53	41,822
765,71	41,189
765,89	40,770
766,06	38,993
766,24	41,809
766,42	40,961
766,60	40,396
766,77	40,849
766,95	40,159
767,13	41,061
767,30	41,462
767,48	41,022
767,66	40,901
767,84	41,155
768,01	41,316
768,19	40,293
768,37	41,714
768,54	40,528
768,72	43,394
768,90	41,487
769,08	41,466
769,25	41,740
769,43	40,072
769,61	40,436
769,78	40,567
769,96	41,059
770,14	42,822
770,31	43,292
770,49	43,314
770,67	42,283
770,85	40,355
771,02	42,040
771,20	41,557
771,38	41,898
771,55	39,113
771,73	39,216
771,91	44,045
772,08	43,466
772,26	39,791
772,44	41,941
772,61	41,559
772,79	40,908
772,97	43,229
773,14	40,990
773,32	44,182
773,50	39,425
773,67	42,405
773,85	41,274
774,03	41,865
774,20	42,387
774,38	41,043
774,56	39,561
774,73	41,450
774,91	39,353
775,09	40,100
775,26	41,458
775,44	41,942
775,61	40,610
775,79	40,204
775,97	42,788
776,14	41,519
776,32	40,378
776,50	40,516
776,67	41,479
776,85	41,826
777,03	41,523
777,20	41,847
777,38	41,575
777,55	42,407
777,73	39,718
777,91	41,434
778,08	41,567
778,26	40,408
778,43	41,706
778,61	37,200
778,79	41,388
778,96	39,940
779,14	39,203
779,32	42,164
779,49	41,906
779,67	43,126
779,84	45,628
780,02	38,141
780,20	37,757
780,37	40,758
780,55	36,795
780,72	43,061
780,90	43,221
781,07	41,956
781,25	41,869
781,43	42,948
781,60	42,381
781,78	42,185
781,95	42,856
782,13	42,695
782,30	41,743
782,48	42,984
782,66	40,143
782,83	38,802
783,01	43,134
783,18	43,006
783,36	41,165
783,53	40,708
783,71	42,807
783,89	40,437
784,06	42,120
784,24	41,138
784,41	45,747
784,59	42,471
784,76	42,183
784,94	39,439
785,11	41,419
785,29	39,341
785,46	42,866
785,64	40,823
785,82	42,061
785,99	42,701
786,17	39,298
786,34	40,729
786,52	44,238
786,69	44,228
786,87	39,187
787,04	43,062
787,22	39,229
787,39	42,445
787,57	44,248
787,74	44,366
787,92	43,956
788,09	40,852
788,27	43,568
788,44	41,634
788,62	42,134
788,79	42,886
788,97	43,900
789,14	43,175
789,32	40,666
789,49	40,689
789,67	39,726
789,84	42,990
790,02	42,438
790,19	41,366
790,37	42,643
790,54	43,630
790,72	45,193
790,89	46,056
791,07	44,174
791,24	40,685
791,42	43,698
791,59	45,015
791,77	41,385
791,94	41,591
792,12	42,795
792,29	42,157
792,47	45,155
792,64	44,496
792,81	45,420
792,99	41,684
793,16	44,269
793,34	44,771
793,51	42,581
793,69	43,070
793,86	38,939
794,04	41,399
794,21	46,212
794,39	39,290
794,56	41,440
794,73	42,013
794,91	45,991
795,08	43,129
795,26	45,101
795,43	44,235
795,61	43,818
795,78	44,549
795,95	45,618
796,13	42,777
796,30	43,605
796,48	40,867
796,65	43,391
796,83	43,898
797,00	47,769
797,17	42,379
797,35	42,292
797,52	41,752
797,70	47,411
797,87	42,572
798,04	40,421
798,22	44,893
798,39	43,378
798,57	42,931
798,74	42,509
798,91	41,041
799,09	41,026
799,26	45,058
799,44	41,454
799,61	41,647
799,78	45,338
799,96	43,722
800,13	42,243
800,31	40,729
800,48	47,718
800,65	44,476
800,83	42,802
801,00	41,466
801,17	43,645
801,35	43,021
801,52	43,601
801,70	41,549
801,87	42,569
802,04	45,465
802,22	39,268
802,39	43,602
802,56	44,560
802,74	45,556
802,91	44,915
803,08	41,174
803,26	46,204
803,43	45,616
803,61	42,248
803,78	42,707
803,95	44,884
804,13	46,349
804,30	40,694
804,47	43,149
804,65	42,082
804,82	44,853
804,99	39,729
805,17	43,754
805,34	41,146
805,51	51,433
805,69	39,311
805,86	42,855
806,03	50,633
806,21	47,205
806,38	41,874
806,55	46,654
806,72	50,679
806,90	45,328
807,07	46,432
807,24	44,439
807,42	41,105
807,59	42,957
807,76	41,288
807,94	45,834
808,11	42,902
808,28	47,659
808,45	44,766
808,63	44,595
808,80	45,697
808,97	45,767
809,15	42,745
809,32	47,061
809,49	40,138
809,67	41,366
809,84	45,392
810,01	45,350
810,18	51,980
810,36	48,054
810,53	43,849
810,70	45,554
810,87	47,190
811,05	42,328
811,22	46,026
811,39	46,480
811,57	46,962
811,74	47,425
811,91	44,161
812,08	43,785
812,26	45,852
812,43	41,224
812,60	47,422
812,77	44,269
812,95	49,096
813,12	48,742
813,29	41,889
813,46	43,118
813,64	45,489
813,81	42,558
813,98	41,528
814,15	45,009
814,32	48,932
814,50	49,015
814,67	46,085
814,84	47,804
815,01	43,972
815,19	36,839
815,36	42,304
815,53	45,061
815,70	44,171
815,87	47,216
816,05	41,063
816,22	46,111
816,39	53,815
816,56	52,315
816,74	48,636
816,91	46,370
817,08	54,144
817,25	49,520
817,42	47,042
817,60	46,481
817,77	43,196
817,94	49,089
818,11	46,688
818,28	51,278
818,45	49,028
818,63	45,789
818,80	44,858
818,97	44,311
819,14	51,106
819,31	49,474
819,49	47,327
819,66	40,240
819,83	47,874
820,00	53,186
820,17	42,446
820,34	49,832
820,52	48,027
820,69	49,725
820,86	50,758
821,03	43,972
821,20	51,450
821,37	52,032
821,55	42,179
821,72	45,771
821,89	46,937
822,06	47,509
822,23	44,983
822,40	44,509
822,57	45,444
822,75	53,206
822,92	44,656
823,09	45,694
823,26	52,303
823,43	52,059
823,60	46,138
823,77	43,579
823,94	47,198
824,12	49,977
824,29	44,589
824,46	43,773
824,63	55,432
824,80	52,449
824,97	42,257
825,14	51,701
825,31	49,291
825,49	44,151
825,66	47,863
825,83	44,774
826,00	47,610
826,17	55,242
826,34	47,899
826,51	45,571
826,68	44,299
826,85	51,978
827,02	49,604
827,20	46,972
827,37	47,067
827,54	51,941
827,71	50,515
827,88	49,070
828,05	52,343
828,22	46,271
828,39	51,645
828,56	49,482
828,73	48,808
828,90	47,412
829,07	41,554
829,25	46,998
829,42	54,020
829,59	46,109
829,76	46,220
829,93	45,760
830,10	50,478
830,27	46,626
830,44	49,082
830,61	51,550
830,78	60,181
830,95	48,944
831,12	47,078
831,29	47,144
831,46	46,826
831,63	43,070
831,80	48,113
831,97	42,398
832,14	58,675
832,31	61,772
832,48	44,009
832,65	56,501
832,83	52,129
833,00	55,231
833,17	50,631
833,34	47,411
833,51	53,504
833,68	48,723
833,85	57,452
834,02	38,583
834,19	45,854
834,36	51,643
834,53	47,136
834,70	47,134
834,87	61,251
835,04	50,673
835,21	54,290
835,38	46,371
835,55	49,188
835,72	60,741
835,89	51,473
836,06	44,800
836,23	58,772
836,40	42,326
836,57	49,291
836,74	53,658
836,91	51,142
837,08	56,707
837,25	48,281
837,42	38,938
837,59	48,556
837,76	50,924
837,93	48,143
838,09	43,851
838,26	55,029
838,43	56,820
838,60	44,657
838,77	50,629
838,94	55,498
839,11	45,675
839,28	46,039
839,45	47,565
839,62	55,095
839,79	50,980
839,96	52,682
840,13	49,613
840,30	47,378
840,47	43,034
840,64	43,898
840,81	53,086
840,98	49,502
841,15	64,906
841,32	39,728
841,48	53,446
841,65	51,509
841,82	48,741
841,99	54,778
842,16	48,709
842,33	56,162
842,50	48,219
842,67	52,814
842,84	46,756
843,01	50,447
843,18	52,095
843,35	41,194
843,52	51,017
843,68	53,704
843,85	50,931
844,02	52,280
844,19	48,924
844,36	68,854
844,53	57,774
844,70	50,706
844,87	54,862
845,04	64,423
845,21	42,721
845,37	57,153
845,54	49,271
845,71	51,477
845,88	64,078
846,05	49,471
846,22	45,581
846,39	61,007
846,56	58,007
846,72	34,412
846,89	48,511
847,06	59,163
847,23	56,969
847,40	46,281
847,57	42,230
847,74	52,456
847,90	67,415
848,07	59,346
848,24	49,359
848,41	56,906
848,58	58,432
848,75	57,050
848,92	47,388
849,08	56,788
849,25	57,466
849,42	40,288
849,59	51,055
849,76	52,158
849,93	41,774
850,09	54,633
850,26	39,056
850,43	62,210
850,60	58,844
850,77	48,491
850,94	57,311
851,10	55,487
851,27	53,199
851,44	48,527
851,61	37,840
851,78	66,123
851,95	68,192
852,11	37,059
852,28	42,466
852,45	58,976
852,62	60,548
852,79	49,205
852,95	49,278
853,12	64,245
853,29	49,170
853,46	55,539
853,63	55,531
853,79	50,154
853,96	51,792
854,13	68,381
854,30	59,100
854,46	75,878
854,63	71,320
854,80	60,447
854,97	50,448
855,14	65,196
855,30	63,546
855,47	54,155
855,64	50,190
855,81	55,673
855,97	66,506
856,14	61,128
856,31	50,124
856,48	60,807
856,65	69,311
856,81	55,092
856,98	56,015
857,15	58,220
857,32	62,686
857,48	40,145
857,65	54,598
857,82	67,780
857,99	57,364
858,15	55,376
858,32	46,623
858,49	54,239
858,65	85,692
858,82	63,541
858,99	55,521
859,16	51,273
859,32	62,621
859,49	56,497
859,66	42,413
859,83	42,615
859,99	46,151
860,16	55,860
860,33	50,886
860,49	57,026
860,66	67,635
860,83	53,128
861,00	63,580
861,16	68,804
861,33	68,681
861,50	48,396
861,66	57,996
861,83	94,490
862,00	66,836
862,16	75,209
862,33	53,808
862,50	85,834
862,67	49,853
862,83	46,577
863,00	70,109
863,17	92,154
863,33	66,648
863,50	45,822
863,67	46,560
863,83	63,679
864,00	68,540
864,17	41,642
864,33	52,941
864,50	67,958
864,67	47,066
864,83	52,253
865,00	42,256
865,17	53,915
865,33	74,538
865,50	45,386
865,67	44,785
865,83	53,037
866,00	94,448
866,17	65,142
866,33	57,436
866,50	89,340
866,66	59,777
866,83	73,010
867,00	66,116
867,16	96,901
867,33	78,681
867,50	33,448
867,66	46,117
867,83	87,883
868,00	54,558
868,16	46,703
868,33	65,181
868,49	71,039
868,66	68,555
868,83	58,117
868,99	62,211
869,16	79,837
869,32	75,286
869,49	55,481
869,66	43,721
869,82	83,127
869,99	98,765
870,15	46,278
870,32	70,098
870,49	74,267
870,65	111,988
870,82	75,121
870,98	72,518
871,15	93,463
871,32	66,351
871,48	28,717
871,65	31,198
871,81	59,851
871,98	44,274
872,15	49,202
872,31	46,741
872,48	117,614
872,64	58,145
872,81	56,534
872,97	59,532
873,14	108,312
873,31	69,801
873,47	40,823
873,64	79,583
873,80	110,917
873,97	121,971
874,13	51,623
874,30	81,249
874,46	68,870
874,63	66,333
874,80	70,040
874,96	59,640
875,13	121,480
875,29	63,709
875,46	110,676
875,62	36,076
875,79	89,324
875,95	83,509
876,12	72,382
876,28	38,206
876,45	107,317
876,61	91,305
876,78	62,621
876,94	52,250
877,11	80,504
877,27	96,800
877,44	95,157
877,60	71,947
877,77	73,025
877,94	113,111
878,10	96,005
878,27	66,265
878,43	130,768
878,60	65,722
878,76	52,547
878,93	37,769
879,09	117,318
879,26	129,115
879,42	92,289
879,58	51,970
879,75	106,686
879,91	118,764
880,08	17,372
880,24	59,740
880,41	95,107
880,57	93,056
880,74	38,362
880,90	104,652
881,07	83,357
881,23	91,521
881,40	62,549
881,56	63,933
881,73	95,554
881,89	98,614
882,06	73,561
882,22	162,179
882,38	157,046
882,55	136,441
882,71	77,898
882,88	69,269
883,04	88,449
883,21	165,689
883,37	78,449
883,54	72,813
883,70	256,805
883,86	128,158
884,03	56,212
884,19	48,036
884,36	34,896
884,52	81,190
884,69	73,699
884,85	59,436
885,01	250,263
885,18	125,336
885,34	134,617
885,51	-2,129
885,67	99,484
>>>>> Data<<<<< Espectral Procesado Extremo
