Fichero De Datos De SpectraSuite
++++++++++++++++++++++++++++++++++++
Fecha: Wed Apr 22 11:18:13 CEST 2009
Usuario: evoflor
Presente Oscuro Del Espectro: Sí
La Referencia de Presente Del Espectro De: Sí
Muestreados de los componentes de Número de espectros: 1
Espectrómetros: USB4F02353
Tiempo de integración (usec): 500000 (USB4F02353)
Promedio de Espectros Hechos un: 5 (USB4F02353)
El Alisar Del Furgón: 0 (USB4F02353)
Párrafo de de Corregir del la del del de Eléctrica del obscuridad: Sí (USB4F02353)
Estrobo/Lámpara Permitido: No (USB4F02353)
Correct for Detector Non-linearity: No (USB4F02353)
Párrafo de de Corregir del la del del de Externa del luz: No (USB4F02353)
Procesado del espectro de Número de pixeles en: 3648
>>>>> Comienza Data<<<<< Espectral Procesado Del EL
177,79	242,355
178,00	242,355
178,22	242,355
178,44	1354,945
178,66	-95,491
178,88	140,717
179,09	-99,574
179,31	67,304
179,53	423,529
179,75	284,639
179,96	690,517
180,18	-66,462
180,40	266,561
180,62	386,737
180,83	-211,983
181,05	-1075,610
181,27	-87300,000
181,49	-25,435
181,70	145,385
181,92	712,690
182,14	498,795
182,36	68,834
182,58	-495,000
182,79	739,286
183,01	-5,422
183,23	214,985
183,45	66,462
183,66	151,327
183,88	354,706
184,10	-1898,182
184,32	242,822
184,53	231,503
184,75	-132,021
184,97	-0,799
185,18	-160,714
185,40	-592,788
185,62	126,735
185,84	1,965
186,05	165,978
186,27	-83,231
186,49	3253,846
186,71	-55,803
186,92	148,005
187,14	-164,697
187,36	155,693
187,58	31,765
187,79	-87,538
188,01	335,240
188,23	-12,784
188,45	-5,788
188,66	229,018
188,88	-2470,909
189,10	-1530,000
189,31	-156,655
189,53	152,737
189,75	267,955
189,97	-10,385
190,18	251,073
190,40	259,412
190,62	-4,534
190,83	-393,969
191,05	243,243
191,27	298,286
191,49	394,307
191,70	-385,096
191,92	-68,644
192,14	-11,989
192,35	386,737
192,57	4191,429
192,79	-21,199
193,01	97,899
193,22	137,303
193,44	-95,222
193,66	147,476
193,87	17,345
194,09	-35,256
194,31	207,692
194,53	818,182
194,74	-8,710
194,96	85,166
195,18	166,354
195,39	-54,617
195,61	-88,349
195,83	-183,913
196,04	127,630
196,26	-610,553
196,48	23,566
196,70	198,608
196,91	35,660
197,13	91,139
197,35	4,553
197,56	479,257
197,78	1611,940
198,00	465,734
198,21	314,563
198,43	-779,651
198,65	136,654
198,86	246,043
199,08	168,197
199,30	136,640
199,51	-504,235
199,73	98,859
199,95	51,238
200,16	768,462
200,38	316,692
200,60	169,472
200,81	289,079
201,03	134,511
201,25	-1782,000
201,46	170,341
201,68	99,246
201,90	1677,273
202,11	34,351
202,33	216,517
202,55	-1226,250
202,76	-87,529
202,98	125,436
203,20	-419,712
203,41	-345,789
203,63	147,732
203,85	-117000,000
204,06	85,615
204,28	-151,807
204,50	175,610
204,71	267,138
204,93	-540,000
205,15	225,000
205,36	-254,685
205,58	234,933
205,80	-90,161
206,01	84,041
206,23	140,125
206,45	197,603
206,66	140,857
206,88	-81,681
207,10	171,818
207,31	294,437
207,53	223,714
207,75	29,067
207,96	644,776
208,18	-29,181
208,39	62,959
208,61	3188,571
208,83	-444,861
209,04	171,520
209,26	-373,272
209,48	288,072
209,69	110,323
209,91	544,257
210,13	16,679
210,34	106,780
210,56	137,040
210,77	-1622,835
210,99	28,600
211,21	6458,824
211,42	-198,394
211,64	-2,974
211,86	272,504
212,07	241,908
212,29	185,294
212,50	99,615
212,72	470,769
212,94	184,413
213,15	202,342
213,37	175,552
213,58	-173,614
213,80	-1317,857
214,02	17311,765
214,23	404,015
214,45	115,082
214,67	-680,488
214,88	-450,000
215,10	-205,986
215,31	37,336
215,53	-81,818
215,75	233,217
215,96	1665,839
216,18	-722,535
216,39	261,613
216,61	220,087
216,83	132,589
217,04	1496,629
217,26	26,129
217,47	131,760
217,69	221,246
217,91	99,742
218,12	-69300,000
218,34	69,151
218,55	412,997
218,77	68,295
218,99	90,180
219,20	-166,043
219,42	400,610
219,63	-74,840
219,85	-114,840
220,06	-38,077
220,28	114,515
220,50	44,374
220,71	135,966
220,93	2258,491
221,14	-2088,000
221,36	5,163
221,58	-54,000
221,79	37,046
222,01	1101,724
222,22	686,842
222,44	10,112
222,65	95,248
222,87	1051,049
223,09	114,986
223,30	43,788
223,52	117,659
223,73	260,109
223,95	-83,662
224,16	137,320
224,38	332,701
224,60	54,588
224,81	114,849
225,03	98,128
225,24	81,698
225,46	119,601
225,67	-21,695
225,89	23,560
226,10	409,337
226,32	468,000
226,54	46,361
226,75	35,092
226,97	125,567
227,18	146,002
227,40	55,215
227,61	61,916
227,83	43,959
228,04	61,245
228,26	47,220
228,47	41,040
228,69	130,593
228,91	75,968
229,12	65,854
229,34	29,278
229,55	33,735
229,77	21,001
229,98	-7,771
230,20	64,984
230,41	2,383
230,63	67,408
230,84	38,830
231,06	24,509
231,27	-1,103
231,49	41,118
231,71	31,240
231,92	21,453
232,14	8,709
232,35	99,603
232,57	16,269
232,78	11,347
233,00	37,921
233,21	28,178
233,43	0,492
233,64	19,207
233,86	27,903
234,07	5,151
234,29	17,301
234,50	26,642
234,72	41,142
234,93	12,323
235,15	17,757
235,36	23,514
235,58	14,680
235,79	52,225
236,01	9,651
236,22	16,137
236,44	41,533
236,65	32,137
236,87	18,902
237,08	2,143
237,30	-4,072
237,51	25,442
237,73	-6,422
237,94	-0,401
238,16	13,114
238,37	11,882
238,59	17,879
238,80	9,440
239,02	-3,735
239,23	9,490
239,45	-0,977
239,66	17,165
239,88	20,813
240,09	11,994
240,31	3,202
240,52	8,909
240,74	16,110
240,95	2,929
241,17	-2,948
241,38	6,269
241,60	9,584
241,81	22,594
242,03	2,781
242,24	12,964
242,46	16,953
242,67	1,256
242,89	12,865
243,10	16,837
243,32	12,095
243,53	12,798
243,75	9,259
243,96	8,322
244,18	12,738
244,39	11,373
244,60	8,334
244,82	9,085
245,03	19,765
245,25	4,254
245,46	21,288
245,68	6,140
245,89	16,303
246,11	14,709
246,32	6,826
246,54	6,239
246,75	4,892
246,97	10,118
247,18	21,175
247,39	7,012
247,61	3,321
247,82	-1,747
248,04	2,822
248,25	4,961
248,47	7,719
248,68	8,076
248,90	-0,119
249,11	11,141
249,33	16,125
249,54	12,612
249,75	8,613
249,97	2,337
250,18	12,778
250,40	14,819
250,61	-1,599
250,83	2,826
251,04	0,115
251,25	9,052
251,47	-2,163
251,68	10,655
251,90	13,464
252,11	7,392
252,33	1,975
252,54	6,739
252,76	4,424
252,97	1,952
253,18	0,972
253,40	6,195
253,61	1,093
253,83	8,492
254,04	11,066
254,25	5,970
254,47	1,731
254,68	4,060
254,90	3,906
255,11	8,163
255,33	5,845
255,54	3,989
255,75	3,535
255,97	5,536
256,18	3,038
256,40	6,627
256,61	7,597
256,82	0,458
257,04	9,846
257,25	3,006
257,47	6,708
257,68	6,140
257,89	6,166
258,11	8,899
258,32	7,066
258,54	7,499
258,75	10,615
258,96	12,387
259,18	4,234
259,39	0,859
259,61	6,597
259,82	3,336
260,03	8,086
260,25	5,464
260,46	3,727
260,68	5,338
260,89	5,200
261,10	1,943
261,32	6,492
261,53	5,699
261,75	7,072
261,96	-0,873
262,17	9,437
262,39	11,286
262,60	2,400
262,81	-0,208
263,03	7,169
263,24	7,116
263,46	-0,246
263,67	6,159
263,88	7,806
264,10	6,599
264,31	0,083
264,52	5,905
264,74	3,246
264,95	2,769
265,17	5,808
265,38	3,618
265,59	9,165
265,81	6,386
266,02	0,518
266,23	-0,959
266,45	10,675
266,66	9,679
266,87	5,433
267,09	3,739
267,30	7,905
267,52	3,666
267,73	4,575
267,94	3,866
268,16	7,127
268,37	3,956
268,58	4,713
268,80	2,541
269,01	5,433
269,22	2,195
269,44	4,946
269,65	5,709
269,86	3,802
270,08	6,293
270,29	1,779
270,50	5,332
270,72	8,008
270,93	3,289
271,14	2,630
271,36	4,549
271,57	6,071
271,78	-0,075
272,00	5,248
272,21	4,144
272,42	6,936
272,64	9,114
272,85	4,289
273,06	3,932
273,28	6,556
273,49	6,315
273,70	5,263
273,92	5,378
274,13	4,109
274,34	3,181
274,56	4,460
274,77	3,275
274,98	6,415
275,20	5,562
275,41	5,743
275,62	7,265
275,84	2,211
276,05	10,806
276,26	1,622
276,47	-0,283
276,69	7,094
276,90	5,417
277,11	2,887
277,33	2,289
277,54	4,699
277,75	3,092
277,97	1,235
278,18	6,383
278,39	7,309
278,61	3,806
278,82	4,535
279,03	5,775
279,24	4,074
279,46	6,117
279,67	5,348
279,88	3,600
280,10	8,358
280,31	-0,259
280,52	3,066
280,73	-0,593
280,95	9,652
281,16	3,558
281,37	4,406
281,59	9,793
281,80	9,125
282,01	2,210
282,22	3,489
282,44	3,038
282,65	7,376
282,86	7,396
283,08	4,746
283,29	3,380
283,50	3,605
283,71	5,012
283,93	4,638
284,14	8,817
284,35	0,567
284,56	3,702
284,78	0,765
284,99	6,277
285,20	4,380
285,42	5,925
285,63	4,792
285,84	0,246
286,05	2,982
286,27	4,263
286,48	2,945
286,69	3,069
286,90	5,317
287,12	3,670
287,33	2,830
287,54	1,619
287,75	5,165
287,97	7,401
288,18	2,255
288,39	2,402
288,60	3,550
288,82	4,821
289,03	3,691
289,24	3,713
289,45	7,771
289,67	5,152
289,88	1,676
290,09	3,458
290,30	4,307
290,52	3,711
290,73	4,011
290,94	0,467
291,15	5,117
291,37	4,548
291,58	2,627
291,79	3,816
292,00	3,997
292,21	5,789
292,43	5,107
292,64	0,742
292,85	0,429
293,06	4,946
293,28	-0,184
293,49	3,167
293,70	6,521
293,91	1,887
294,12	2,350
294,34	2,769
294,55	4,936
294,76	3,396
294,97	6,169
295,19	0,913
295,40	6,536
295,61	6,004
295,82	1,057
296,03	2,117
296,25	2,527
296,46	1,432
296,67	0,580
296,88	1,417
297,09	4,472
297,31	0,787
297,52	3,610
297,73	3,633
297,94	7,287
298,15	5,964
298,37	6,037
298,58	4,181
298,79	5,304
299,00	3,328
299,21	2,472
299,43	2,747
299,64	7,874
299,85	5,192
300,06	2,193
300,27	1,328
300,49	5,294
300,70	4,349
300,91	3,995
301,12	4,947
301,33	6,496
301,54	3,227
301,76	4,564
301,97	3,614
302,18	2,164
302,39	7,325
302,60	3,375
302,82	2,431
303,03	6,842
303,24	5,153
303,45	6,563
303,66	3,617
303,87	1,977
304,09	6,984
304,30	2,066
304,51	3,602
304,72	2,780
304,93	6,124
305,14	5,291
305,36	1,244
305,57	1,456
305,78	4,420
305,99	1,481
306,20	4,146
306,41	2,807
306,62	3,657
306,84	4,239
307,05	1,738
307,26	2,841
307,47	4,518
307,68	2,867
307,89	1,856
308,11	6,779
308,32	1,060
308,53	5,137
308,74	0,714
308,95	3,118
309,16	6,809
309,37	5,917
309,59	2,778
309,80	4,379
310,01	6,006
310,22	5,401
310,43	2,875
310,64	4,416
310,85	5,256
311,06	2,597
311,28	4,199
311,49	4,454
311,70	7,060
311,91	1,298
312,12	2,535
312,33	6,238
312,54	4,295
312,75	2,390
312,97	3,364
313,18	5,035
313,39	2,873
313,60	5,373
313,81	2,957
314,02	6,190
314,23	3,978
314,44	2,265
314,65	2,901
314,87	0,476
315,08	3,448
315,29	5,817
315,50	5,538
315,71	7,220
315,92	6,279
316,13	4,602
316,34	5,939
316,55	4,766
316,77	2,725
316,98	2,932
317,19	3,963
317,40	3,891
317,61	7,451
317,82	2,157
318,03	2,705
318,24	3,908
318,45	8,206
318,66	3,208
318,87	0,880
319,09	4,902
319,30	2,406
319,51	4,891
319,72	6,068
319,93	2,643
320,14	4,821
320,35	4,127
320,56	1,490
320,77	2,487
320,98	5,266
321,19	4,812
321,40	4,864
321,62	4,303
321,83	0,555
322,04	3,805
322,25	3,356
322,46	6,333
322,67	6,228
322,88	5,366
323,09	4,547
323,30	3,438
323,51	2,424
323,72	5,571
323,93	1,913
324,14	1,836
324,35	2,427
324,56	1,618
324,77	4,306
324,99	2,057
325,20	0,430
325,41	4,912
325,62	4,621
325,83	1,450
326,04	2,402
326,25	4,690
326,46	0,305
326,67	6,564
326,88	6,434
327,09	3,713
327,30	2,824
327,51	4,760
327,72	2,947
327,93	6,256
328,14	-0,823
328,35	3,679
328,56	5,128
328,77	5,102
328,98	6,538
329,19	4,144
329,40	7,771
329,61	4,941
329,82	1,213
330,04	3,321
330,25	5,072
330,46	4,218
330,67	3,441
330,88	3,548
331,09	6,407
331,30	1,300
331,51	5,109
331,72	4,481
331,93	8,444
332,14	2,391
332,35	4,883
332,56	3,833
332,77	5,706
332,98	3,389
333,19	2,260
333,40	4,310
333,61	3,368
333,82	4,612
334,03	2,402
334,24	5,733
334,45	4,933
334,66	7,195
334,87	5,117
335,08	0,450
335,29	3,896
335,50	2,169
335,71	1,731
335,92	6,191
336,13	3,875
336,34	2,524
336,55	4,427
336,76	6,182
336,97	3,307
337,18	-0,369
337,39	4,467
337,60	4,621
337,81	2,371
338,02	3,176
338,23	4,196
338,44	2,285
338,65	1,870
338,86	5,093
339,07	2,289
339,28	4,269
339,49	3,858
339,70	0,755
339,91	4,432
340,11	5,050
340,32	3,365
340,53	0,750
340,74	4,599
340,95	2,377
341,16	4,097
341,37	-0,163
341,58	1,273
341,79	5,356
342,00	2,959
342,21	3,147
342,42	2,531
342,63	4,060
342,84	-0,594
343,05	3,444
343,26	5,683
343,47	5,449
343,68	2,736
343,89	5,510
344,10	3,942
344,31	6,293
344,52	4,429
344,73	2,633
344,94	6,408
345,14	7,362
345,35	2,911
345,56	3,122
345,77	3,451
345,98	2,250
346,19	2,563
346,40	0,859
346,61	2,926
346,82	2,704
347,03	4,505
347,24	5,412
347,45	1,092
347,66	7,877
347,87	4,038
348,08	6,482
348,28	2,652
348,49	5,485
348,70	5,722
348,91	4,836
349,12	0,542
349,33	15,105
349,54	5,647
349,75	6,499
349,96	4,342
350,17	4,374
350,38	4,706
350,59	7,445
350,80	4,336
351,00	5,501
351,21	6,783
351,42	1,733
351,63	3,549
351,84	2,664
352,05	8,712
352,26	3,446
352,47	3,124
352,68	5,583
352,89	7,099
353,09	6,056
353,30	1,264
353,51	3,835
353,72	7,741
353,93	6,225
354,14	1,942
354,35	4,567
354,56	6,916
354,77	2,794
354,98	0,538
355,18	5,907
355,39	9,096
355,60	4,677
355,81	3,638
356,02	4,814
356,23	3,940
356,44	5,907
356,65	2,991
356,85	9,562
357,06	6,969
357,27	8,533
357,48	2,369
357,69	7,133
357,90	5,613
358,11	3,831
358,32	5,758
358,52	6,223
358,73	3,752
358,94	2,992
359,15	4,423
359,36	2,926
359,57	0,941
359,78	4,778
359,98	1,381
360,19	2,982
360,40	5,905
360,61	6,583
360,82	2,815
361,03	6,888
361,24	6,655
361,44	2,813
361,65	2,483
361,86	2,794
362,07	4,673
362,28	3,870
362,49	1,795
362,70	4,354
362,90	7,494
363,11	2,255
363,32	3,267
363,53	4,047
363,74	10,088
363,95	8,287
364,15	4,538
364,36	6,079
364,57	4,884
364,78	2,615
364,99	1,582
365,20	6,756
365,40	8,361
365,61	3,210
365,82	7,834
366,03	4,028
366,24	5,813
366,45	4,323
366,65	2,971
366,86	3,351
367,07	2,198
367,28	5,172
367,49	5,256
367,69	5,445
367,90	4,003
368,11	5,586
368,32	7,112
368,53	5,769
368,73	6,274
368,94	4,381
369,15	2,439
369,36	7,665
369,57	5,065
369,78	0,905
369,98	5,244
370,19	6,036
370,40	5,057
370,61	5,221
370,82	1,185
371,02	4,786
371,23	8,920
371,44	3,693
371,65	6,182
371,85	5,604
372,06	4,313
372,27	4,187
372,48	3,958
372,69	4,942
372,89	3,812
373,10	6,031
373,31	3,722
373,52	5,526
373,73	6,039
373,93	5,162
374,14	0,689
374,35	8,212
374,56	5,720
374,76	4,173
374,97	3,850
375,18	6,223
375,39	6,374
375,60	6,477
375,80	7,028
376,01	4,714
376,22	2,755
376,43	3,456
376,63	4,441
376,84	5,721
377,05	8,233
377,26	5,501
377,46	4,063
377,67	7,794
377,88	6,759
378,09	4,295
378,29	-0,390
378,50	7,563
378,71	9,767
378,92	3,108
379,12	5,484
379,33	5,879
379,54	5,916
379,75	8,062
379,95	5,002
380,16	5,695
380,37	8,181
380,58	3,747
380,78	8,720
380,99	2,983
381,20	5,026
381,41	7,250
381,61	8,431
381,82	7,317
382,03	8,794
382,24	7,850
382,44	7,476
382,65	6,156
382,86	6,033
383,06	4,740
383,27	3,643
383,48	4,437
383,69	7,819
383,89	9,250
384,10	10,435
384,31	7,237
384,51	7,378
384,72	7,651
384,93	8,813
385,14	9,192
385,34	9,432
385,55	3,797
385,76	7,246
385,96	13,025
386,17	9,703
386,38	12,047
386,59	10,290
386,79	9,020
387,00	13,451
387,21	12,317
387,41	7,610
387,62	9,300
387,83	13,826
388,03	10,719
388,24	6,063
388,45	11,714
388,66	9,684
388,86	10,940
389,07	8,765
389,28	13,994
389,48	10,629
389,69	10,785
389,90	9,735
390,10	11,840
390,31	14,120
390,52	6,107
390,72	8,614
390,93	11,933
391,14	13,174
391,34	10,506
391,55	14,720
391,76	18,475
391,96	13,493
392,17	13,268
392,38	14,039
392,58	14,272
392,79	11,172
393,00	10,781
393,20	13,635
393,41	13,257
393,62	15,526
393,82	16,396
394,03	15,388
394,24	13,600
394,44	19,116
394,65	14,859
394,86	15,953
395,06	19,210
395,27	15,657
395,48	13,963
395,68	16,003
395,89	18,145
396,10	21,353
396,30	16,087
396,51	14,560
396,72	24,826
396,92	16,094
397,13	19,838
397,34	15,857
397,54	24,454
397,75	20,953
397,95	14,668
398,16	16,673
398,37	20,903
398,57	20,171
398,78	22,509
398,99	23,743
399,19	21,436
399,40	23,548
399,60	18,373
399,81	21,750
400,02	25,338
400,22	24,207
400,43	20,353
400,64	23,470
400,84	22,915
401,05	26,242
401,25	25,694
401,46	26,586
401,67	25,250
401,87	25,590
402,08	21,432
402,29	23,945
402,49	28,968
402,70	27,851
402,90	18,487
403,11	22,929
403,32	30,829
403,52	26,696
403,73	27,654
403,93	28,457
404,14	30,768
404,35	25,521
404,55	29,735
404,76	28,308
404,96	31,188
405,17	29,981
405,38	29,984
405,58	25,699
405,79	33,822
405,99	30,933
406,20	28,054
406,40	25,166
406,61	34,199
406,82	33,153
407,02	33,982
407,23	31,861
407,43	28,929
407,64	31,296
407,85	31,649
408,05	28,593
408,26	39,105
408,46	36,280
408,67	29,816
408,87	32,467
409,08	35,014
409,29	40,381
409,49	35,014
409,70	39,020
409,90	38,211
410,11	37,293
410,31	34,996
410,52	35,090
410,72	34,326
410,93	38,726
411,14	35,789
411,34	31,769
411,55	38,552
411,75	40,418
411,96	39,545
412,16	39,653
412,37	38,010
412,57	39,648
412,78	36,010
412,99	37,549
413,19	41,145
413,40	39,858
413,60	36,055
413,81	37,266
414,01	39,896
414,22	39,586
414,42	42,605
414,63	37,827
414,83	42,663
415,04	44,111
415,24	41,148
415,45	39,418
415,65	41,234
415,86	45,964
416,07	41,668
416,27	40,901
416,48	42,249
416,68	44,848
416,89	39,774
417,09	41,233
417,30	48,789
417,50	40,266
417,71	47,192
417,91	46,485
418,12	40,411
418,32	43,392
418,53	39,342
418,73	41,294
418,94	43,133
419,14	41,269
419,35	38,689
419,55	47,965
419,76	45,234
419,96	44,515
420,17	42,203
420,37	45,553
420,58	47,047
420,78	45,473
420,99	44,069
421,19	44,613
421,40	44,807
421,60	51,189
421,81	41,794
422,01	49,693
422,22	46,095
422,42	50,038
422,63	46,108
422,83	47,247
423,04	46,485
423,24	50,916
423,45	47,176
423,65	45,949
423,86	47,945
424,06	48,080
424,27	43,067
424,47	44,931
424,67	45,237
424,88	45,272
425,08	45,572
425,29	54,875
425,49	49,461
425,70	45,081
425,90	50,020
426,11	44,515
426,31	48,110
426,52	46,227
426,72	46,639
426,93	46,511
427,13	50,434
427,33	46,720
427,54	47,991
427,74	49,245
427,95	56,112
428,15	48,522
428,36	50,120
428,56	47,014
428,77	49,074
428,97	47,078
429,18	52,641
429,38	47,599
429,58	53,516
429,79	48,620
429,99	46,390
430,20	45,444
430,40	53,550
430,61	44,188
430,81	48,911
431,01	50,019
431,22	52,357
431,42	51,924
431,63	44,416
431,83	47,740
432,04	49,083
432,24	51,793
432,44	50,444
432,65	44,851
432,85	47,924
433,06	48,040
433,26	45,096
433,47	45,197
433,67	43,176
433,87	43,927
434,08	44,912
434,28	42,969
434,49	46,943
434,69	51,271
434,89	44,138
435,10	46,016
435,30	50,164
435,51	45,553
435,71	46,673
435,91	46,316
436,12	49,825
436,32	49,601
436,53	46,759
436,73	49,257
436,93	52,251
437,14	50,236
437,34	48,368
437,55	49,694
437,75	50,218
437,95	49,729
438,16	48,008
438,36	48,586
438,57	48,435
438,77	48,186
438,97	50,874
439,18	55,248
439,38	49,276
439,58	48,859
439,79	49,582
439,99	48,511
440,20	50,533
440,40	54,968
440,60	51,316
440,81	52,115
441,01	48,106
441,21	52,945
441,42	50,815
441,62	54,739
441,83	50,452
442,03	54,694
442,23	50,579
442,44	52,645
442,64	51,544
442,84	46,657
443,05	48,727
443,25	46,282
443,45	47,159
443,66	49,635
443,86	48,173
444,06	49,472
444,27	47,307
444,47	46,782
444,67	45,749
444,88	52,174
445,08	49,099
445,28	49,125
445,49	45,385
445,69	49,286
445,90	51,828
446,10	52,933
446,30	47,959
446,51	52,154
446,71	53,358
446,91	54,025
447,12	55,971
447,32	45,964
447,52	50,329
447,72	56,785
447,93	51,493
448,13	48,135
448,33	53,602
448,54	54,724
448,74	49,694
448,94	52,204
449,15	55,839
449,35	48,755
449,55	51,197
449,76	56,221
449,96	55,249
450,16	54,530
450,37	50,141
450,57	49,350
450,77	50,141
450,98	55,268
451,18	52,596
451,38	50,859
451,58	52,562
451,79	50,544
451,99	50,930
452,19	49,277
452,40	54,398
452,60	48,109
452,80	51,336
453,00	55,369
453,21	52,673
453,41	57,350
453,61	52,241
453,82	51,506
454,02	49,538
454,22	54,820
454,42	53,977
454,63	52,038
454,83	52,250
455,03	55,635
455,24	54,576
455,44	49,163
455,64	51,677
455,84	50,130
456,05	49,815
456,25	49,023
456,45	51,619
456,65	54,499
456,86	49,382
457,06	52,482
457,26	56,069
457,47	55,446
457,67	51,193
457,87	50,213
458,07	51,362
458,28	52,908
458,48	58,166
458,68	49,196
458,88	56,471
459,09	50,759
459,29	60,154
459,49	51,722
459,69	51,103
459,90	55,816
460,10	48,858
460,30	53,290
460,50	50,999
460,71	51,491
460,91	45,442
461,11	50,467
461,31	46,018
461,52	56,548
461,72	57,342
461,92	52,681
462,12	60,175
462,32	50,064
462,53	48,596
462,73	49,581
462,93	52,261
463,13	50,646
463,34	52,041
463,54	55,194
463,74	53,571
463,94	48,415
464,14	51,704
464,35	47,660
464,55	53,962
464,75	54,450
464,95	52,636
465,16	47,398
465,36	55,758
465,56	49,551
465,76	52,677
465,96	52,383
466,17	51,358
466,37	48,449
466,57	53,811
466,77	52,331
466,97	51,725
467,18	52,995
467,38	54,819
467,58	50,786
467,78	56,182
467,98	55,405
468,19	53,564
468,39	55,133
468,59	53,603
468,79	54,991
468,99	49,132
469,19	50,002
469,40	54,511
469,60	45,691
469,80	53,184
470,00	52,752
470,20	54,991
470,41	48,337
470,61	51,630
470,81	52,655
471,01	50,918
471,21	52,908
471,41	51,511
471,62	52,434
471,82	49,766
472,02	52,858
472,22	49,108
472,42	50,894
472,62	54,701
472,83	54,780
473,03	53,308
473,23	51,730
473,43	51,792
473,63	53,290
473,83	54,639
474,03	49,269
474,24	56,723
474,44	50,297
474,64	49,920
474,84	53,971
475,04	52,573
475,24	50,978
475,45	49,192
475,65	51,949
475,85	53,671
476,05	48,180
476,25	47,903
476,45	51,629
476,65	55,337
476,85	48,832
477,06	50,047
477,26	48,909
477,46	51,065
477,66	50,658
477,86	50,681
478,06	48,295
478,26	54,045
478,46	50,887
478,67	50,984
478,87	50,314
479,07	48,175
479,27	54,176
479,47	50,542
479,67	44,926
479,87	48,829
480,07	46,486
480,28	50,928
480,48	49,932
480,68	48,521
480,88	56,585
481,08	48,212
481,28	49,605
481,48	51,387
481,68	51,392
481,88	47,775
482,08	49,888
482,29	53,087
482,49	46,803
482,69	50,203
482,89	48,663
483,09	51,188
483,29	49,112
483,49	48,709
483,69	48,530
483,89	48,116
484,09	46,926
484,29	46,994
484,50	50,874
484,70	49,979
484,90	47,790
485,10	48,005
485,30	51,005
485,50	51,798
485,70	49,725
485,90	46,219
486,10	47,524
486,30	47,342
486,50	47,354
486,70	45,236
486,90	48,418
487,10	51,164
487,30	47,612
487,51	50,697
487,71	45,524
487,91	44,471
488,11	47,999
488,31	44,798
488,51	49,723
488,71	47,965
488,91	50,384
489,11	46,439
489,31	47,370
489,51	46,487
489,71	48,714
489,91	48,194
490,11	46,388
490,31	46,838
490,51	48,864
490,71	49,347
490,91	44,848
491,11	49,661
491,31	48,765
491,51	46,267
491,72	48,143
491,92	47,611
492,12	49,434
492,32	49,022
492,52	51,025
492,72	49,309
492,92	49,921
493,12	48,353
493,32	44,901
493,52	44,622
493,72	48,145
493,92	50,369
494,12	47,082
494,32	49,336
494,52	47,496
494,72	48,467
494,92	47,315
495,12	50,045
495,32	50,246
495,52	46,742
495,72	49,798
495,92	52,999
496,12	48,444
496,32	46,968
496,52	48,189
496,72	47,104
496,92	48,788
497,12	49,486
497,32	49,324
497,52	49,769
497,72	52,004
497,92	49,077
498,12	49,398
498,32	46,522
498,52	50,748
498,72	45,560
498,92	48,366
499,12	53,064
499,32	46,506
499,52	49,687
499,72	48,403
499,92	49,695
500,12	50,919
500,32	49,943
500,52	49,471
500,72	52,980
500,91	50,387
501,11	49,272
501,31	45,899
501,51	49,383
501,71	51,054
501,91	50,192
502,11	49,188
502,31	48,079
502,51	51,528
502,71	48,542
502,91	48,164
503,11	49,638
503,31	48,970
503,51	45,632
503,71	48,224
503,91	49,474
504,11	50,727
504,31	48,746
504,51	49,567
504,71	51,359
504,91	49,555
505,10	51,913
505,30	50,074
505,50	50,838
505,70	49,241
505,90	50,767
506,10	46,225
506,30	48,023
506,50	49,920
506,70	51,732
506,90	49,694
507,10	52,306
507,30	46,112
507,50	50,695
507,70	49,371
507,89	47,216
508,09	47,346
508,29	47,320
508,49	48,412
508,69	47,133
508,89	49,485
509,09	48,276
509,29	49,673
509,49	49,276
509,69	53,131
509,89	47,748
510,09	46,133
510,28	49,978
510,48	50,548
510,68	48,855
510,88	48,809
511,08	45,964
511,28	48,086
511,48	50,306
511,68	47,140
511,88	47,647
512,07	50,581
512,27	48,318
512,47	46,767
512,67	46,349
512,87	46,703
513,07	46,902
513,27	44,628
513,47	46,221
513,67	45,425
513,86	47,472
514,06	46,205
514,26	46,328
514,46	49,570
514,66	43,784
514,86	46,619
515,06	46,821
515,26	48,697
515,45	46,825
515,65	44,440
515,85	46,019
516,05	46,037
516,25	46,596
516,45	49,363
516,65	47,221
516,84	45,454
517,04	48,295
517,24	44,481
517,44	47,995
517,64	52,534
517,84	50,397
518,04	46,898
518,23	48,575
518,43	50,297
518,63	45,870
518,83	46,314
519,03	45,098
519,23	49,088
519,42	48,738
519,62	44,079
519,82	46,405
520,02	44,530
520,22	43,538
520,42	47,358
520,61	45,963
520,81	46,538
521,01	48,699
521,21	45,993
521,41	45,575
521,61	47,930
521,80	43,355
522,00	43,750
522,20	47,186
522,40	44,415
522,60	45,969
522,79	43,946
522,99	47,510
523,19	43,989
523,39	46,721
523,59	44,155
523,78	45,972
523,98	44,026
524,18	43,918
524,38	41,279
524,58	46,176
524,77	45,776
524,97	44,014
525,17	45,165
525,37	41,904
525,57	47,579
525,76	43,960
525,96	42,248
526,16	44,342
526,36	41,730
526,56	45,387
526,75	42,635
526,95	47,384
527,15	45,064
527,35	43,660
527,55	42,588
527,74	46,693
527,94	40,870
528,14	43,058
528,34	43,558
528,53	44,643
528,73	46,877
528,93	44,473
529,13	46,902
529,32	45,485
529,52	43,824
529,72	42,879
529,92	42,510
530,12	42,527
530,31	41,158
530,51	45,113
530,71	44,256
530,91	45,679
531,10	40,319
531,30	44,280
531,50	38,723
531,70	42,138
531,89	40,711
532,09	42,711
532,29	41,480
532,49	42,245
532,68	43,813
532,88	40,109
533,08	40,015
533,28	40,314
533,47	42,851
533,67	42,623
533,87	39,388
534,06	47,100
534,26	41,250
534,46	40,114
534,66	42,939
534,85	41,102
535,05	36,694
535,25	40,875
535,45	41,312
535,64	40,560
535,84	41,123
536,04	40,074
536,23	42,281
536,43	40,239
536,63	40,899
536,83	40,194
537,02	40,946
537,22	37,709
537,42	41,279
537,61	40,040
537,81	40,222
538,01	37,185
538,20	39,756
538,40	37,631
538,60	39,213
538,80	38,035
538,99	39,113
539,19	36,504
539,39	35,377
539,58	36,737
539,78	33,322
539,98	34,580
540,17	33,558
540,37	34,316
540,57	31,106
540,76	31,758
540,96	31,131
541,16	34,442
541,36	30,583
541,55	29,353
541,75	29,735
541,95	30,415
542,14	29,211
542,34	27,781
542,54	27,947
542,73	30,125
542,93	31,291
543,13	29,368
543,32	29,629
543,52	29,269
543,72	28,641
543,91	29,256
544,11	28,591
544,31	29,346
544,50	30,393
544,70	30,586
544,89	28,861
545,09	30,263
545,29	28,720
545,48	29,307
545,68	29,534
545,88	29,774
546,07	30,287
546,27	30,848
546,47	32,201
546,66	33,130
546,86	33,449
547,06	31,476
547,25	31,973
547,45	34,555
547,64	33,164
547,84	35,711
548,04	37,658
548,23	38,410
548,43	36,158
548,63	36,876
548,82	36,088
549,02	34,935
549,21	34,347
549,41	35,624
549,61	36,965
549,80	36,417
550,00	36,232
550,20	34,111
550,39	36,419
550,59	34,821
550,78	37,686
550,98	33,563
551,18	36,829
551,37	37,039
551,57	36,501
551,76	37,003
551,96	36,013
552,16	36,335
552,35	37,858
552,55	40,494
552,74	36,870
552,94	38,360
553,14	35,644
553,33	35,755
553,53	38,045
553,72	37,206
553,92	39,195
554,12	34,276
554,31	35,972
554,51	38,092
554,70	35,120
554,90	39,145
555,09	39,594
555,29	38,041
555,49	38,261
555,68	39,743
555,88	36,577
556,07	35,665
556,27	40,548
556,46	35,167
556,66	35,215
556,86	38,956
557,05	37,524
557,25	37,136
557,44	38,099
557,64	36,850
557,83	39,084
558,03	37,933
558,22	37,160
558,42	38,817
558,62	39,475
558,81	36,901
559,01	39,092
559,20	37,612
559,40	38,090
559,59	36,301
559,79	36,009
559,98	38,953
560,18	39,627
560,37	36,102
560,57	42,600
560,76	36,098
560,96	37,666
561,16	39,471
561,35	38,352
561,55	42,561
561,74	37,332
561,94	38,364
562,13	39,128
562,33	40,430
562,52	39,066
562,72	37,741
562,91	36,619
563,11	37,935
563,30	41,450
563,50	35,938
563,69	37,624
563,89	37,501
564,08	39,483
564,28	37,423
564,47	37,756
564,67	38,852
564,86	39,428
565,06	36,591
565,25	37,235
565,45	37,408
565,64	41,584
565,84	38,580
566,03	36,974
566,23	39,566
566,42	37,359
566,62	35,925
566,81	37,156
567,01	38,862
567,20	40,201
567,40	37,207
567,59	36,940
567,79	39,868
567,98	41,618
568,18	38,533
568,37	41,026
568,57	37,916
568,76	39,436
568,96	39,038
569,15	37,925
569,35	39,423
569,54	41,094
569,73	41,120
569,93	39,935
570,12	39,095
570,32	40,823
570,51	38,563
570,71	41,583
570,90	40,144
571,10	39,520
571,29	38,408
571,49	38,623
571,68	39,034
571,87	40,513
572,07	40,410
572,26	36,916
572,46	38,010
572,65	40,775
572,85	38,402
573,04	39,470
573,24	39,630
573,43	42,063
573,62	42,007
573,82	39,852
574,01	39,422
574,21	39,705
574,40	39,328
574,60	39,718
574,79	42,579
574,98	39,164
575,18	40,166
575,37	39,089
575,57	40,975
575,76	40,091
575,96	40,361
576,15	40,389
576,34	39,609
576,54	40,984
576,73	40,500
576,93	41,251
577,12	40,615
577,31	40,384
577,51	39,105
577,70	40,227
577,90	40,282
578,09	38,230
578,28	40,128
578,48	40,113
578,67	43,185
578,87	41,190
579,06	39,821
579,25	41,329
579,45	41,344
579,64	40,649
579,84	40,845
580,03	38,989
580,22	42,464
580,42	40,751
580,61	42,129
580,81	40,418
581,00	41,803
581,19	42,709
581,39	41,790
581,58	40,592
581,77	41,090
581,97	43,250
582,16	40,459
582,35	40,559
582,55	41,235
582,74	42,558
582,94	42,397
583,13	39,142
583,32	42,759
583,52	42,877
583,71	42,712
583,90	42,907
584,10	42,354
584,29	42,590
584,48	41,768
584,68	42,860
584,87	43,059
585,06	41,761
585,26	41,364
585,45	41,249
585,65	44,745
585,84	41,918
586,03	43,233
586,23	40,896
586,42	42,852
586,61	43,972
586,81	42,835
587,00	44,139
587,19	41,716
587,39	44,250
587,58	44,142
587,77	42,712
587,97	42,983
588,16	43,530
588,35	43,087
588,54	43,800
588,74	42,225
588,93	44,239
589,12	43,479
589,32	43,344
589,51	42,708
589,70	43,062
589,90	44,302
590,09	46,179
590,28	46,606
590,48	43,849
590,67	46,298
590,86	44,905
591,06	44,880
591,25	45,162
591,44	46,890
591,63	44,557
591,83	45,103
592,02	45,397
592,21	45,273
592,41	45,227
592,60	46,501
592,79	46,272
592,98	47,577
593,18	45,772
593,37	45,978
593,56	48,038
593,76	48,639
593,95	46,883
594,14	46,114
594,33	48,034
594,53	46,881
594,72	46,850
594,91	49,341
595,10	47,608
595,30	47,821
595,49	47,258
595,68	48,544
595,88	48,890
596,07	48,265
596,26	47,811
596,45	47,489
596,65	46,547
596,84	47,549
597,03	46,864
597,22	49,268
597,42	50,871
597,61	48,828
597,80	47,164
597,99	48,949
598,19	50,618
598,38	49,791
598,57	48,574
598,76	50,138
598,95	51,218
599,15	51,285
599,34	50,130
599,53	50,697
599,72	52,771
599,92	51,153
600,11	49,808
600,30	49,338
600,49	51,738
600,69	49,815
600,88	51,220
601,07	50,750
601,26	52,564
601,45	51,395
601,65	48,308
601,84	51,315
602,03	51,722
602,22	50,856
602,42	52,768
602,61	51,418
602,80	52,215
602,99	53,703
603,18	51,051
603,38	52,836
603,57	51,880
603,76	50,538
603,95	52,273
604,14	52,982
604,34	51,627
604,53	52,616
604,72	53,145
604,91	52,244
605,10	52,844
605,29	53,563
605,49	51,155
605,68	51,953
605,87	51,284
606,06	52,971
606,25	51,094
606,45	52,005
606,64	52,965
606,83	53,410
607,02	51,459
607,21	53,390
607,40	52,399
607,60	50,638
607,79	50,734
607,98	48,796
608,17	49,817
608,36	49,308
608,55	48,546
608,75	50,350
608,94	48,964
609,13	46,235
609,32	44,394
609,51	43,100
609,70	44,379
609,89	44,864
610,09	44,792
610,28	45,762
610,47	44,302
610,66	45,396
610,85	43,747
611,04	44,934
611,23	44,475
611,43	43,965
611,62	43,322
611,81	44,486
612,00	44,921
612,19	43,067
612,38	44,416
612,57	47,836
612,77	46,220
612,96	47,223
613,15	46,982
613,34	49,024
613,53	48,263
613,72	50,607
613,91	49,378
614,10	49,891
614,29	50,256
614,49	49,807
614,68	48,852
614,87	50,520
615,06	53,054
615,25	50,473
615,44	53,302
615,63	52,191
615,82	50,582
616,01	51,138
616,21	51,518
616,40	52,016
616,59	53,878
616,78	52,173
616,97	51,200
617,16	53,379
617,35	55,819
617,54	51,957
617,73	53,255
617,92	53,295
618,11	54,723
618,31	51,429
618,50	53,932
618,69	49,608
618,88	52,232
619,07	51,612
619,26	50,394
619,45	50,399
619,64	53,750
619,83	52,550
620,02	51,214
620,21	54,922
620,40	52,630
620,59	52,077
620,78	52,282
620,97	53,094
621,17	51,139
621,36	52,019
621,55	53,273
621,74	51,982
621,93	52,408
622,12	52,882
622,31	52,516
622,50	53,466
622,69	53,807
622,88	55,032
623,07	54,992
623,26	53,758
623,45	56,233
623,64	51,698
623,83	50,619
624,02	54,885
624,21	55,289
624,40	53,906
624,59	52,600
624,78	54,417
624,97	55,792
625,16	52,925
625,35	51,090
625,54	53,098
625,73	54,156
625,92	54,089
626,12	53,505
626,31	54,730
626,50	56,118
626,69	55,859
626,88	51,212
627,07	54,848
627,26	54,300
627,45	52,319
627,64	53,044
627,83	54,155
628,02	51,808
628,21	52,942
628,40	52,188
628,59	54,694
628,78	52,451
628,97	52,742
629,16	52,141
629,35	53,091
629,54	56,298
629,73	53,829
629,92	50,965
630,10	53,738
630,29	53,269
630,48	54,420
630,67	52,653
630,86	55,388
631,05	53,216
631,24	53,410
631,43	51,710
631,62	53,412
631,81	54,281
632,00	54,321
632,19	51,172
632,38	54,087
632,57	56,202
632,76	54,077
632,95	54,517
633,14	56,341
633,33	54,603
633,52	56,528
633,71	55,902
633,90	55,039
634,09	54,309
634,28	55,386
634,47	53,876
634,66	56,200
634,85	53,258
635,04	55,712
635,22	54,364
635,41	55,146
635,60	54,612
635,79	53,830
635,98	53,467
636,17	55,852
636,36	54,155
636,55	53,934
636,74	55,115
636,93	55,380
637,12	56,132
637,31	55,067
637,50	53,449
637,69	55,807
637,87	56,029
638,06	55,987
638,25	54,307
638,44	55,775
638,63	53,937
638,82	54,398
639,01	54,446
639,20	55,484
639,39	54,175
639,58	55,113
639,77	56,055
639,95	53,734
640,14	56,804
640,33	53,584
640,52	54,806
640,71	58,991
640,90	55,324
641,09	57,031
641,28	52,884
641,47	57,648
641,66	54,556
641,84	54,256
642,03	54,315
642,22	55,344
642,41	57,006
642,60	54,775
642,79	55,363
642,98	56,016
643,17	55,717
643,35	54,150
643,54	55,697
643,73	54,832
643,92	55,103
644,11	55,608
644,30	54,150
644,49	57,709
644,67	54,279
644,86	53,656
645,05	55,847
645,24	53,580
645,43	54,884
645,62	53,752
645,81	55,046
645,99	56,993
646,18	54,934
646,37	53,282
646,56	54,867
646,75	58,116
646,94	57,402
647,13	55,055
647,31	54,841
647,50	53,592
647,69	54,887
647,88	54,081
648,07	53,303
648,26	57,631
648,44	55,532
648,63	54,467
648,82	55,315
649,01	55,574
649,20	53,376
649,38	54,724
649,57	55,259
649,76	53,775
649,95	55,735
650,14	53,631
650,33	54,342
650,51	53,825
650,70	55,167
650,89	54,108
651,08	55,385
651,27	53,893
651,45	54,813
651,64	53,623
651,83	54,769
652,02	54,518
652,21	54,376
652,39	56,211
652,58	57,185
652,77	55,166
652,96	54,900
653,15	54,706
653,33	55,996
653,52	56,551
653,71	58,762
653,90	56,810
654,09	58,052
654,27	57,014
654,46	59,473
654,65	57,078
654,84	56,805
655,02	58,545
655,21	58,460
655,40	59,514
655,59	56,485
655,77	57,167
655,96	57,593
656,15	57,020
656,34	58,818
656,53	56,330
656,71	56,752
656,90	56,213
657,09	58,067
657,28	59,077
657,46	57,001
657,65	55,527
657,84	56,116
658,03	56,462
658,21	55,507
658,40	56,470
658,59	55,653
658,78	56,279
658,96	54,588
659,15	55,337
659,34	54,486
659,52	54,233
659,71	55,909
659,90	54,943
660,09	54,324
660,27	54,074
660,46	55,411
660,65	55,583
660,84	52,893
661,02	55,072
661,21	53,211
661,40	54,966
661,58	53,706
661,77	53,537
661,96	51,397
662,15	54,834
662,33	52,366
662,52	52,225
662,71	53,542
662,89	54,090
663,08	51,345
663,27	53,383
663,45	53,145
663,64	52,867
663,83	50,401
664,02	52,604
664,20	53,421
664,39	52,104
664,58	52,798
664,76	54,182
664,95	54,100
665,14	53,072
665,32	52,811
665,51	52,872
665,70	52,105
665,88	54,958
666,07	52,386
666,26	54,050
666,44	54,871
666,63	51,427
666,82	52,684
667,00	54,546
667,19	51,339
667,38	53,477
667,56	53,228
667,75	51,962
667,94	53,863
668,12	52,553
668,31	52,735
668,50	53,129
668,68	53,781
668,87	52,003
669,06	52,631
669,24	53,441
669,43	53,411
669,62	51,246
669,80	52,229
669,99	54,877
670,18	51,857
670,36	53,302
670,55	52,396
670,74	54,023
670,92	51,670
671,11	52,672
671,29	52,101
671,48	52,977
671,67	54,805
671,85	53,030
672,04	51,421
672,23	51,872
672,41	54,199
672,60	51,905
672,78	50,876
672,97	52,806
673,16	52,940
673,34	52,893
673,53	51,976
673,71	51,962
673,90	52,526
674,09	51,952
674,27	53,219
674,46	51,278
674,64	52,903
674,83	51,907
675,02	49,626
675,20	51,530
675,39	52,780
675,57	52,164
675,76	51,424
675,95	54,649
676,13	54,253
676,32	52,001
676,50	52,692
676,69	50,061
676,88	51,500
677,06	50,844
677,25	52,701
677,43	55,660
677,62	54,027
677,80	53,088
677,99	50,870
678,18	54,263
678,36	53,450
678,55	51,582
678,73	52,995
678,92	54,178
679,10	54,506
679,29	52,311
679,48	52,540
679,66	53,404
679,85	51,914
680,03	53,768
680,22	53,045
680,40	52,614
680,59	52,355
680,77	50,902
680,96	52,817
681,15	52,395
681,33	53,541
681,52	52,123
681,70	52,532
681,89	54,650
682,07	54,157
682,26	53,052
682,44	53,002
682,63	53,383
682,81	53,219
683,00	53,780
683,18	50,428
683,37	53,734
683,55	50,970
683,74	53,284
683,92	59,859
684,11	53,359
684,29	54,842
684,48	52,152
684,67	52,830
684,85	55,028
685,04	53,354
685,22	55,769
685,41	52,737
685,59	54,489
685,78	53,690
685,96	53,925
686,15	52,437
686,33	53,463
686,52	53,014
686,70	54,688
686,89	54,505
687,07	53,567
687,26	54,734
687,44	55,439
687,62	54,430
687,81	55,095
687,99	54,334
688,18	53,898
688,36	52,870
688,55	54,503
688,73	55,450
688,92	51,183
689,10	53,782
689,29	54,972
689,47	56,301
689,66	54,783
689,84	54,013
690,03	57,239
690,21	54,278
690,40	55,310
690,58	52,493
690,76	51,408
690,95	56,616
691,13	52,638
691,32	54,400
691,50	54,721
691,69	56,369
691,87	52,416
692,06	54,039
692,24	53,404
692,43	56,209
692,61	53,948
692,79	54,019
692,98	53,231
693,16	56,507
693,35	54,560
693,53	55,064
693,72	56,922
693,90	55,050
694,08	54,814
694,27	54,413
694,45	57,713
694,64	56,130
694,82	55,519
695,01	51,906
695,19	54,544
695,37	56,136
695,56	56,911
695,74	53,886
695,93	56,408
696,11	55,121
696,29	55,058
696,48	55,315
696,66	54,936
696,85	55,589
697,03	53,702
697,21	56,728
697,40	57,130
697,58	54,720
697,77	54,726
697,95	55,528
698,13	57,726
698,32	54,638
698,50	54,046
698,69	54,859
698,87	55,869
699,05	54,280
699,24	53,500
699,42	54,287
699,60	54,632
699,79	55,495
699,97	54,421
700,16	52,261
700,34	56,018
700,52	55,773
700,71	54,875
700,89	54,492
701,07	55,641
701,26	55,955
701,44	56,643
701,63	54,463
701,81	54,808
701,99	56,807
702,18	54,559
702,36	54,116
702,54	54,405
702,73	55,153
702,91	53,979
703,09	54,071
703,28	53,139
703,46	55,961
703,64	54,693
703,83	55,181
704,01	53,908
704,19	55,360
704,38	52,349
704,56	53,691
704,74	55,943
704,93	53,462
705,11	53,761
705,29	55,605
705,48	57,151
705,66	55,307
705,84	54,212
706,03	50,935
706,21	55,584
706,39	54,362
706,58	54,703
706,76	53,107
706,94	56,607
707,12	55,495
707,31	55,282
707,49	53,494
707,67	54,947
707,86	55,502
708,04	54,072
708,22	53,346
708,41	54,881
708,59	54,255
708,77	53,129
708,95	56,537
709,14	57,353
709,32	56,641
709,50	54,780
709,69	52,641
709,87	54,087
710,05	54,379
710,23	53,208
710,42	54,733
710,60	55,214
710,78	56,184
710,97	54,061
711,15	54,600
711,33	56,457
711,51	52,591
711,70	53,587
711,88	52,817
712,06	57,427
712,24	54,307
712,43	53,267
712,61	54,924
712,79	57,363
712,97	55,486
713,16	56,532
713,34	54,853
713,52	55,108
713,70	54,748
713,89	54,261
714,07	53,512
714,25	55,113
714,43	56,355
714,62	55,497
714,80	52,929
714,98	52,339
715,16	55,109
715,35	54,064
715,53	52,633
715,71	56,336
715,89	56,896
716,07	56,090
716,26	58,048
716,44	55,341
716,62	55,615
716,80	55,318
716,99	56,398
717,17	57,472
717,35	54,317
717,53	54,671
717,71	53,475
717,90	55,285
718,08	54,627
718,26	53,370
718,44	55,155
718,62	56,244
718,81	57,982
718,99	53,478
719,17	53,897
719,35	55,597
719,53	54,585
719,72	53,300
719,90	55,731
720,08	53,017
720,26	55,981
720,44	52,459
720,62	53,781
720,81	55,347
720,99	56,685
721,17	54,830
721,35	56,464
721,53	54,642
721,72	56,140
721,90	56,421
722,08	56,491
722,26	55,312
722,44	55,431
722,62	56,483
722,81	54,464
722,99	54,091
723,17	54,107
723,35	55,388
723,53	55,790
723,71	57,529
723,89	58,627
724,08	55,189
724,26	54,475
724,44	53,671
724,62	55,142
724,80	55,066
724,98	55,738
725,16	58,167
725,35	56,363
725,53	53,409
725,71	55,155
725,89	55,711
726,07	57,272
726,25	57,305
726,43	53,778
726,61	53,819
726,80	56,514
726,98	55,716
727,16	53,798
727,34	55,969
727,52	54,806
727,70	53,442
727,88	54,559
728,06	55,393
728,25	55,548
728,43	54,685
728,61	55,416
728,79	55,215
728,97	55,966
729,15	56,115
729,33	56,227
729,51	54,484
729,69	55,759
729,87	57,031
730,06	54,394
730,24	54,407
730,42	57,602
730,60	54,940
730,78	56,049
730,96	54,070
731,14	55,825
731,32	56,314
731,50	54,003
731,68	54,782
731,86	55,083
732,04	56,931
732,22	55,172
732,41	57,089
732,59	57,317
732,77	56,552
732,95	57,669
733,13	56,734
733,31	53,715
733,49	52,764
733,67	56,687
733,85	56,357
734,03	56,294
734,21	55,015
734,39	55,710
734,57	57,377
734,75	56,873
734,93	54,467
735,11	54,640
735,29	54,414
735,47	57,074
735,65	56,616
735,84	54,181
736,02	56,279
736,20	57,406
736,38	53,692
736,56	55,430
736,74	54,609
736,92	54,572
737,10	54,493
737,28	56,028
737,46	53,676
737,64	53,334
737,82	57,119
738,00	59,334
738,18	56,476
738,36	56,461
738,54	54,695
738,72	53,436
738,90	54,139
739,08	58,012
739,26	53,075
739,44	55,502
739,62	55,600
739,80	58,426
739,98	55,594
740,16	55,479
740,34	55,126
740,52	58,468
740,70	55,771
740,88	52,521
741,06	54,386
741,24	54,149
741,42	56,864
741,60	54,818
741,78	57,506
741,96	54,825
742,14	55,019
742,32	52,577
742,50	55,022
742,68	55,865
742,86	54,663
743,04	54,508
743,21	54,895
743,39	55,526
743,57	55,729
743,75	53,973
743,93	53,921
744,11	53,116
744,29	51,743
744,47	53,122
744,65	52,990
744,83	55,341
745,01	53,554
745,19	55,250
745,37	57,237
745,55	57,596
745,73	56,667
745,91	54,675
746,09	53,475
746,27	52,134
746,45	52,365
746,62	54,990
746,80	54,180
746,98	54,720
747,16	52,815
747,34	55,390
747,52	53,946
747,70	54,375
747,88	54,717
748,06	53,188
748,24	55,289
748,42	55,655
748,60	55,661
748,78	53,156
748,95	55,622
749,13	57,856
749,31	53,543
749,49	54,348
749,67	56,102
749,85	55,653
750,03	54,222
750,21	55,429
750,39	53,902
750,57	55,860
750,74	55,521
750,92	54,481
751,10	56,687
751,28	52,829
751,46	54,891
751,64	55,695
751,82	56,070
752,00	56,351
752,17	54,580
752,35	54,022
752,53	54,676
752,71	56,979
752,89	54,882
753,07	53,082
753,25	57,192
753,43	54,708
753,60	56,712
753,78	55,658
753,96	56,796
754,14	55,219
754,32	55,761
754,50	57,173
754,68	55,896
754,85	55,263
755,03	55,658
755,21	55,605
755,39	58,920
755,57	55,508
755,75	54,553
755,92	53,956
756,10	55,474
756,28	58,280
756,46	54,169
756,64	54,927
756,82	55,982
756,99	57,378
757,17	55,018
757,35	54,024
757,53	57,253
757,71	53,603
757,89	54,353
758,06	54,703
758,24	54,933
758,42	55,151
758,60	54,496
758,78	56,825
758,95	56,729
759,13	54,813
759,31	55,526
759,49	54,834
759,67	55,288
759,84	56,020
760,02	54,666
760,20	53,991
760,38	55,283
760,56	54,292
760,73	56,985
760,91	54,947
761,09	56,444
761,27	56,460
761,45	55,640
761,62	54,420
761,80	53,983
761,98	55,773
762,16	53,696
762,33	53,461
762,51	56,262
762,69	56,149
762,87	53,503
763,05	56,383
763,22	53,083
763,40	54,992
763,58	53,791
763,76	56,723
763,93	56,305
764,11	55,317
764,29	56,175
764,47	55,241
764,64	55,928
764,82	56,688
765,00	53,545
765,18	53,744
765,35	54,059
765,53	57,146
765,71	53,610
765,89	53,075
766,06	54,074
766,24	53,410
766,42	55,650
766,60	54,196
766,77	53,214
766,95	55,260
767,13	54,719
767,30	54,518
767,48	53,729
767,66	54,774
767,84	56,730
768,01	53,933
768,19	56,186
768,37	56,591
768,54	53,932
768,72	55,541
768,90	54,248
769,08	55,618
769,25	57,278
769,43	53,378
769,61	53,606
769,78	55,459
769,96	54,848
770,14	54,780
770,31	56,431
770,49	56,642
770,67	55,703
770,85	54,796
771,02	56,263
771,20	56,092
771,38	55,054
771,55	54,287
771,73	54,929
771,91	56,589
772,08	57,879
772,26	55,161
772,44	53,813
772,61	54,115
772,79	53,312
772,97	55,588
773,14	54,521
773,32	54,554
773,50	53,880
773,67	53,381
773,85	57,958
774,03	56,368
774,20	54,379
774,38	56,919
774,56	54,083
774,73	55,101
774,91	52,999
775,09	54,815
775,26	57,717
775,44	55,335
775,61	56,794
775,79	53,104
775,97	57,838
776,14	55,301
776,32	52,704
776,50	55,727
776,67	56,617
776,85	57,727
777,03	54,606
777,20	56,536
777,38	56,080
777,55	56,094
777,73	52,739
777,91	55,612
778,08	56,860
778,26	54,975
778,43	55,877
778,61	51,712
778,79	52,822
778,96	56,035
779,14	53,534
779,32	55,817
779,49	53,948
779,67	56,676
779,84	54,364
780,02	55,302
780,20	52,761
780,37	57,645
780,55	51,931
780,72	57,690
780,90	57,588
781,07	54,674
781,25	55,510
781,43	56,483
781,60	56,022
781,78	55,479
781,95	57,262
782,13	53,612
782,30	57,296
782,48	55,751
782,66	54,994
782,83	54,369
783,01	59,864
783,18	58,142
783,36	56,048
783,53	55,930
783,71	55,512
783,89	56,866
784,06	55,859
784,24	55,824
784,41	56,710
784,59	54,802
784,76	57,807
784,94	55,835
785,11	55,153
785,29	55,802
785,46	57,489
785,64	56,418
785,82	54,954
785,99	57,041
786,17	52,974
786,34	57,043
786,52	56,361
786,69	59,369
786,87	57,262
787,04	55,873
787,22	53,719
787,39	58,479
787,57	55,400
787,74	53,925
787,92	59,097
788,09	58,900
788,27	54,591
788,44	56,453
788,62	57,369
788,79	56,889
788,97	58,526
789,14	55,194
789,32	55,321
789,49	56,336
789,67	55,144
789,84	57,965
790,02	56,268
790,19	55,180
790,37	59,416
790,54	61,531
790,72	59,679
790,89	57,486
791,07	57,224
791,24	55,988
791,42	58,149
791,59	56,188
791,77	56,615
791,94	53,540
792,12	56,347
792,29	58,694
792,47	56,994
792,64	59,932
792,81	59,076
792,99	57,684
793,16	56,433
793,34	58,143
793,51	58,852
793,69	55,771
793,86	56,091
794,04	57,468
794,21	61,329
794,39	55,548
794,56	55,047
794,73	54,446
794,91	58,225
795,08	57,043
795,26	57,265
795,43	57,443
795,61	56,911
795,78	59,885
795,95	60,034
796,13	58,911
796,30	58,412
796,48	57,563
796,65	57,178
796,83	58,641
797,00	62,680
797,17	54,438
797,35	56,437
797,52	58,182
797,70	62,818
797,87	58,766
798,04	54,714
798,22	58,518
798,39	57,359
798,57	55,827
798,74	58,408
798,91	55,616
799,09	53,902
799,26	59,314
799,44	57,839
799,61	56,121
799,78	58,863
799,96	59,034
800,13	53,602
800,31	58,709
800,48	61,828
800,65	61,371
800,83	55,297
801,00	55,059
801,17	58,745
801,35	56,632
801,52	58,445
801,70	57,265
801,87	59,187
802,04	59,104
802,22	53,815
802,39	56,296
802,56	61,285
802,74	59,287
802,91	55,434
803,08	54,994
803,26	59,328
803,43	56,933
803,61	60,275
803,78	57,434
803,95	60,393
804,13	58,133
804,30	56,896
804,47	58,712
804,65	57,446
804,82	59,542
804,99	59,651
805,17	56,169
805,34	65,938
805,51	62,004
805,69	55,870
805,86	53,941
806,03	61,913
806,21	61,905
806,38	59,126
806,55	58,608
806,72	62,361
806,90	63,102
807,07	59,651
807,24	58,550
807,42	55,842
807,59	58,976
807,76	54,833
807,94	60,481
808,11	57,443
808,28	61,251
808,45	56,314
808,63	59,564
808,80	61,061
808,97	60,712
809,15	55,763
809,32	60,197
809,49	56,883
809,67	55,466
809,84	62,707
810,01	63,153
810,18	64,407
810,36	62,233
810,53	58,878
810,70	57,882
810,87	61,106
811,05	56,086
811,22	57,621
811,39	57,009
811,57	60,656
811,74	61,519
811,91	55,897
812,08	59,908
812,26	62,649
812,43	57,837
812,60	60,390
812,77	59,804
812,95	62,483
813,12	63,986
813,29	57,901
813,46	60,739
813,64	56,616
813,81	58,317
813,98	57,504
814,15	61,368
814,32	64,111
814,50	58,781
814,67	63,135
814,84	60,003
815,01	61,613
815,19	55,211
815,36	55,404
815,53	57,901
815,70	61,426
815,87	62,383
816,05	55,517
816,22	62,395
816,39	63,993
816,56	64,432
816,74	61,070
816,91	62,754
817,08	63,133
817,25	66,215
817,42	62,697
817,60	62,529
817,77	55,014
817,94	60,092
818,11	58,892
818,28	58,594
818,45	66,176
818,63	62,788
818,80	60,989
818,97	58,953
819,14	67,768
819,31	64,042
819,49	67,134
819,66	61,481
819,83	65,442
820,00	59,925
820,17	58,314
820,34	67,263
820,52	65,683
820,69	64,731
820,86	60,795
821,03	62,194
821,20	65,597
821,37	67,516
821,55	54,974
821,72	62,713
821,89	62,117
822,06	64,163
822,23	56,134
822,40	58,690
822,57	63,599
822,75	67,816
822,92	58,887
823,09	57,799
823,26	64,422
823,43	65,545
823,60	58,992
823,77	62,023
823,94	65,054
824,12	70,973
824,29	56,796
824,46	62,548
824,63	67,803
824,80	66,964
824,97	61,860
825,14	62,315
825,31	68,025
825,49	63,136
825,66	57,485
825,83	59,065
826,00	66,863
826,17	69,400
826,34	61,873
826,51	61,965
826,68	62,720
826,85	60,211
827,02	64,733
827,20	61,459
827,37	66,473
827,54	65,649
827,71	63,896
827,88	66,000
828,05	71,691
828,22	67,914
828,39	64,096
828,56	67,432
828,73	64,093
828,90	67,327
829,07	64,527
829,25	59,149
829,42	65,581
829,59	70,845
829,76	61,592
829,93	60,536
830,10	63,968
830,27	64,185
830,44	68,768
830,61	63,645
830,78	70,254
830,95	70,997
831,12	61,670
831,29	62,413
831,46	63,013
831,63	59,992
831,80	69,244
831,97	60,712
832,14	71,673
832,31	77,955
832,48	64,725
832,65	65,845
832,83	59,092
833,00	66,245
833,17	60,231
833,34	64,277
833,51	66,984
833,68	74,503
833,85	72,737
834,02	61,190
834,19	62,886
834,36	66,609
834,53	60,647
834,70	66,417
834,87	67,314
835,04	66,284
835,21	72,693
835,38	62,757
835,55	65,903
835,72	75,176
835,89	62,665
836,06	75,055
836,23	75,409
836,40	64,366
836,57	69,559
836,74	70,817
836,91	73,781
837,08	71,056
837,25	61,257
837,42	54,884
837,59	60,757
837,76	70,552
837,93	62,207
838,09	60,286
838,26	71,278
838,43	72,190
838,60	57,699
838,77	60,110
838,94	71,850
839,11	64,415
839,28	67,397
839,45	64,455
839,62	64,918
839,79	66,462
839,96	68,067
840,13	74,511
840,30	54,510
840,47	56,338
840,64	58,004
840,81	69,599
840,98	66,980
841,15	82,169
841,32	62,965
841,48	70,318
841,65	72,511
841,82	64,991
841,99	66,040
842,16	61,450
842,33	72,402
842,50	67,597
842,67	69,112
842,84	63,788
843,01	82,412
843,18	66,216
843,35	69,060
843,52	67,976
843,68	68,701
843,85	64,142
844,02	69,920
844,19	59,820
844,36	74,605
844,53	63,635
844,70	72,854
844,87	74,088
845,04	71,704
845,21	57,476
845,37	78,799
845,54	64,236
845,71	82,497
845,88	88,019
846,05	62,506
846,22	65,170
846,39	72,215
846,56	81,108
846,72	64,546
846,89	64,006
847,06	72,966
847,23	68,935
847,40	66,260
847,57	60,841
847,74	61,673
847,90	80,193
848,07	67,925
848,24	64,102
848,41	64,820
848,58	86,009
848,75	76,546
848,92	60,413
849,08	68,040
849,25	68,780
849,42	57,410
849,59	70,438
849,76	68,302
849,93	75,033
850,09	72,520
850,26	63,819
850,43	71,463
850,60	70,477
850,77	64,502
850,94	68,185
851,10	73,131
851,27	69,664
851,44	74,811
851,61	55,584
851,78	80,108
851,95	91,002
852,11	63,625
852,28	65,676
852,45	74,801
852,62	69,909
852,79	65,411
852,95	62,845
853,12	72,248
853,29	61,818
853,46	72,801
853,63	71,920
853,79	64,206
853,96	69,206
854,13	85,918
854,30	62,449
854,46	91,523
854,63	70,846
854,80	74,924
854,97	59,093
855,14	87,880
855,30	78,080
855,47	71,520
855,64	74,325
855,81	76,791
855,97	79,878
856,14	71,968
856,31	67,767
856,48	95,148
856,65	76,195
856,81	74,211
856,98	60,008
857,15	67,917
857,32	80,472
857,48	67,634
857,65	81,389
857,82	75,588
857,99	84,683
858,15	69,126
858,32	71,975
858,49	77,457
858,65	101,325
858,82	70,574
858,99	77,667
859,16	83,167
859,32	83,811
859,49	85,835
859,66	65,003
859,83	76,526
859,99	57,093
860,16	76,916
860,33	67,945
860,49	95,541
860,66	79,963
860,83	75,246
861,00	69,343
861,16	86,059
861,33	74,183
861,50	59,777
861,66	67,166
861,83	97,840
862,00	85,287
862,16	85,730
862,33	76,566
862,50	111,396
862,67	82,473
862,83	69,344
863,00	83,054
863,17	90,518
863,33	85,121
863,50	61,786
863,67	87,026
863,83	77,846
864,00	67,204
864,17	61,476
864,33	69,321
864,50	84,606
864,67	82,085
864,83	62,423
865,00	63,910
865,17	68,263
865,33	100,174
865,50	63,601
865,67	66,274
865,83	89,197
866,00	106,299
866,17	89,027
866,33	80,305
866,50	103,868
866,66	89,278
866,83	81,419
867,00	78,008
867,16	86,999
867,33	99,824
867,50	62,801
867,66	80,061
867,83	109,519
868,00	93,233
868,16	67,156
868,33	73,141
868,49	84,809
868,66	88,164
868,83	83,415
868,99	70,506
869,16	104,269
869,32	109,477
869,49	76,045
869,66	84,785
869,82	112,897
869,99	117,333
870,15	50,013
870,32	102,012
870,49	98,448
870,65	149,328
870,82	92,566
870,98	84,423
871,15	123,943
871,32	95,694
871,48	74,660
871,65	76,909
871,81	87,718
871,98	45,427
872,15	68,595
872,31	58,362
872,48	108,600
872,64	83,489
872,81	48,731
872,97	79,721
873,14	109,000
873,31	79,707
873,47	71,774
873,64	82,511
873,80	119,366
873,97	133,776
874,13	50,263
874,30	97,847
874,46	119,237
874,63	55,722
874,80	68,529
874,96	64,213
875,13	136,731
875,29	97,564
875,46	107,136
875,62	111,115
875,79	120,315
875,95	104,439
876,12	93,305
876,28	16,627
876,45	131,889
876,61	113,568
876,78	81,258
876,94	61,058
877,11	92,231
877,27	115,442
877,44	52,332
877,60	67,201
877,77	159,122
877,94	130,894
878,10	78,578
878,27	91,488
878,43	122,018
878,60	100,336
878,76	72,481
878,93	101,813
879,09	91,289
879,26	113,380
879,42	73,842
879,58	109,852
879,75	131,995
879,91	156,824
880,08	8,026
880,24	72,180
880,41	69,716
880,57	147,874
880,74	40,857
880,90	105,593
881,07	63,482
881,23	152,291
881,40	78,314
881,56	91,979
881,73	130,468
881,89	130,018
882,06	43,823
882,22	166,567
882,38	154,582
882,55	162,526
882,71	52,491
882,88	80,324
883,04	214,382
883,21	221,193
883,37	103,272
883,54	72,596
883,70	184,307
883,86	98,330
884,03	67,630
884,19	39,710
884,36	52,560
884,52	295,024
884,69	144,774
884,85	38,093
885,01	241,148
885,18	113,775
885,34	180,000
885,51	5,637
885,67	79,380
>>>>> Data<<<<< Espectral Procesado Extremo
