Fichero De Datos De SpectraSuite
++++++++++++++++++++++++++++++++++++
Fecha: Wed Apr 22 11:16:55 CEST 2009
Usuario: evoflor
Presente Oscuro Del Espectro: Sí
La Referencia de Presente Del Espectro De: Sí
Muestreados de los componentes de Número de espectros: 1
Espectrómetros: USB4F02353
Tiempo de integración (usec): 500000 (USB4F02353)
Promedio de Espectros Hechos un: 5 (USB4F02353)
El Alisar Del Furgón: 0 (USB4F02353)
Párrafo de de Corregir del la del del de Eléctrica del obscuridad: Sí (USB4F02353)
Estrobo/Lámpara Permitido: No (USB4F02353)
Correct for Detector Non-linearity: No (USB4F02353)
Párrafo de de Corregir del la del del de Externa del luz: No (USB4F02353)
Procesado del espectro de Número de pixeles en: 3648
>>>>> Comienza Data<<<<< Espectral Procesado Del EL
177,79	207,442
178,00	207,442
178,22	207,442
178,44	507,692
178,66	-163,130
178,88	83,062
179,09	-308,936
179,31	149,739
179,53	469,969
179,75	221,386
179,96	920,690
180,18	-181,846
180,40	374,522
180,62	486,207
180,83	-83,058
181,05	-1324,390
181,27	-141900,000
181,49	43,696
181,70	36,923
181,92	528,426
182,14	465,361
182,36	246,654
182,58	-564,000
182,79	709,821
183,01	-4,389
183,23	153,116
183,45	-195,692
183,66	172,566
183,88	40,588
184,10	-2089,091
184,32	286,634
184,53	193,353
184,75	-67,084
184,97	73,002
185,18	88,534
185,40	-582,692
185,62	110,816
185,84	203,712
186,05	20,986
186,27	-24,044
186,49	4073,077
186,71	-23,370
186,92	85,611
187,14	-107,205
187,36	105,384
187,58	11,230
187,79	-21,429
188,01	141,422
188,23	-80,966
188,45	48,232
188,66	107,143
188,88	-387,273
189,10	-771,000
189,31	46,587
189,53	42,153
189,75	289,773
189,97	81,923
190,18	21,888
190,40	723,529
190,62	-108,060
190,83	-388,132
191,05	132,591
191,27	161,143
191,49	197,525
191,70	-240,865
191,92	-744,915
192,14	5,861
192,35	462,334
192,57	2382,857
192,79	-141,328
193,01	133,127
193,22	67,913
193,44	-40,956
193,66	93,270
193,87	88,009
194,09	-17,301
194,31	121,065
194,53	891,608
194,74	130,161
194,96	106,650
195,18	94,007
195,39	-222,427
195,61	-97,156
195,83	-34,565
196,04	120,240
196,26	209,548
196,48	43,017
196,70	230,219
196,91	36,792
197,13	293,165
197,35	-5,059
197,56	503,406
197,78	1784,328
198,00	532,867
198,21	300,000
198,43	-558,140
198,65	116,344
198,86	225,540
199,08	161,311
199,30	130,567
199,51	-303,909
199,73	273,039
199,95	168,564
200,16	763,846
200,38	222,857
200,60	271,755
200,81	253,747
201,03	155,707
201,25	-1464,000
201,46	124,390
201,68	65,033
201,90	2447,727
202,11	-167,176
202,33	89,946
202,55	300,000
202,76	74,485
202,98	340,767
203,20	191,827
203,41	-353,684
203,63	116,307
203,85	-81600,000
204,06	70,302
204,28	-51,325
204,50	90,146
204,71	269,788
204,93	-319,200
205,15	7,229
205,36	-92,352
205,58	77,159
205,80	-120,215
206,01	86,842
206,23	119,039
206,45	186,961
206,66	113,921
206,88	44,370
207,10	111,818
207,31	336,954
207,53	150,857
207,75	-5,742
207,96	1005,224
208,18	26,621
208,39	-9,633
208,61	2820,000
208,83	-200,653
209,04	190,150
209,26	-342,857
209,48	176,541
209,69	173,710
209,91	458,108
210,13	-13,566
210,34	145,278
210,56	119,846
210,77	-1216,535
210,99	82,820
211,21	7182,353
211,42	-90,219
211,64	12,690
211,86	33,388
212,07	234,971
212,29	157,721
212,50	118,961
212,72	-63,462
212,94	145,534
213,15	147,190
213,37	114,916
213,58	-224,834
213,80	-825,000
214,02	5064,706
214,23	265,511
214,45	347,213
214,67	-698,780
214,88	-20,134
215,10	-145,246
215,31	-24,236
215,53	-100,909
215,75	215,478
215,96	1239,130
216,18	-1284,507
216,39	156,050
216,61	321,616
216,83	135,268
217,04	1058,427
217,26	-23,710
217,47	130,080
217,69	313,014
217,91	42,526
218,12	-73500,000
218,34	85,321
218,55	436,074
218,77	124,116
218,99	99,800
219,20	-80,214
219,42	319,207
219,63	-5,117
219,85	-28,294
220,06	175,385
220,28	68,426
220,50	36,030
220,71	57,055
220,93	690,566
221,14	-1581,000
221,36	96,941
221,58	38,182
221,79	71,186
222,01	509,483
222,22	720,395
222,44	107,865
222,65	50,216
222,87	-216,084
223,09	151,450
223,30	95,917
223,52	55,024
223,73	107,056
223,95	24,930
224,16	227,629
224,38	353,318
224,60	108,243
224,81	87,007
225,03	9,581
225,24	64,129
225,46	36,877
225,67	22,162
225,89	-69,895
226,10	297,289
226,32	537,600
226,54	21,832
226,75	121,445
226,97	18,272
227,18	77,228
227,40	59,816
227,61	81,081
227,83	18,895
228,04	90,124
228,26	-50,979
228,47	66,904
228,69	122,612
228,91	64,945
229,12	32,066
229,34	18,502
229,55	45,627
229,77	-16,928
229,98	-13,276
230,20	84,920
230,41	-1,390
230,63	79,345
230,84	59,252
231,06	29,196
231,27	20,842
231,49	54,824
231,71	33,580
231,92	17,748
232,14	18,579
232,35	39,156
232,57	-0,462
232,78	11,248
233,00	20,827
233,21	39,073
233,43	-5,243
233,64	19,124
233,86	41,240
234,07	22,952
234,29	21,366
234,50	12,542
234,72	39,984
234,93	13,898
235,15	8,999
235,36	17,498
235,58	22,640
235,79	37,216
236,01	4,153
236,22	11,770
236,44	16,557
236,65	18,965
236,87	23,466
237,08	3,953
237,30	-2,537
237,51	9,647
237,73	4,600
237,94	-1,647
238,16	15,805
238,37	7,007
238,59	9,500
238,80	12,842
239,02	7,228
239,23	5,921
239,45	-10,176
239,66	23,915
239,88	16,504
240,09	6,485
240,31	-4,839
240,52	0,830
240,74	15,317
240,95	10,950
241,17	0,619
241,38	10,769
241,60	11,924
241,81	15,209
242,03	0,989
242,24	4,966
242,46	15,516
242,67	1,701
242,89	3,344
243,10	12,386
243,32	13,869
243,53	8,174
243,75	4,458
243,96	-4,557
244,18	2,742
244,39	10,248
244,60	7,050
244,82	1,070
245,03	12,434
245,25	6,537
245,46	14,078
245,68	0,387
245,89	16,068
246,11	6,224
246,32	11,112
246,54	1,634
246,75	8,029
246,97	3,548
247,18	7,603
247,39	-1,980
247,61	2,577
247,82	0,146
248,04	2,972
248,25	6,070
248,47	9,832
248,68	8,223
248,90	3,011
249,11	7,744
249,33	12,128
249,54	5,730
249,75	6,481
249,97	1,841
250,18	8,114
250,40	11,421
250,61	-4,417
250,83	1,093
251,04	-5,265
251,25	8,161
251,47	-2,733
251,68	8,211
251,90	7,009
252,11	9,794
252,33	2,441
252,54	6,442
252,76	4,593
252,97	-0,063
253,18	-1,814
253,40	4,716
253,61	0,222
253,83	7,317
254,04	11,593
254,25	3,287
254,47	1,762
254,68	4,663
254,90	3,536
255,11	7,807
255,33	5,465
255,54	4,020
255,75	2,312
255,97	5,920
256,18	0,029
256,40	-1,304
256,61	8,355
256,82	-2,994
257,04	7,854
257,25	3,930
257,47	7,394
257,68	4,990
257,89	8,757
258,11	9,902
258,32	5,923
258,54	6,647
258,75	8,959
258,96	8,876
259,18	4,474
259,39	-1,647
259,61	1,782
259,82	6,367
260,03	4,149
260,25	5,045
260,46	4,230
260,68	1,946
260,89	0,747
261,10	2,821
261,32	3,737
261,53	-0,833
261,75	6,219
261,96	-4,297
262,17	8,725
262,39	11,931
262,60	2,794
262,81	-0,346
263,03	9,824
263,24	3,736
263,46	2,405
263,67	2,359
263,88	0,232
264,10	6,738
264,31	-1,590
264,52	5,249
264,74	3,577
264,95	0,784
265,17	1,804
265,38	1,975
265,59	5,087
265,81	5,690
266,02	1,500
266,23	-0,895
266,45	9,814
266,66	7,774
266,87	3,646
267,09	0,305
267,30	7,072
267,52	4,409
267,73	1,953
267,94	1,921
268,16	6,145
268,37	1,416
268,58	3,142
268,80	4,751
269,01	1,862
269,22	3,024
269,44	3,879
269,65	3,627
269,86	3,029
270,08	2,757
270,29	4,530
270,50	3,252
270,72	6,170
270,93	3,050
271,14	0,390
271,36	1,822
271,57	3,230
271,78	8,513
272,00	4,953
272,21	0,424
272,42	7,032
272,64	4,075
272,85	-1,662
273,06	1,197
273,28	4,428
273,49	4,402
273,70	1,886
273,92	5,648
274,13	6,535
274,34	3,132
274,56	5,282
274,77	0,878
274,98	3,874
275,20	6,726
275,41	3,531
275,62	2,387
275,84	2,831
276,05	7,938
276,26	2,809
276,47	1,827
276,69	7,694
276,90	3,873
277,11	2,736
277,33	1,376
277,54	2,808
277,75	2,496
277,97	-0,080
278,18	3,832
278,39	4,029
278,61	-0,780
278,82	5,785
279,03	3,386
279,24	4,846
279,46	0,720
279,67	6,518
279,88	2,681
280,10	5,077
280,31	0,184
280,52	4,414
280,73	-0,077
280,95	6,792
281,16	4,500
281,37	5,577
281,59	5,710
281,80	10,205
282,01	1,730
282,22	0,706
282,44	2,141
282,65	6,479
282,86	7,571
283,08	0,690
283,29	4,951
283,50	4,423
283,71	6,133
283,93	3,801
284,14	6,023
284,35	1,471
284,56	0,829
284,78	2,192
284,99	2,223
285,20	5,682
285,42	4,791
285,63	1,398
285,84	-0,164
286,05	3,154
286,27	4,912
286,48	2,251
286,69	2,826
286,90	0,542
287,12	3,431
287,33	2,877
287,54	1,263
287,75	1,584
287,97	6,423
288,18	1,216
288,39	-1,283
288,60	3,397
288,82	2,359
289,03	1,406
289,24	3,905
289,45	8,256
289,67	1,087
289,88	0,615
290,09	3,817
290,30	3,377
290,52	0,776
290,73	4,675
290,94	0,348
291,15	3,816
291,37	4,835
291,58	2,203
291,79	4,368
292,00	3,135
292,21	4,732
292,43	4,801
292,64	-0,971
292,85	2,482
293,06	5,466
293,28	-1,113
293,49	0,334
293,70	4,450
293,91	3,843
294,12	3,349
294,34	3,518
294,55	4,078
294,76	2,123
294,97	5,631
295,19	0,769
295,40	2,418
295,61	2,943
295,82	1,976
296,03	4,328
296,25	1,651
296,46	1,295
296,67	-0,941
296,88	-1,451
297,09	6,577
297,31	3,192
297,52	3,955
297,73	2,520
297,94	5,389
298,15	3,446
298,37	2,576
298,58	3,797
298,79	5,295
299,00	2,538
299,21	0,446
299,43	1,913
299,64	5,484
299,85	5,282
300,06	1,525
300,27	-0,647
300,49	3,627
300,70	0,923
300,91	3,791
301,12	0,414
301,33	5,975
301,54	1,953
301,76	3,604
301,97	1,762
302,18	-0,506
302,39	5,890
302,60	4,348
302,82	1,858
303,03	7,605
303,24	1,816
303,45	1,963
303,66	2,137
303,87	3,170
304,09	5,469
304,30	2,398
304,51	1,937
304,72	0,634
304,93	6,313
305,14	4,091
305,36	-1,008
305,57	2,370
305,78	2,898
305,99	0,932
306,20	-0,472
306,41	-0,374
306,62	3,002
306,84	1,304
307,05	-1,844
307,26	3,259
307,47	4,436
307,68	1,231
307,89	0,993
308,11	3,008
308,32	0,509
308,53	4,201
308,74	1,543
308,95	2,599
309,16	2,630
309,37	6,004
309,59	-0,182
309,80	4,123
310,01	3,489
310,22	5,393
310,43	1,382
310,64	1,950
310,85	4,396
311,06	3,355
311,28	2,596
311,49	1,856
311,70	5,626
311,91	-0,345
312,12	1,177
312,33	2,310
312,54	4,048
312,75	0,788
312,97	2,787
313,18	6,213
313,39	2,913
313,60	1,743
313,81	4,718
314,02	2,641
314,23	4,641
314,44	0,016
314,65	3,328
314,87	0,493
315,08	-1,141
315,29	3,790
315,50	4,961
315,71	3,782
315,92	5,809
316,13	4,666
316,34	4,193
316,55	1,703
316,77	-0,387
316,98	0,290
317,19	3,230
317,40	5,303
317,61	5,787
317,82	1,046
318,03	0,772
318,24	2,647
318,45	6,649
318,66	1,280
318,87	0,676
319,09	4,822
319,30	4,209
319,51	3,752
319,72	3,137
319,93	4,206
320,14	3,137
320,35	2,760
320,56	1,457
320,77	0,559
320,98	7,674
321,19	3,594
321,40	0,664
321,62	5,538
321,83	5,889
322,04	1,987
322,25	2,380
322,46	7,570
322,67	3,744
322,88	4,289
323,09	3,533
323,30	5,161
323,51	4,760
323,72	2,840
323,93	0,451
324,14	-0,164
324,35	1,294
324,56	0,067
324,77	3,466
324,99	4,058
325,20	-0,919
325,41	4,098
325,62	2,339
325,83	1,279
326,04	3,298
326,25	2,409
326,46	1,355
326,67	4,352
326,88	2,566
327,09	3,633
327,30	1,906
327,51	0,919
327,72	3,035
327,93	4,057
328,14	-0,137
328,35	2,461
328,56	5,269
328,77	3,444
328,98	4,452
329,19	4,630
329,40	7,609
329,61	0,420
329,82	-0,396
330,04	3,154
330,25	3,671
330,46	3,275
330,67	0,793
330,88	3,983
331,09	3,062
331,30	4,129
331,51	3,723
331,72	3,685
331,93	6,429
332,14	1,560
332,35	3,400
332,56	1,748
332,77	6,460
332,98	-1,270
333,19	3,303
333,40	3,931
333,61	3,148
333,82	4,475
334,03	3,327
334,24	5,436
334,45	3,316
334,66	2,761
334,87	2,377
335,08	0,919
335,29	1,210
335,50	1,383
335,71	2,036
335,92	3,986
336,13	4,757
336,34	-0,492
336,55	4,472
336,76	4,210
336,97	2,517
337,18	-0,984
337,39	2,107
337,60	3,424
337,81	1,975
338,02	3,058
338,23	1,751
338,44	3,694
338,65	4,390
338,86	4,012
339,07	0,657
339,28	6,592
339,49	1,109
339,70	0,634
339,91	2,919
340,11	5,444
340,32	2,325
340,53	0,098
340,74	0,285
340,95	2,477
341,16	3,280
341,37	4,419
341,58	0,351
341,79	0,183
342,00	0,452
342,21	2,561
342,42	1,950
342,63	3,070
342,84	-0,349
343,05	5,034
343,26	1,459
343,47	0,583
343,68	3,516
343,89	1,690
344,10	3,772
344,31	3,384
344,52	0,771
344,73	1,931
344,94	3,209
345,14	2,224
345,35	6,255
345,56	0,902
345,77	2,123
345,98	2,872
346,19	2,639
346,40	1,251
346,61	2,387
346,82	2,976
347,03	2,890
347,24	4,646
347,45	2,259
347,66	6,124
347,87	-0,358
348,08	4,718
348,28	2,585
348,49	3,581
348,70	2,340
348,91	4,054
349,12	-0,865
349,33	14,834
349,54	1,275
349,75	5,087
349,96	1,056
350,17	2,278
350,38	-0,887
350,59	2,279
350,80	0,809
351,00	5,261
351,21	6,605
351,42	3,513
351,63	2,526
351,84	3,926
352,05	5,361
352,26	4,558
352,47	0,136
352,68	3,836
352,89	4,529
353,09	2,640
353,30	1,344
353,51	4,154
353,72	6,266
353,93	5,046
354,14	0,236
354,35	4,257
354,56	6,585
354,77	0,998
354,98	-0,070
355,18	5,544
355,39	7,953
355,60	2,877
355,81	2,102
356,02	3,390
356,23	1,526
356,44	-0,850
356,65	4,057
356,85	11,453
357,06	4,368
357,27	6,355
357,48	2,029
357,69	4,529
357,90	2,417
358,11	1,761
358,32	3,510
358,52	4,657
358,73	4,067
358,94	1,995
359,15	1,524
359,36	2,719
359,57	4,056
359,78	4,037
359,98	0,560
360,19	-2,329
360,40	0,725
360,61	3,296
360,82	2,621
361,03	7,114
361,24	4,516
361,44	1,896
361,65	4,592
361,86	-0,839
362,07	1,896
362,28	-1,231
362,49	1,389
362,70	3,456
362,90	2,119
363,11	2,749
363,32	1,407
363,53	3,333
363,74	7,739
363,95	5,069
364,15	4,292
364,36	4,578
364,57	5,604
364,78	3,943
364,99	2,334
365,20	2,805
365,40	4,912
365,61	1,089
365,82	5,717
366,03	4,889
366,24	3,663
366,45	1,209
366,65	3,667
366,86	0,142
367,07	3,934
367,28	3,616
367,49	3,345
367,69	6,671
367,90	2,129
368,11	3,199
368,32	2,035
368,53	3,452
368,73	3,684
368,94	0,470
369,15	4,624
369,36	4,601
369,57	5,719
369,78	1,894
369,98	3,396
370,19	5,821
370,40	1,492
370,61	3,998
370,82	3,516
371,02	2,973
371,23	6,594
371,44	4,945
371,65	2,862
371,85	4,515
372,06	0,927
372,27	2,946
372,48	4,374
372,69	1,585
372,89	-0,434
373,10	2,279
373,31	1,834
373,52	6,421
373,73	6,029
373,93	3,258
374,14	1,994
374,35	6,553
374,56	7,109
374,76	5,904
374,97	2,556
375,18	5,961
375,39	2,929
375,60	3,150
375,80	2,633
376,01	3,286
376,22	1,847
376,43	4,876
376,63	1,541
376,84	3,116
377,05	2,832
377,26	2,100
377,46	2,698
377,67	2,587
377,88	6,602
378,09	5,695
378,29	1,550
378,50	5,892
378,71	9,241
378,92	2,706
379,12	3,961
379,33	3,055
379,54	3,913
379,75	6,985
379,95	1,326
380,16	6,359
380,37	6,431
380,58	3,362
380,78	6,935
380,99	-0,042
381,20	0,408
381,41	5,236
381,61	6,228
381,82	2,974
382,03	2,964
382,24	6,462
382,44	2,112
382,65	4,615
382,86	4,895
383,06	4,165
383,27	4,617
383,48	3,422
383,69	4,922
383,89	5,472
384,10	4,036
384,31	5,976
384,51	6,050
384,72	4,612
384,93	4,659
385,14	6,485
385,34	6,534
385,55	4,965
385,76	2,293
385,96	7,033
386,17	5,336
386,38	9,755
386,59	7,479
386,79	5,499
387,00	7,270
387,21	6,965
387,41	7,199
387,62	3,878
387,83	8,680
388,03	3,094
388,24	-0,944
388,45	5,192
388,66	6,344
388,86	7,640
389,07	4,524
389,28	9,420
389,48	5,976
389,69	5,022
389,90	3,627
390,10	8,678
390,31	8,952
390,52	2,644
390,72	4,981
390,93	6,121
391,14	4,791
391,34	6,236
391,55	7,582
391,76	11,285
391,96	6,644
392,17	7,726
392,38	12,082
392,58	9,139
392,79	7,137
393,00	4,795
393,20	7,292
393,41	9,496
393,62	9,292
393,82	8,486
394,03	9,201
394,24	7,083
394,44	10,566
394,65	11,002
394,86	6,628
395,06	9,510
395,27	9,248
395,48	8,657
395,68	10,240
395,89	9,620
396,10	9,772
396,30	6,386
396,51	9,101
396,72	11,338
396,92	7,918
397,13	9,015
397,34	6,984
397,54	14,116
397,75	7,457
397,95	9,670
398,16	10,103
398,37	11,898
398,57	11,745
398,78	14,688
398,99	12,833
399,19	13,231
399,40	15,408
399,60	8,392
399,81	12,476
400,02	12,388
400,22	13,202
400,43	11,477
400,64	12,772
400,84	10,700
401,05	13,644
401,25	15,008
401,46	14,435
401,67	14,242
401,87	14,261
402,08	10,788
402,29	11,059
402,49	14,675
402,70	16,104
402,90	11,455
403,11	15,252
403,32	18,026
403,52	12,352
403,73	16,206
403,93	17,263
404,14	16,133
404,35	14,648
404,55	11,100
404,76	10,441
404,96	15,431
405,17	18,240
405,38	20,390
405,58	12,943
405,79	21,285
405,99	15,438
406,20	14,734
406,40	14,279
406,61	18,488
406,82	16,219
407,02	19,529
407,23	13,848
407,43	15,876
407,64	15,473
407,85	15,984
408,05	12,599
408,26	26,748
408,46	20,400
408,67	15,504
408,87	16,881
409,08	21,264
409,29	23,391
409,49	20,346
409,70	18,907
409,90	22,351
410,11	19,185
410,31	23,116
410,52	20,254
410,72	20,417
410,93	22,748
411,14	21,126
411,34	18,490
411,55	22,957
411,75	23,790
411,96	24,043
412,16	20,059
412,37	20,010
412,57	20,554
412,78	22,692
412,99	20,692
413,19	24,831
413,40	25,457
413,60	18,505
413,81	21,483
414,01	22,454
414,22	22,061
414,42	23,645
414,63	21,015
414,83	23,339
415,04	26,533
415,24	26,458
415,45	23,529
415,65	27,722
415,86	26,168
416,07	23,236
416,27	22,215
416,48	28,368
416,68	27,477
416,89	19,490
417,09	24,201
417,30	25,235
417,50	25,731
417,71	29,186
417,91	30,868
418,12	23,855
418,32	25,849
418,53	26,545
418,73	24,085
418,94	24,456
419,14	28,513
419,35	21,998
419,55	26,401
419,76	27,710
419,96	23,681
420,17	24,903
420,37	21,506
420,58	28,667
420,78	28,108
420,99	27,049
421,19	26,013
421,40	30,358
421,60	31,536
421,81	22,178
422,01	28,519
422,22	27,910
422,42	28,123
422,63	29,793
422,83	28,546
423,04	28,369
423,24	29,269
423,45	26,366
423,65	29,069
423,86	31,868
424,06	28,536
424,27	26,126
424,47	27,282
424,67	20,892
424,88	28,006
425,08	26,851
425,29	36,878
425,49	27,088
425,70	22,682
425,90	26,888
426,11	26,533
426,31	28,890
426,52	27,181
426,72	26,707
426,93	27,334
427,13	30,879
427,33	27,434
427,54	27,586
427,74	31,000
427,95	33,427
428,15	23,768
428,36	27,217
428,56	26,320
428,77	28,552
428,97	30,270
429,18	31,373
429,38	27,508
429,58	31,838
429,79	30,184
429,99	26,156
430,20	22,572
430,40	35,917
430,61	25,316
430,81	27,804
431,01	30,103
431,22	31,100
431,42	32,564
431,63	25,875
431,83	28,904
432,04	33,099
432,24	30,467
432,44	29,222
432,65	27,322
432,85	27,749
433,06	30,125
433,26	27,151
433,47	26,272
433,67	25,554
433,87	28,142
434,08	25,686
434,28	26,271
434,49	27,372
434,69	31,155
434,89	25,771
435,10	25,858
435,30	30,490
435,51	24,822
435,71	26,783
435,91	26,949
436,12	29,506
436,32	27,068
436,53	31,492
436,73	27,030
436,93	32,087
437,14	31,386
437,34	30,115
437,55	29,812
437,75	29,141
437,95	32,305
438,16	31,435
438,36	28,267
438,57	28,050
438,77	28,900
438,97	34,049
439,18	34,929
439,38	28,647
439,58	28,750
439,79	31,739
439,99	30,436
440,20	33,420
440,40	31,200
440,60	29,535
440,81	28,875
441,01	28,989
441,21	34,916
441,42	32,095
441,62	30,855
441,83	26,259
442,03	34,726
442,23	32,506
442,44	28,293
442,64	30,642
442,84	30,512
443,05	31,859
443,25	30,843
443,45	29,346
443,66	28,002
443,86	27,877
444,06	28,764
444,27	29,032
444,47	30,067
444,67	27,739
444,88	26,985
445,08	28,277
445,28	30,284
445,49	30,344
445,69	30,251
445,90	31,607
446,10	32,643
446,30	31,320
446,51	32,291
446,71	32,981
446,91	33,153
447,12	34,551
447,32	30,415
447,52	31,471
447,72	31,827
447,93	32,616
448,13	30,053
448,33	36,625
448,54	34,083
448,74	28,804
448,94	31,891
449,15	34,829
449,35	30,867
449,55	31,654
449,76	37,760
449,96	31,872
450,16	36,099
450,37	30,166
450,57	31,742
450,77	26,965
450,98	34,308
451,18	34,613
451,38	29,665
451,58	33,159
451,79	29,152
451,99	32,742
452,19	29,928
452,40	31,461
452,60	32,599
452,80	27,535
453,00	32,388
453,21	31,118
453,41	35,927
453,61	33,476
453,82	32,834
454,02	29,038
454,22	33,915
454,42	35,569
454,63	32,676
454,83	31,106
455,03	33,129
455,24	32,863
455,44	28,805
455,64	33,244
455,84	30,720
456,05	28,982
456,25	29,988
456,45	31,293
456,65	31,733
456,86	35,604
457,06	33,937
457,26	40,338
457,47	37,400
457,67	32,631
457,87	29,533
458,07	29,747
458,28	33,484
458,48	33,116
458,68	26,762
458,88	33,023
459,09	34,179
459,29	32,697
459,49	30,650
459,69	35,484
459,90	29,218
460,10	29,659
460,30	28,964
460,50	28,576
460,71	29,427
460,91	24,940
461,11	30,135
461,31	27,061
461,52	34,691
461,72	31,708
461,92	28,127
462,12	33,909
462,32	29,005
462,53	27,534
462,73	29,077
462,93	36,419
463,13	31,709
463,34	31,635
463,54	29,739
463,74	28,797
463,94	31,689
464,14	31,237
464,35	32,374
464,55	35,686
464,75	34,931
464,95	34,595
465,16	26,815
465,36	32,330
465,56	28,190
465,76	28,097
465,96	29,958
466,17	25,471
466,37	29,157
466,57	29,976
466,77	29,538
466,97	29,864
467,18	33,359
467,38	32,028
467,58	31,631
467,78	30,544
467,98	33,399
468,19	33,132
468,39	33,272
468,59	36,911
468,79	31,786
468,99	31,267
469,19	28,029
469,40	32,577
469,60	26,246
469,80	28,425
470,00	33,809
470,20	34,607
470,41	30,395
470,61	30,180
470,81	31,863
471,01	28,435
471,21	29,573
471,41	29,374
471,62	31,566
471,82	29,121
472,02	30,108
472,22	32,517
472,42	30,305
472,62	30,331
472,83	28,551
473,03	33,015
473,23	29,446
473,43	32,625
473,63	28,985
473,83	33,053
474,03	26,821
474,24	36,247
474,44	29,110
474,64	30,321
474,84	29,676
475,04	31,006
475,24	31,915
475,45	29,251
475,65	27,831
475,85	33,951
476,05	25,870
476,25	27,559
476,45	30,347
476,65	31,807
476,85	30,225
477,06	25,531
477,26	28,525
477,46	32,040
477,66	28,192
477,86	32,505
478,06	25,937
478,26	35,841
478,46	28,183
478,67	31,184
478,87	29,756
479,07	28,755
479,27	31,953
479,47	29,189
479,67	24,761
479,87	29,339
480,07	30,194
480,28	27,888
480,48	26,581
480,68	29,077
480,88	34,183
481,08	30,571
481,28	29,333
481,48	28,484
481,68	26,350
481,88	27,537
482,08	28,675
482,29	31,789
482,49	26,579
482,69	27,639
482,89	30,419
483,09	30,090
483,29	28,852
483,49	27,159
483,69	30,520
483,89	28,677
484,09	25,382
484,29	24,561
484,50	27,141
484,70	27,905
484,90	27,260
485,10	26,738
485,30	29,722
485,50	30,325
485,70	29,491
485,90	25,568
486,10	26,084
486,30	27,073
486,50	26,193
486,70	26,364
486,90	24,643
487,10	29,117
487,30	26,603
487,51	26,327
487,71	26,171
487,91	23,522
488,11	26,463
488,31	22,505
488,51	28,689
488,71	27,012
488,91	27,852
489,11	24,737
489,31	23,321
489,51	28,085
489,71	25,946
489,91	27,808
490,11	26,763
490,31	27,069
490,51	28,653
490,71	25,079
490,91	25,574
491,11	29,390
491,31	28,814
491,51	24,541
491,72	25,149
491,92	27,683
492,12	27,952
492,32	28,397
492,52	28,255
492,72	26,377
492,92	27,471
493,12	25,863
493,32	26,001
493,52	26,545
493,72	24,295
493,92	28,899
494,12	27,114
494,32	29,763
494,52	26,869
494,72	26,218
494,92	24,866
495,12	28,853
495,32	30,587
495,52	23,995
495,72	27,243
495,92	28,057
496,12	28,417
496,32	24,371
496,52	27,308
496,72	26,049
496,92	27,823
497,12	26,476
497,32	26,920
497,52	29,678
497,72	30,702
497,92	27,481
498,12	26,879
498,32	25,246
498,52	24,860
498,72	25,497
498,92	25,718
499,12	27,328
499,32	24,987
499,52	27,552
499,72	27,983
499,92	26,516
500,12	28,322
500,32	27,202
500,52	26,066
500,72	31,180
500,91	28,237
501,11	25,734
501,31	24,443
501,51	28,394
501,71	28,250
501,91	29,208
502,11	26,852
502,31	27,911
502,51	27,282
502,71	25,734
502,91	25,503
503,11	27,171
503,31	28,127
503,51	23,664
503,71	27,374
503,91	27,211
504,11	26,842
504,31	26,536
504,51	25,611
504,71	28,898
504,91	27,003
505,10	26,042
505,30	24,666
505,50	25,061
505,70	24,878
505,90	26,660
506,10	24,484
506,30	25,357
506,50	26,892
506,70	28,489
506,90	24,283
507,10	26,766
507,30	25,563
507,50	26,596
507,70	25,665
507,89	27,934
508,09	27,677
508,29	24,696
508,49	24,533
508,69	22,889
508,89	25,474
509,09	22,810
509,29	24,622
509,49	24,549
509,69	30,875
509,89	25,839
510,09	25,487
510,28	26,671
510,48	25,635
510,68	23,642
510,88	25,114
511,08	23,777
511,28	24,224
511,48	22,812
511,68	22,149
511,88	20,136
512,07	23,216
512,27	24,163
512,47	21,247
512,67	21,438
512,87	20,621
513,07	25,221
513,27	19,862
513,47	23,873
513,67	20,802
513,86	23,947
514,06	23,703
514,26	24,014
514,46	25,784
514,66	22,948
514,86	23,963
515,06	27,519
515,26	24,450
515,45	23,218
515,65	21,226
515,85	23,486
516,05	21,873
516,25	21,299
516,45	26,562
516,65	22,163
516,84	24,680
517,04	26,059
517,24	22,561
517,44	23,445
517,64	23,864
517,84	24,115
518,04	23,477
518,23	27,254
518,43	26,137
518,63	19,817
518,83	23,518
519,03	26,038
519,23	23,635
519,42	19,699
519,62	18,108
519,82	22,150
520,02	22,887
520,22	21,267
520,42	21,657
520,61	21,726
520,81	24,213
521,01	24,992
521,21	19,196
521,41	21,308
521,61	24,417
521,80	21,003
522,00	22,029
522,20	23,118
522,40	24,980
522,60	22,522
522,79	20,758
522,99	22,413
523,19	19,725
523,39	20,423
523,59	21,634
523,78	25,929
523,98	20,269
524,18	20,335
524,38	20,922
524,58	21,925
524,77	23,358
524,97	20,279
525,17	21,561
525,37	20,906
525,57	26,178
525,76	20,510
525,96	23,501
526,16	20,444
526,36	20,116
526,56	20,512
526,75	18,976
526,95	21,976
527,15	20,774
527,35	21,065
527,55	22,119
527,74	23,077
527,94	19,929
528,14	18,670
528,34	20,487
528,53	21,401
528,73	20,356
528,93	20,430
529,13	17,450
529,32	20,968
529,52	23,398
529,72	20,169
529,92	21,344
530,12	21,403
530,31	15,882
530,51	19,322
530,71	21,591
530,91	19,807
531,10	16,134
531,30	22,616
531,50	17,232
531,70	23,786
531,89	15,690
532,09	16,987
532,29	20,134
532,49	20,515
532,68	18,509
532,88	20,199
533,08	19,308
533,28	16,904
533,47	18,655
533,67	18,663
533,87	17,345
534,06	23,789
534,26	20,606
534,46	16,812
534,66	19,593
534,85	21,637
535,05	15,654
535,25	17,249
535,45	17,965
535,64	19,657
535,84	18,026
536,04	16,989
536,23	15,596
536,43	19,427
536,63	19,444
536,83	17,852
537,02	17,503
537,22	17,618
537,42	18,637
537,61	16,707
537,81	17,728
538,01	18,711
538,20	17,559
538,40	17,959
538,60	17,840
538,80	17,133
538,99	16,081
539,19	16,281
539,39	16,266
539,58	16,775
539,78	14,224
539,98	15,525
540,17	12,921
540,37	14,385
540,57	14,716
540,76	13,390
540,96	12,648
541,16	15,180
541,36	12,529
541,55	9,833
541,75	10,359
541,95	12,611
542,14	12,518
542,34	10,963
542,54	11,413
542,73	13,456
542,93	12,192
543,13	11,479
543,32	12,119
543,52	11,446
543,72	11,011
543,91	12,488
544,11	11,671
544,31	11,929
544,50	11,526
544,70	12,115
544,89	12,217
545,09	13,775
545,29	11,660
545,48	12,522
545,68	11,724
545,88	13,654
546,07	12,963
546,27	10,794
546,47	14,538
546,66	12,623
546,86	14,688
547,06	14,008
547,25	14,434
547,45	15,230
547,64	14,155
547,84	16,126
548,04	13,042
548,23	17,258
548,43	15,283
548,63	16,861
548,82	16,325
549,02	15,021
549,21	15,540
549,41	15,827
549,61	15,074
549,80	13,131
550,00	14,864
550,20	14,777
550,39	14,647
550,59	15,430
550,78	15,652
550,98	13,143
551,18	17,301
551,37	16,072
551,57	15,776
551,76	15,599
551,96	14,905
552,16	12,529
552,35	17,395
552,55	15,542
552,74	16,654
552,94	17,692
553,14	17,330
553,33	15,744
553,53	15,457
553,72	15,261
553,92	16,897
554,12	17,040
554,31	19,360
554,51	17,826
554,70	15,598
554,90	17,996
555,09	17,461
555,29	17,838
555,49	13,815
555,68	17,686
555,88	14,915
556,07	16,777
556,27	18,472
556,46	16,386
556,66	14,556
556,86	19,844
557,05	16,545
557,25	18,099
557,44	15,328
557,64	16,168
557,83	16,119
558,03	16,514
558,22	16,248
558,42	15,781
558,62	18,563
558,81	17,386
559,01	15,994
559,20	16,499
559,40	17,488
559,59	15,582
559,79	15,092
559,98	18,522
560,18	16,484
560,37	16,230
560,57	16,819
560,76	15,331
560,96	14,294
561,16	17,308
561,35	14,665
561,55	20,850
561,74	15,377
561,94	17,878
562,13	15,437
562,33	18,671
562,52	16,614
562,72	15,078
562,91	15,471
563,11	16,867
563,30	19,911
563,50	15,756
563,69	15,706
563,89	17,720
564,08	16,437
564,28	15,055
564,47	16,738
564,67	14,970
564,86	17,642
565,06	17,224
565,25	16,491
565,45	17,401
565,64	19,886
565,84	16,915
566,03	15,578
566,23	18,390
566,42	16,038
566,62	16,629
566,81	17,126
567,01	17,894
567,20	18,615
567,40	14,040
567,59	16,995
567,79	18,299
567,98	18,836
568,18	19,378
568,37	17,658
568,57	17,025
568,76	19,225
568,96	15,616
569,15	17,598
569,35	17,132
569,54	18,056
569,73	16,899
569,93	16,435
570,12	18,761
570,32	16,910
570,51	16,874
570,71	16,147
570,90	19,490
571,10	16,403
571,29	16,283
571,49	14,939
571,68	17,858
571,87	16,836
572,07	17,988
572,26	15,281
572,46	17,008
572,65	16,783
572,85	15,465
573,04	18,259
573,24	16,465
573,43	19,238
573,62	19,249
573,82	20,263
574,01	16,655
574,21	17,909
574,40	17,137
574,60	16,580
574,79	19,754
574,98	17,995
575,18	19,181
575,37	17,397
575,57	17,784
575,76	18,771
575,96	18,702
576,15	17,194
576,34	18,312
576,54	18,869
576,73	19,608
576,93	17,975
577,12	18,793
577,31	18,635
577,51	18,148
577,70	17,434
577,90	17,567
578,09	18,333
578,28	17,850
578,48	19,130
578,67	20,360
578,87	18,633
579,06	17,399
579,25	20,359
579,45	19,515
579,64	18,226
579,84	17,875
580,03	17,352
580,22	22,009
580,42	18,121
580,61	18,843
580,81	17,828
581,00	20,093
581,19	18,890
581,39	18,394
581,58	18,249
581,77	19,569
581,97	21,052
582,16	19,572
582,35	18,144
582,55	18,681
582,74	21,509
582,94	18,767
583,13	17,869
583,32	21,012
583,52	19,859
583,71	19,958
583,90	20,984
584,10	18,853
584,29	21,124
584,48	19,074
584,68	19,673
584,87	20,147
585,06	22,369
585,26	19,050
585,45	19,631
585,65	20,993
585,84	19,319
586,03	20,132
586,23	18,967
586,42	20,376
586,61	22,431
586,81	20,686
587,00	20,793
587,19	20,267
587,39	22,787
587,58	20,114
587,77	22,554
587,97	19,765
588,16	19,943
588,35	21,365
588,54	21,458
588,74	21,073
588,93	22,861
589,12	21,228
589,32	22,215
589,51	21,867
589,70	19,741
589,90	19,509
590,09	21,387
590,28	24,470
590,48	21,710
590,67	22,944
590,86	23,386
591,06	23,745
591,25	22,925
591,44	23,759
591,63	22,996
591,83	23,911
592,02	22,892
592,21	23,256
592,41	22,948
592,60	24,698
592,79	22,908
592,98	24,701
593,18	24,024
593,37	23,257
593,56	25,500
593,76	23,992
593,95	23,366
594,14	23,500
594,33	27,869
594,53	24,712
594,72	23,789
594,91	27,697
595,10	26,331
595,30	24,548
595,49	25,602
595,68	26,224
595,88	25,060
596,07	25,242
596,26	26,837
596,45	26,293
596,65	23,089
596,84	26,058
597,03	24,766
597,22	27,493
597,42	28,434
597,61	26,964
597,80	27,362
597,99	26,264
598,19	26,435
598,38	27,689
598,57	26,239
598,76	27,162
598,95	28,299
599,15	28,584
599,34	26,768
599,53	28,850
599,72	28,437
599,92	28,036
600,11	27,671
600,30	29,207
600,49	28,943
600,69	27,826
600,88	29,102
601,07	28,532
601,26	29,639
601,45	29,376
601,65	27,086
601,84	27,621
602,03	29,069
602,22	30,291
602,42	30,004
602,61	29,448
602,80	29,439
602,99	30,298
603,18	29,240
603,38	29,522
603,57	28,835
603,76	29,940
603,95	28,147
604,14	29,819
604,34	30,555
604,53	29,931
604,72	30,507
604,91	32,077
605,10	31,469
605,29	29,919
605,49	28,757
605,68	30,705
605,87	32,369
606,06	30,679
606,25	28,725
606,45	31,319
606,64	31,224
606,83	31,448
607,02	29,421
607,21	31,999
607,40	30,670
607,60	29,907
607,79	30,005
607,98	28,336
608,17	27,608
608,36	28,612
608,55	27,914
608,75	28,435
608,94	28,268
609,13	26,120
609,32	25,034
609,51	25,650
609,70	26,610
609,89	26,493
610,09	26,378
610,28	27,753
610,47	26,506
610,66	25,592
610,85	24,434
611,04	26,884
611,23	24,322
611,43	24,939
611,62	24,425
611,81	25,208
612,00	27,874
612,19	25,302
612,38	26,156
612,57	27,102
612,77	28,586
612,96	26,368
613,15	27,719
613,34	29,469
613,53	29,529
613,72	29,940
613,91	29,799
614,10	30,473
614,29	30,581
614,49	29,462
614,68	29,005
614,87	29,786
615,06	34,604
615,25	28,801
615,44	32,106
615,63	30,220
615,82	30,816
616,01	31,458
616,21	30,785
616,40	31,584
616,59	34,873
616,78	31,863
616,97	31,267
617,16	32,171
617,35	34,128
617,54	31,780
617,73	33,181
617,92	31,787
618,11	34,603
618,31	28,617
618,50	33,560
618,69	34,419
618,88	31,403
619,07	30,814
619,26	32,434
619,45	32,000
619,64	31,978
619,83	30,851
620,02	32,186
620,21	32,816
620,40	35,215
620,59	32,417
620,78	30,705
620,97	33,740
621,17	30,374
621,36	33,690
621,55	32,797
621,74	33,044
621,93	34,303
622,12	33,183
622,31	31,326
622,50	33,799
622,69	35,393
622,88	34,874
623,07	34,034
623,26	34,952
623,45	36,081
623,64	33,883
623,83	32,399
624,02	34,383
624,21	36,020
624,40	35,812
624,59	31,337
624,78	34,367
624,97	34,641
625,16	31,581
625,35	31,541
625,54	33,966
625,73	33,296
625,92	35,309
626,12	35,310
626,31	36,174
626,50	35,799
626,69	35,761
626,88	33,797
627,07	35,426
627,26	34,462
627,45	33,390
627,64	33,268
627,83	35,214
628,02	34,077
628,21	32,602
628,40	32,228
628,59	35,613
628,78	33,697
628,97	32,364
629,16	31,893
629,35	33,633
629,54	35,323
629,73	32,463
629,92	32,123
630,10	33,719
630,29	34,747
630,48	34,104
630,67	33,375
630,86	34,005
631,05	35,033
631,24	35,295
631,43	32,486
631,62	34,883
631,81	35,724
632,00	34,112
632,19	32,985
632,38	35,694
632,57	35,679
632,76	35,711
632,95	35,992
633,14	35,823
633,33	35,554
633,52	35,336
633,71	35,652
633,90	35,132
634,09	34,015
634,28	35,151
634,47	32,384
634,66	34,762
634,85	34,029
635,04	36,927
635,22	35,832
635,41	34,911
635,60	37,045
635,79	35,680
635,98	35,635
636,17	35,597
636,36	36,162
636,55	34,200
636,74	34,870
636,93	35,093
637,12	34,687
637,31	34,087
637,50	35,252
637,69	37,190
637,87	37,162
638,06	35,446
638,25	35,724
638,44	37,318
638,63	34,995
638,82	34,981
639,01	36,486
639,20	35,919
639,39	35,461
639,58	34,529
639,77	35,849
639,95	35,789
640,14	37,826
640,33	34,381
640,52	35,226
640,71	36,632
640,90	34,445
641,09	36,075
641,28	33,368
641,47	35,802
641,66	37,193
641,84	34,813
642,03	35,600
642,22	36,540
642,41	36,434
642,60	35,178
642,79	35,662
642,98	36,545
643,17	32,661
643,35	35,038
643,54	35,792
643,73	37,074
643,92	36,913
644,11	34,393
644,30	34,773
644,49	36,807
644,67	35,712
644,86	33,387
645,05	38,383
645,24	35,207
645,43	35,889
645,62	37,194
645,81	35,121
645,99	38,411
646,18	36,801
646,37	35,449
646,56	36,326
646,75	37,204
646,94	39,505
647,13	35,984
647,31	35,559
647,50	36,750
647,69	37,043
647,88	37,143
648,07	35,424
648,26	39,096
648,44	37,104
648,63	35,159
648,82	34,333
649,01	36,648
649,20	35,335
649,38	37,713
649,57	35,601
649,76	35,022
649,95	38,040
650,14	34,940
650,33	34,134
650,51	35,605
650,70	36,141
650,89	34,752
651,08	36,462
651,27	37,254
651,45	34,268
651,64	33,352
651,83	36,480
652,02	36,203
652,21	37,444
652,39	36,383
652,58	38,197
652,77	37,199
652,96	36,918
653,15	36,840
653,33	35,576
653,52	39,769
653,71	39,841
653,90	37,152
654,09	37,685
654,27	38,998
654,46	38,990
654,65	39,032
654,84	38,247
655,02	38,770
655,21	39,120
655,40	41,059
655,59	38,948
655,77	40,122
655,96	39,123
656,15	38,418
656,34	39,525
656,53	38,867
656,71	39,722
656,90	39,608
657,09	38,140
657,28	37,991
657,46	38,087
657,65	37,181
657,84	35,719
658,03	38,233
658,21	38,147
658,40	36,015
658,59	36,145
658,78	38,524
658,96	37,157
659,15	35,460
659,34	36,430
659,52	36,371
659,71	35,362
659,90	34,275
660,09	36,193
660,27	36,740
660,46	37,645
660,65	36,885
660,84	36,137
661,02	37,458
661,21	35,939
661,40	37,327
661,58	35,961
661,77	36,033
661,96	32,926
662,15	35,917
662,33	33,941
662,52	35,032
662,71	35,685
662,89	33,547
663,08	35,777
663,27	35,667
663,45	34,802
663,64	36,711
663,83	34,525
664,02	34,597
664,20	34,456
664,39	33,275
664,58	35,350
664,76	34,130
664,95	35,913
665,14	34,468
665,32	34,307
665,51	35,211
665,70	35,295
665,88	38,457
666,07	35,545
666,26	35,872
666,44	35,835
666,63	33,875
666,82	34,932
667,00	36,276
667,19	33,013
667,38	34,576
667,56	35,308
667,75	35,607
667,94	36,534
668,12	32,747
668,31	36,027
668,50	34,205
668,68	37,441
668,87	35,309
669,06	35,643
669,24	36,537
669,43	32,430
669,62	33,685
669,80	34,186
669,99	35,971
670,18	34,756
670,36	32,759
670,55	35,665
670,74	34,635
670,92	32,880
671,11	35,271
671,29	35,217
671,48	34,791
671,67	33,899
671,85	33,541
672,04	33,770
672,23	33,791
672,41	34,396
672,60	34,053
672,78	34,390
672,97	33,200
673,16	34,052
673,34	34,699
673,53	33,193
673,71	35,192
673,90	36,029
674,09	34,657
674,27	34,198
674,46	34,931
674,64	35,180
674,83	34,354
675,02	31,919
675,20	33,223
675,39	33,249
675,57	34,022
675,76	33,205
675,95	36,039
676,13	35,237
676,32	34,803
676,50	33,604
676,69	31,981
676,88	33,161
677,06	35,093
677,25	33,774
677,43	36,149
677,62	34,870
677,80	35,157
677,99	33,595
678,18	35,281
678,36	35,327
678,55	33,706
678,73	33,107
678,92	35,359
679,10	34,838
679,29	33,900
679,48	33,614
679,66	33,114
679,85	34,981
680,03	33,998
680,22	33,484
680,40	33,113
680,59	32,809
680,77	34,126
680,96	33,626
681,15	34,210
681,33	36,563
681,52	32,478
681,70	34,335
681,89	36,469
682,07	34,955
682,26	34,794
682,44	35,276
682,63	35,026
682,81	34,293
683,00	35,792
683,18	33,421
683,37	35,506
683,55	32,829
683,74	33,537
683,92	39,030
684,11	35,995
684,29	35,552
684,48	32,150
684,67	35,131
684,85	34,807
685,04	34,994
685,22	34,267
685,41	34,969
685,59	37,037
685,78	35,430
685,96	34,428
686,15	35,861
686,33	34,449
686,52	36,528
686,70	36,118
686,89	35,686
687,07	38,032
687,26	37,415
687,44	35,045
687,62	34,127
687,81	35,362
687,99	35,808
688,18	36,602
688,36	36,290
688,55	35,471
688,73	36,531
688,92	33,843
689,10	37,627
689,29	36,586
689,47	37,574
689,66	35,782
689,84	36,177
690,03	37,288
690,21	36,087
690,40	35,991
690,58	35,064
690,76	34,730
690,95	35,771
691,13	35,347
691,32	37,149
691,50	37,412
691,69	37,199
691,87	33,813
692,06	35,375
692,24	35,006
692,43	37,715
692,61	34,000
692,79	35,945
692,98	34,626
693,16	38,082
693,35	36,360
693,53	36,129
693,72	37,719
693,90	36,864
694,08	34,491
694,27	35,907
694,45	38,006
694,64	38,653
694,82	37,275
695,01	35,025
695,19	36,082
695,37	36,016
695,56	36,129
695,74	37,997
695,93	36,600
696,11	35,333
696,29	36,845
696,48	37,247
696,66	37,360
696,85	37,607
697,03	35,458
697,21	36,988
697,40	37,946
697,58	37,956
697,77	37,121
697,95	38,413
698,13	39,407
698,32	36,354
698,50	36,149
698,69	35,924
698,87	36,915
699,05	36,514
699,24	36,204
699,42	36,864
699,60	34,316
699,79	35,748
699,97	35,948
700,16	34,697
700,34	37,638
700,52	37,645
700,71	35,443
700,89	36,577
701,07	37,981
701,26	37,002
701,44	35,897
701,63	36,401
701,81	36,840
701,99	37,508
702,18	35,201
702,36	36,432
702,54	36,347
702,73	35,293
702,91	36,156
703,09	35,825
703,28	37,120
703,46	36,737
703,64	35,919
703,83	36,510
704,01	38,439
704,19	36,522
704,38	34,096
704,56	34,559
704,74	38,057
704,93	37,036
705,11	38,394
705,29	36,638
705,48	39,641
705,66	35,626
705,84	36,480
706,03	35,470
706,21	37,334
706,39	37,430
706,58	35,115
706,76	35,549
706,94	37,626
707,12	36,079
707,31	37,045
707,49	34,799
707,67	37,162
707,86	37,982
708,04	35,888
708,22	36,335
708,41	36,466
708,59	35,206
708,77	35,410
708,95	35,456
709,14	40,724
709,32	36,141
709,50	35,982
709,69	36,097
709,87	36,322
710,05	36,583
710,23	35,098
710,42	36,573
710,60	38,070
710,78	35,954
710,97	35,323
711,15	36,185
711,33	38,302
711,51	35,863
711,70	35,155
711,88	34,333
712,06	37,800
712,24	37,342
712,43	35,979
712,61	35,241
712,79	36,297
712,97	35,712
713,16	36,947
713,34	36,464
713,52	34,960
713,70	36,951
713,89	34,867
714,07	37,912
714,25	37,147
714,43	37,112
714,62	36,585
714,80	39,370
714,98	35,446
715,16	36,720
715,35	34,654
715,53	35,525
715,71	36,917
715,89	37,802
716,07	35,816
716,26	39,021
716,44	36,884
716,62	37,146
716,80	37,653
716,99	38,287
717,17	38,770
717,35	36,191
717,53	36,937
717,71	35,364
717,90	36,336
718,08	36,867
718,26	34,523
718,44	37,629
718,62	37,236
718,81	34,861
718,99	34,049
719,17	36,122
719,35	35,413
719,53	36,426
719,72	35,067
719,90	36,754
720,08	36,839
720,26	37,690
720,44	35,329
720,62	34,989
720,81	39,374
720,99	38,636
721,17	36,574
721,35	38,175
721,53	37,633
721,72	36,989
721,90	38,986
722,08	36,942
722,26	37,769
722,44	36,837
722,62	35,595
722,81	35,877
722,99	36,950
723,17	38,570
723,35	37,572
723,53	35,758
723,71	38,604
723,89	39,277
724,08	36,219
724,26	34,798
724,44	33,399
724,62	39,301
724,80	35,409
724,98	35,631
725,16	38,377
725,35	36,876
725,53	35,974
725,71	35,753
725,89	37,524
726,07	39,955
726,25	38,013
726,43	36,350
726,61	36,659
726,80	39,654
726,98	35,117
727,16	36,899
727,34	38,881
727,52	38,196
727,70	36,564
727,88	36,223
728,06	35,864
728,25	34,730
728,43	37,352
728,61	36,901
728,79	36,725
728,97	36,941
729,15	37,710
729,33	36,445
729,51	37,207
729,69	39,057
729,87	37,355
730,06	37,438
730,24	36,455
730,42	39,866
730,60	35,452
730,78	38,097
730,96	36,759
731,14	39,039
731,32	35,806
731,50	34,733
731,68	37,188
731,86	37,208
732,04	38,636
732,22	36,106
732,41	38,873
732,59	37,960
732,77	39,773
732,95	39,290
733,13	37,986
733,31	36,655
733,49	37,430
733,67	38,573
733,85	36,866
734,03	37,475
734,21	35,776
734,39	37,172
734,57	37,351
734,75	37,359
734,93	35,642
735,11	35,521
735,29	36,656
735,47	38,988
735,65	36,973
735,84	34,825
736,02	36,039
736,20	40,105
736,38	35,395
736,56	37,061
736,74	37,334
736,92	37,949
737,10	35,750
737,28	37,783
737,46	38,257
737,64	36,265
737,82	37,220
738,00	38,569
738,18	38,543
738,36	36,630
738,54	37,931
738,72	35,920
738,90	37,478
739,08	39,184
739,26	34,573
739,44	36,620
739,62	36,323
739,80	37,573
739,98	36,707
740,16	37,224
740,34	36,439
740,52	40,401
740,70	36,865
740,88	34,668
741,06	37,145
741,24	38,485
741,42	38,923
741,60	36,442
741,78	38,406
741,96	35,950
742,14	37,583
742,32	34,625
742,50	36,830
742,68	37,039
742,86	36,733
743,04	36,491
743,21	38,225
743,39	38,416
743,57	36,328
743,75	36,349
743,93	35,372
744,11	34,502
744,29	36,294
744,47	36,458
744,65	36,076
744,83	37,882
745,01	35,793
745,19	37,933
745,37	38,203
745,55	38,568
745,73	38,042
745,91	37,284
746,09	36,639
746,27	34,400
746,45	34,959
746,62	36,285
746,80	37,206
746,98	36,745
747,16	35,811
747,34	37,410
747,52	36,748
747,70	37,846
747,88	35,285
748,06	34,467
748,24	35,615
748,42	37,837
748,60	36,187
748,78	35,613
748,95	37,108
749,13	39,534
749,31	37,311
749,49	36,530
749,67	38,201
749,85	38,651
750,03	37,443
750,21	35,809
750,39	38,551
750,57	39,682
750,74	37,903
750,92	36,213
751,10	39,203
751,28	35,658
751,46	36,462
751,64	38,319
751,82	39,058
752,00	36,716
752,17	37,559
752,35	36,286
752,53	37,777
752,71	36,152
752,89	37,093
753,07	36,205
753,25	38,755
753,43	35,117
753,60	37,765
753,78	34,778
753,96	39,194
754,14	36,003
754,32	37,851
754,50	38,320
754,68	38,174
754,85	36,500
755,03	38,390
755,21	36,974
755,39	39,787
755,57	37,953
755,75	36,757
755,92	35,587
756,10	38,915
756,28	39,296
756,46	35,304
756,64	37,421
756,82	36,899
756,99	38,474
757,17	37,914
757,35	36,080
757,53	40,257
757,71	38,059
757,89	35,750
758,06	37,439
758,24	38,345
758,42	39,051
758,60	37,054
758,78	36,085
758,95	37,761
759,13	38,794
759,31	37,481
759,49	34,770
759,67	37,343
759,84	37,485
760,02	37,001
760,20	37,125
760,38	37,358
760,56	35,928
760,73	38,034
760,91	38,241
761,09	38,124
761,27	37,330
761,45	37,838
761,62	37,205
761,80	37,386
761,98	38,959
762,16	38,342
762,33	35,711
762,51	39,118
762,69	37,082
762,87	37,524
763,05	39,099
763,22	35,488
763,40	35,238
763,58	36,540
763,76	37,030
763,93	38,602
764,11	38,675
764,29	37,697
764,47	38,610
764,64	37,021
764,82	38,475
765,00	36,745
765,18	35,269
765,35	35,942
765,53	38,404
765,71	36,744
765,89	36,801
766,06	36,286
766,24	37,742
766,42	37,321
766,60	35,386
766,77	38,136
766,95	36,959
767,13	36,462
767,30	36,127
767,48	36,616
767,66	36,088
767,84	33,808
768,01	36,849
768,19	38,256
768,37	37,135
768,54	35,285
768,72	38,665
768,90	38,082
769,08	36,337
769,25	39,080
769,43	36,197
769,61	36,607
769,78	39,480
769,96	36,010
770,14	38,265
770,31	38,052
770,49	38,089
770,67	38,798
770,85	36,501
771,02	37,637
771,20	37,060
771,38	38,026
771,55	34,747
771,73	37,477
771,91	35,498
772,08	38,078
772,26	37,238
772,44	35,838
772,61	36,993
772,79	36,384
772,97	35,127
773,14	34,094
773,32	36,472
773,50	36,817
773,67	38,128
773,85	39,079
774,03	38,764
774,20	34,937
774,38	36,750
774,56	35,157
774,73	35,514
774,91	36,270
775,09	37,936
775,26	38,830
775,44	37,388
775,61	37,144
775,79	35,231
775,97	37,244
776,14	37,327
776,32	34,977
776,50	36,180
776,67	36,460
776,85	39,222
777,03	35,103
777,20	36,558
777,38	36,988
777,55	36,369
777,73	34,288
777,91	36,999
778,08	38,035
778,26	37,516
778,43	39,364
778,61	34,006
778,79	35,670
778,96	37,551
779,14	35,591
779,32	37,820
779,49	37,478
779,67	38,155
779,84	37,924
780,02	37,436
780,20	34,589
780,37	38,945
780,55	31,425
780,72	38,952
780,90	39,774
781,07	38,408
781,25	38,924
781,43	38,818
781,60	35,903
781,78	38,298
781,95	38,645
782,13	36,060
782,30	40,448
782,48	36,365
782,66	36,783
782,83	36,891
783,01	38,008
783,18	38,019
783,36	38,306
783,53	38,635
783,71	35,757
783,89	37,642
784,06	39,008
784,24	37,463
784,41	40,020
784,59	38,131
784,76	36,578
784,94	36,940
785,11	36,381
785,29	37,186
785,46	38,614
785,64	37,963
785,82	37,931
785,99	40,295
786,17	37,350
786,34	37,408
786,52	39,574
786,69	38,963
786,87	38,479
787,04	39,053
787,22	34,740
787,39	38,784
787,57	38,478
787,74	37,816
787,92	39,831
788,09	38,769
788,27	35,923
788,44	37,290
788,62	39,150
788,79	37,759
788,97	40,046
789,14	36,224
789,32	38,863
789,49	38,023
789,67	38,001
789,84	39,205
790,02	38,590
790,19	38,505
790,37	40,073
790,54	38,538
790,72	41,624
790,89	41,122
791,07	40,391
791,24	37,740
791,42	40,533
791,59	37,717
791,77	39,326
791,94	37,058
792,12	37,639
792,29	39,703
792,47	37,726
792,64	41,872
792,81	39,973
792,99	36,964
793,16	38,162
793,34	38,109
793,51	41,142
793,69	39,953
793,86	37,942
794,04	37,760
794,21	40,776
794,39	36,997
794,56	38,877
794,73	37,818
794,91	37,645
795,08	38,991
795,26	38,106
795,43	37,884
795,61	39,411
795,78	40,982
795,95	41,308
796,13	39,712
796,30	38,526
796,48	36,607
796,65	37,512
796,83	38,445
797,00	40,384
797,17	35,430
797,35	39,388
797,52	38,760
797,70	44,071
797,87	36,457
798,04	37,040
798,22	40,648
798,39	38,431
798,57	36,874
798,74	36,619
798,91	40,192
799,09	37,761
799,26	40,536
799,44	37,457
799,61	36,284
799,78	37,702
799,96	37,128
800,13	37,563
800,31	38,570
800,48	40,923
800,65	42,103
800,83	35,910
801,00	37,770
801,17	38,063
801,35	42,510
801,52	38,297
801,70	41,164
801,87	39,668
802,04	41,997
802,22	38,852
802,39	37,937
802,56	43,947
802,74	41,500
802,91	37,849
803,08	35,046
803,26	41,295
803,43	40,374
803,61	37,879
803,78	37,472
803,95	39,317
804,13	40,680
804,30	41,852
804,47	42,265
804,65	37,992
804,82	37,050
804,99	43,441
805,17	35,862
805,34	43,281
805,51	42,140
805,69	36,538
805,86	37,849
806,03	41,370
806,21	40,213
806,38	39,984
806,55	39,750
806,72	43,448
806,90	43,594
807,07	42,135
807,24	38,010
807,42	39,149
807,59	39,264
807,76	36,446
807,94	39,160
808,11	43,201
808,28	42,135
808,45	39,367
808,63	38,478
808,80	41,013
808,97	40,586
809,15	40,736
809,32	40,943
809,49	36,334
809,67	45,780
809,84	41,840
810,01	41,544
810,18	46,402
810,36	42,609
810,53	42,622
810,70	38,837
810,87	41,008
811,05	39,960
811,22	40,282
811,39	40,294
811,57	42,944
811,74	40,214
811,91	41,598
812,08	40,193
812,26	39,244
812,43	38,792
812,60	41,467
812,77	36,061
812,95	46,021
813,12	47,414
813,29	36,682
813,46	40,978
813,64	38,091
813,81	43,197
813,98	42,259
814,15	41,504
814,32	42,333
814,50	47,128
814,67	41,434
814,84	38,833
815,01	44,096
815,19	34,564
815,36	34,209
815,53	42,913
815,70	39,791
815,87	40,774
816,05	35,851
816,22	39,825
816,39	42,582
816,56	46,569
816,74	43,389
816,91	40,782
817,08	47,387
817,25	46,562
817,42	39,417
817,60	40,278
817,77	37,653
817,94	42,938
818,11	36,655
818,28	38,966
818,45	43,371
818,63	41,887
818,80	39,469
818,97	38,849
819,14	48,515
819,31	48,344
819,49	44,770
819,66	40,640
819,83	37,399
820,00	43,878
820,17	38,819
820,34	44,079
820,52	48,293
820,69	43,876
820,86	38,883
821,03	43,185
821,20	43,271
821,37	46,041
821,55	37,194
821,72	36,878
821,89	41,427
822,06	46,068
822,23	40,223
822,40	44,003
822,57	42,779
822,75	46,294
822,92	38,102
823,09	37,137
823,26	42,963
823,43	51,467
823,60	36,784
823,77	43,268
823,94	47,158
824,12	51,522
824,29	40,385
824,46	36,581
824,63	46,015
824,80	43,207
824,97	42,747
825,14	43,745
825,31	46,950
825,49	41,868
825,66	45,687
825,83	43,122
826,00	40,517
826,17	50,385
826,34	43,210
826,51	38,824
826,68	42,276
826,85	42,695
827,02	41,466
827,20	38,188
827,37	43,724
827,54	40,925
827,71	41,606
827,88	42,541
828,05	46,127
828,22	42,346
828,39	51,134
828,56	46,894
828,73	43,317
828,90	45,868
829,07	40,311
829,25	39,649
829,42	50,872
829,59	47,079
829,76	41,606
829,93	43,665
830,10	44,712
830,27	38,961
830,44	49,817
830,61	39,767
830,78	52,211
830,95	43,377
831,12	44,496
831,29	41,104
831,46	41,783
831,63	44,247
831,80	41,128
831,97	43,338
832,14	45,241
832,31	47,922
832,48	42,683
832,65	42,123
832,83	44,724
833,00	53,035
833,17	43,469
833,34	46,422
833,51	42,259
833,68	52,387
833,85	47,981
834,02	39,395
834,19	46,395
834,36	50,107
834,53	36,694
834,70	45,215
834,87	56,291
835,04	37,062
835,21	51,747
835,38	35,146
835,55	45,472
835,72	56,222
835,89	44,373
836,06	43,958
836,23	55,358
836,40	41,417
836,57	40,305
836,74	45,295
836,91	49,545
837,08	48,209
837,25	46,643
837,42	32,400
837,59	47,629
837,76	47,756
837,93	45,913
838,09	40,276
838,26	47,587
838,43	53,916
838,60	40,741
838,77	46,943
838,94	59,556
839,11	45,479
839,28	42,547
839,45	46,196
839,62	44,122
839,79	40,860
839,96	43,445
840,13	53,794
840,30	40,291
840,47	42,381
840,64	41,980
840,81	45,843
840,98	43,142
841,15	49,322
841,32	33,041
841,48	58,504
841,65	49,657
841,82	47,256
841,99	44,027
842,16	40,662
842,33	43,476
842,50	51,008
842,67	45,356
842,84	44,288
843,01	40,587
843,18	42,216
843,35	45,738
843,52	37,873
843,68	52,986
843,85	47,228
844,02	46,404
844,19	41,163
844,36	55,525
844,53	46,763
844,70	51,136
844,87	47,261
845,04	54,976
845,21	38,828
845,37	40,183
845,54	46,978
845,71	29,189
845,88	66,528
846,05	41,398
846,22	34,280
846,39	46,564
846,56	53,976
846,72	36,528
846,89	42,017
847,06	60,139
847,23	52,037
847,40	51,083
847,57	41,804
847,74	51,178
847,90	54,108
848,07	43,064
848,24	48,918
848,41	45,035
848,58	61,689
848,75	46,005
848,92	43,148
849,08	36,494
849,25	54,737
849,42	34,033
849,59	44,375
849,76	49,303
849,93	48,259
850,09	45,095
850,26	35,190
850,43	54,153
850,60	46,230
850,77	46,243
850,94	53,166
851,10	51,751
851,27	42,912
851,44	49,912
851,61	43,288
851,78	68,930
851,95	56,726
852,11	49,971
852,28	43,485
852,45	39,908
852,62	51,458
852,79	46,034
852,95	39,837
853,12	57,351
853,29	44,924
853,46	40,955
853,63	55,849
853,79	44,495
853,96	39,990
854,13	63,217
854,30	45,624
854,46	63,109
854,63	47,372
854,80	39,581
854,97	43,669
855,14	64,452
855,30	61,374
855,47	43,566
855,64	40,114
855,81	50,834
855,97	55,636
856,14	59,413
856,31	41,177
856,48	63,319
856,65	62,397
856,81	45,174
856,98	52,801
857,15	40,143
857,32	61,618
857,48	37,952
857,65	50,511
857,82	53,287
857,99	68,947
858,15	51,552
858,32	48,526
858,49	58,918
858,65	67,114
858,82	51,882
858,99	48,513
859,16	64,270
859,32	61,983
859,49	44,435
859,66	59,820
859,83	43,146
859,99	43,840
860,16	52,014
860,33	43,304
860,49	73,418
860,66	56,218
860,83	56,336
861,00	46,148
861,16	59,655
861,33	54,931
861,50	42,508
861,66	60,958
861,83	81,144
862,00	46,524
862,16	62,719
862,33	37,066
862,50	75,849
862,67	44,485
862,83	57,379
863,00	60,634
863,17	74,395
863,33	52,390
863,50	22,644
863,67	56,296
863,83	48,175
864,00	59,264
864,17	45,496
864,33	46,948
864,50	69,466
864,67	63,329
864,83	51,749
865,00	59,161
865,17	39,066
865,33	85,229
865,50	46,815
865,67	36,123
865,83	59,136
866,00	66,952
866,17	62,835
866,33	59,408
866,50	81,299
866,66	70,906
866,83	52,384
867,00	71,786
867,16	69,197
867,33	71,378
867,50	29,840
867,66	38,805
867,83	84,971
868,00	57,095
868,16	54,193
868,33	52,601
868,49	62,357
868,66	65,342
868,83	43,648
868,99	63,704
869,16	80,262
869,32	64,118
869,49	63,927
869,66	17,563
869,82	65,063
869,99	74,952
870,15	54,021
870,32	73,454
870,49	65,749
870,65	106,110
870,82	69,023
870,98	60,290
871,15	92,743
871,32	51,239
871,48	27,317
871,65	36,703
871,81	51,392
871,98	28,896
872,15	43,054
872,31	48,123
872,48	79,742
872,64	66,861
872,81	37,927
872,97	51,560
873,14	73,573
873,31	79,355
873,47	74,505
873,64	35,205
873,80	113,740
873,97	104,413
874,13	45,950
874,30	61,195
874,46	64,222
874,63	70,946
874,80	49,094
874,96	17,124
875,13	114,436
875,29	64,312
875,46	89,434
875,62	19,023
875,79	80,766
875,95	64,069
876,12	64,251
876,28	-4,112
876,45	111,247
876,61	67,524
876,78	25,717
876,94	34,726
877,11	88,760
877,27	74,159
877,44	7,859
877,60	57,893
877,77	120,217
877,94	78,996
878,10	44,336
878,27	86,436
878,43	117,451
878,60	41,907
878,76	50,996
878,93	44,580
879,09	78,223
879,26	90,655
879,42	73,313
879,58	51,264
879,75	93,068
879,91	104,163
880,08	-51,546
880,24	37,637
880,41	42,801
880,57	103,499
880,74	39,966
880,90	18,213
881,07	94,286
881,23	87,233
881,40	34,772
881,56	94,422
881,73	112,538
881,89	88,569
882,06	40,334
882,22	117,985
882,38	113,420
882,55	129,958
882,71	59,964
882,88	21,451
883,04	130,112
883,21	177,438
883,37	59,166
883,54	92,916
883,70	180,929
883,86	51,813
884,03	89,506
884,19	35,062
884,36	-33,360
884,52	173,561
884,69	32,468
884,85	54,895
885,01	101,914
885,18	99,913
885,34	-23,459
885,51	14,405
885,67	62,223
>>>>> Data<<<<< Espectral Procesado Extremo
