Fichero De Datos De SpectraSuite
++++++++++++++++++++++++++++++++++++
Fecha: Wed Apr 22 11:18:58 CEST 2009
Usuario: evoflor
Presente Oscuro Del Espectro: Sí
La Referencia de Presente Del Espectro De: Sí
Muestreados de los componentes de Número de espectros: 1
Espectrómetros: USB4F02353
Tiempo de integración (usec): 500000 (USB4F02353)
Promedio de Espectros Hechos un: 5 (USB4F02353)
El Alisar Del Furgón: 0 (USB4F02353)
Párrafo de de Corregir del la del del de Eléctrica del obscuridad: Sí (USB4F02353)
Estrobo/Lámpara Permitido: No (USB4F02353)
Correct for Detector Non-linearity: No (USB4F02353)
Párrafo de de Corregir del la del del de Externa del luz: No (USB4F02353)
Procesado del espectro de Número de pixeles en: 3648
>>>>> Comienza Data<<<<< Espectral Procesado Del EL
177,79	235,284
178,00	235,284
178,22	235,284
178,44	1515,110
178,66	-215,318
178,88	235,098
179,09	50,532
179,31	160,913
179,53	512,152
179,75	216,340
179,96	378,664
180,18	-52,077
180,40	360,589
180,62	500,862
180,83	-82,541
181,05	-842,988
181,27	-85325,000
181,49	70,815
181,70	-87,212
181,92	743,782
182,14	403,389
182,36	160,373
182,58	523,750
182,79	1104,129
183,01	-92,793
183,23	121,254
183,45	-38,231
183,66	-190,376
183,88	205,441
184,10	-1927,727
184,32	106,498
184,53	276,770
184,75	-131,708
184,97	5,750
185,18	-194,220
185,40	-284,736
185,62	48,495
185,84	78,221
186,05	-27,464
186,27	-31,967
186,49	1343,269
186,71	-46,065
186,92	215,266
187,14	-261,707
187,36	108,672
187,58	56,604
187,79	61,816
188,01	261,244
188,23	-193,821
188,45	16,198
188,66	356,808
188,88	-1780,455
189,10	-889,250
189,31	-4,309
189,53	14,462
189,75	247,102
189,97	103,173
190,18	-97,318
190,40	798,382
190,62	-237,594
190,83	-208,025
191,05	230,087
191,27	164,071
191,49	313,676
191,70	-414,543
191,92	-898,517
192,14	-47,802
192,35	462,666
192,57	2360,714
192,79	-89,026
193,01	282,355
193,22	93,725
193,44	-24,275
193,66	144,715
193,87	49,732
194,09	-8,624
194,31	141,450
194,53	772,902
194,74	-14,798
194,96	140,185
195,18	148,032
195,39	-206,135
195,61	-130,298
195,83	-257,880
196,04	156,275
196,26	91,332
196,48	30,517
196,70	114,165
196,91	86,274
197,13	154,494
197,35	-39,755
197,56	573,452
197,78	1610,634
198,00	477,098
198,21	187,015
198,43	-710,610
198,65	136,485
198,86	297,212
199,08	250,246
199,30	121,711
199,51	-321,906
199,73	124,287
199,95	6,250
200,16	414,712
200,38	160,789
200,60	178,210
200,81	263,651
201,03	104,687
201,25	-1708,250
201,46	99,927
201,68	101,626
201,90	1039,205
202,11	-394,370
202,33	90,171
202,55	1156,562
202,76	-35,841
202,98	413,328
203,20	9,495
203,41	-463,289
203,63	162,122
203,85	-123125,000
204,06	26,740
204,28	2,590
204,50	121,878
204,71	381,316
204,93	-275,000
205,15	181,099
205,36	-13,432
205,58	177,591
205,80	-223,479
206,01	54,860
206,23	160,787
206,45	199,161
206,66	119,213
206,88	12,395
207,10	128,466
207,31	223,874
207,53	94,643
207,75	173,116
207,96	905,410
208,18	-127,176
208,39	71,015
208,61	1975,000
208,83	-228,752
209,04	159,582
209,26	-57,258
209,48	291,302
209,69	256,653
209,91	470,693
210,13	74,592
210,34	32,264
210,56	128,422
210,77	-820,669
210,99	89,201
211,21	1366,176
211,42	-47,044
211,64	-58,774
211,86	192,676
212,07	150,614
212,29	147,909
212,50	93,034
212,72	168,942
212,94	123,577
213,15	156,821
213,37	100,728
213,58	-239,080
213,80	-1183,036
214,02	10419,118
214,23	277,235
214,45	480,410
214,67	-821,037
214,88	-56,795
215,10	-196,171
215,31	-301,037
215,53	30,284
215,75	118,652
215,96	1457,919
216,18	162,324
216,39	118,672
216,61	323,854
216,83	336,719
217,04	1251,966
217,26	18,589
217,47	123,700
217,69	120,940
217,91	179,059
218,12	-76325,000
218,34	190,740
218,55	243,037
218,77	42,853
218,99	113,452
219,20	-142,948
219,42	350,953
219,63	-72,548
219,85	-53,433
220,06	96,250
220,28	126,225
220,50	-11,599
220,71	93,041
220,93	2357,075
221,14	-1645,250
221,36	-106,358
221,58	-68,409
221,79	139,044
222,01	751,078
222,22	490,296
222,44	-1033,427
222,65	58,126
222,87	1012,063
223,09	163,346
223,30	42,854
223,52	56,902
223,73	178,053
223,95	50,458
224,16	72,010
224,38	387,737
224,60	103,441
224,81	7,947
225,03	48,376
225,24	102,526
225,46	5,689
225,67	12,461
225,89	5,661
226,10	311,220
226,32	1028,200
226,54	56,521
226,75	-13,618
226,97	57,879
227,18	193,850
227,40	75,096
227,61	15,372
227,83	31,121
228,04	108,154
228,26	28,054
228,47	70,155
228,69	136,911
228,91	114,225
229,12	52,170
229,34	45,078
229,55	27,456
229,77	14,054
229,98	5,248
230,20	87,875
230,41	-31,089
230,63	67,832
230,84	-46,764
231,06	73,850
231,27	40,018
231,49	62,845
231,71	32,225
231,92	27,865
232,14	27,322
232,35	60,658
232,57	20,010
232,78	17,858
233,00	60,965
233,21	46,439
233,43	12,978
233,64	18,161
233,86	37,591
234,07	51,182
234,29	25,014
234,50	-2,382
234,72	40,192
234,93	8,175
235,15	38,741
235,36	26,794
235,58	35,195
235,79	39,825
236,01	12,951
236,22	8,756
236,44	46,586
236,65	11,938
236,87	19,319
237,08	8,116
237,30	-0,565
237,51	8,397
237,73	-3,852
237,94	3,846
238,16	27,210
238,37	9,767
238,59	-2,849
238,80	6,864
239,02	6,827
239,23	5,330
239,45	-9,793
239,66	26,088
239,88	18,382
240,09	20,853
240,31	1,687
240,52	6,879
240,74	18,900
240,95	3,432
241,17	-0,676
241,38	6,443
241,60	8,616
241,81	20,037
242,03	-0,945
242,24	8,600
242,46	12,923
242,67	0,063
242,89	3,278
243,10	17,912
243,32	14,224
243,53	9,641
243,75	5,276
243,96	7,044
244,18	10,176
244,39	7,690
244,60	9,511
244,82	1,490
245,03	14,671
245,25	0,491
245,46	22,028
245,68	5,785
245,89	14,666
246,11	5,293
246,32	7,145
246,54	1,961
246,75	7,233
246,97	15,428
247,18	10,939
247,39	4,473
247,61	1,981
247,82	3,046
248,04	6,705
248,25	3,484
248,47	8,515
248,68	4,359
248,90	-3,042
249,11	8,491
249,33	16,942
249,54	6,798
249,75	7,468
249,97	8,434
250,18	4,742
250,40	13,119
250,61	-7,093
250,83	-1,927
251,04	3,217
251,25	9,532
251,47	2,556
251,68	3,946
251,90	7,503
252,11	10,219
252,33	2,736
252,54	3,313
252,76	3,678
252,97	3,515
253,18	-2,633
253,40	4,527
253,61	2,604
253,83	10,200
254,04	7,038
254,25	4,062
254,47	1,950
254,68	4,140
254,90	1,900
255,11	5,291
255,33	4,101
255,54	3,041
255,75	0,081
255,97	1,409
256,18	1,753
256,40	6,894
256,61	8,790
256,82	-1,751
257,04	7,774
257,25	-0,808
257,47	4,725
257,68	0,581
257,89	8,893
258,11	9,785
258,32	10,360
258,54	5,229
258,75	8,585
258,96	11,062
259,18	7,486
259,39	2,612
259,61	9,303
259,82	-0,759
260,03	6,612
260,25	7,196
260,46	3,283
260,68	4,746
260,89	3,912
261,10	1,814
261,32	2,896
261,53	4,325
261,75	5,346
261,96	-1,380
262,17	7,993
262,39	13,625
262,60	0,724
262,81	1,279
263,03	6,922
263,24	2,671
263,46	-0,582
263,67	3,971
263,88	3,302
264,10	3,102
264,31	-1,169
264,52	1,772
264,74	6,178
264,95	2,307
265,17	4,813
265,38	5,678
265,59	6,856
265,81	4,490
266,02	1,784
266,23	0,223
266,45	5,426
266,66	7,315
266,87	5,943
267,09	3,095
267,30	6,332
267,52	7,084
267,73	0,484
267,94	4,677
268,16	5,254
268,37	3,803
268,58	6,227
268,80	0,508
269,01	1,829
269,22	4,748
269,44	6,102
269,65	3,633
269,86	-5,521
270,08	4,380
270,29	1,317
270,50	3,439
270,72	6,697
270,93	1,921
271,14	4,814
271,36	2,598
271,57	3,726
271,78	3,237
272,00	3,929
272,21	6,355
272,42	7,401
272,64	5,020
272,85	1,606
273,06	3,736
273,28	8,977
273,49	6,201
273,70	6,008
273,92	5,828
274,13	8,246
274,34	2,845
274,56	5,468
274,77	1,061
274,98	5,540
275,20	5,555
275,41	7,421
275,62	4,547
275,84	4,169
276,05	9,457
276,26	1,086
276,47	-0,856
276,69	7,735
276,90	4,555
277,11	2,880
277,33	4,537
277,54	6,676
277,75	5,318
277,97	1,366
278,18	3,901
278,39	7,407
278,61	2,717
278,82	1,528
279,03	3,730
279,24	6,611
279,46	3,584
279,67	7,671
279,88	3,089
280,10	7,361
280,31	1,775
280,52	3,787
280,73	-0,072
280,95	8,070
281,16	4,568
281,37	4,528
281,59	8,430
281,80	10,022
282,01	3,544
282,22	-0,255
282,44	0,057
282,65	8,193
282,86	6,188
283,08	1,667
283,29	4,366
283,50	4,072
283,71	3,020
283,93	5,253
284,14	3,562
284,35	0,719
284,56	2,762
284,78	2,777
284,99	5,758
285,20	10,304
285,42	3,337
285,63	4,337
285,84	0,886
286,05	3,949
286,27	3,686
286,48	1,452
286,69	-1,233
286,90	1,273
287,12	0,138
287,33	2,004
287,54	1,151
287,75	4,245
287,97	4,031
288,18	3,670
288,39	0,718
288,60	3,287
288,82	3,462
289,03	1,993
289,24	3,017
289,45	6,640
289,67	5,311
289,88	1,983
290,09	3,623
290,30	3,949
290,52	2,893
290,73	0,964
290,94	1,066
291,15	2,904
291,37	2,524
291,58	1,847
291,79	2,317
292,00	4,978
292,21	8,193
292,43	3,994
292,64	1,424
292,85	2,191
293,06	7,453
293,28	1,388
293,49	1,288
293,70	5,485
293,91	2,321
294,12	3,146
294,34	1,667
294,55	3,339
294,76	4,786
294,97	4,742
295,19	0,907
295,40	3,437
295,61	3,836
295,82	1,567
296,03	3,949
296,25	3,747
296,46	1,350
296,67	1,381
296,88	1,387
297,09	7,022
297,31	1,748
297,52	2,873
297,73	1,836
297,94	6,570
298,15	4,642
298,37	3,498
298,58	3,826
298,79	1,179
299,00	-0,660
299,21	-0,030
299,43	0,457
299,64	5,001
299,85	3,473
300,06	1,316
300,27	2,753
300,49	6,900
300,70	1,419
300,91	3,549
301,12	2,705
301,33	4,367
301,54	1,385
301,76	2,949
301,97	1,446
302,18	-0,005
302,39	5,893
302,60	4,687
302,82	2,770
303,03	7,054
303,24	4,285
303,45	5,500
303,66	1,791
303,87	3,786
304,09	5,640
304,30	1,867
304,51	0,908
304,72	3,179
304,93	3,921
305,14	1,830
305,36	0,922
305,57	0,505
305,78	3,927
305,99	0,395
306,20	2,215
306,41	1,704
306,62	2,781
306,84	2,455
307,05	-1,253
307,26	1,037
307,47	4,660
307,68	2,765
307,89	0,899
308,11	3,852
308,32	1,302
308,53	3,325
308,74	0,414
308,95	1,603
309,16	5,699
309,37	4,706
309,59	0,690
309,80	3,212
310,01	2,890
310,22	4,721
310,43	1,833
310,64	1,475
310,85	3,548
311,06	-0,178
311,28	2,998
311,49	2,247
311,70	6,403
311,91	0,308
312,12	1,156
312,33	4,035
312,54	5,245
312,75	2,650
312,97	1,900
313,18	3,215
313,39	2,064
313,60	4,721
313,81	3,292
314,02	3,897
314,23	2,531
314,44	1,248
314,65	3,089
314,87	1,475
315,08	1,127
315,29	4,467
315,50	6,349
315,71	4,553
315,92	5,617
316,13	2,571
316,34	3,013
316,55	4,834
316,77	-0,106
316,98	1,412
317,19	2,001
317,40	5,673
317,61	7,597
317,82	1,577
318,03	1,530
318,24	0,571
318,45	4,280
318,66	2,547
318,87	-0,274
319,09	4,077
319,30	2,079
319,51	1,765
319,72	5,865
319,93	4,309
320,14	5,847
320,35	2,661
320,56	-0,427
320,77	1,049
320,98	7,245
321,19	6,274
321,40	4,316
321,62	4,090
321,83	3,962
322,04	3,747
322,25	4,424
322,46	8,713
322,67	5,788
322,88	4,762
323,09	1,585
323,30	3,957
323,51	5,527
323,72	6,348
323,93	2,545
324,14	1,935
324,35	0,915
324,56	2,093
324,77	2,687
324,99	3,400
325,20	-0,334
325,41	3,982
325,62	4,665
325,83	0,908
326,04	3,016
326,25	5,786
326,46	-0,169
326,67	2,316
326,88	4,020
327,09	0,738
327,30	2,173
327,51	4,316
327,72	4,811
327,93	5,546
328,14	0,947
328,35	0,902
328,56	4,097
328,77	1,412
328,98	2,352
329,19	2,992
329,40	4,945
329,61	2,970
329,82	-1,322
330,04	2,209
330,25	1,151
330,46	1,182
330,67	2,919
330,88	1,534
331,09	0,074
331,30	1,693
331,51	3,621
331,72	4,666
331,93	7,752
332,14	3,466
332,35	5,896
332,56	3,775
332,77	4,728
332,98	-1,240
333,19	0,888
333,40	6,262
333,61	3,152
333,82	3,525
334,03	4,612
334,24	5,571
334,45	4,445
334,66	3,230
334,87	1,320
335,08	2,830
335,29	1,956
335,50	0,102
335,71	1,673
335,92	7,614
336,13	5,075
336,34	2,357
336,55	1,983
336,76	4,903
336,97	3,224
337,18	1,181
337,39	3,652
337,60	4,775
337,81	2,696
338,02	2,760
338,23	3,812
338,44	4,748
338,65	2,444
338,86	3,131
339,07	1,672
339,28	6,176
339,49	2,734
339,70	0,162
339,91	3,187
340,11	4,695
340,32	2,600
340,53	1,281
340,74	0,075
340,95	1,935
341,16	4,496
341,37	2,902
341,58	2,762
341,79	2,192
342,00	3,876
342,21	0,546
342,42	4,430
342,63	3,483
342,84	-0,883
343,05	5,418
343,26	3,997
343,47	3,721
343,68	1,433
343,89	2,270
344,10	2,274
344,31	5,822
344,52	3,421
344,73	-0,061
344,94	2,852
345,14	4,516
345,35	1,164
345,56	2,757
345,77	4,680
345,98	2,272
346,19	1,760
346,40	1,026
346,61	1,499
346,82	2,501
347,03	3,908
347,24	5,155
347,45	0,303
347,66	6,563
347,87	0,285
348,08	5,854
348,28	1,534
348,49	2,483
348,70	4,251
348,91	5,889
349,12	1,820
349,33	14,838
349,54	0,980
349,75	4,174
349,96	1,442
350,17	3,625
350,38	0,959
350,59	3,558
350,80	5,422
351,00	3,364
351,21	7,847
351,42	2,864
351,63	1,319
351,84	4,808
352,05	7,021
352,26	3,833
352,47	0,053
352,68	6,403
352,89	6,017
353,09	2,847
353,30	-1,240
353,51	2,211
353,72	5,404
353,93	6,482
354,14	-1,023
354,35	-0,186
354,56	5,743
354,77	1,867
354,98	2,058
355,18	3,550
355,39	6,654
355,60	4,758
355,81	2,370
356,02	1,559
356,23	1,964
356,44	3,083
356,65	5,377
356,85	6,340
357,06	7,529
357,27	6,159
357,48	4,582
357,69	5,388
357,90	4,302
358,11	1,445
358,32	1,933
358,52	7,039
358,73	1,294
358,94	-1,981
359,15	4,748
359,36	3,370
359,57	4,485
359,78	1,211
359,98	1,705
360,19	1,259
360,40	1,698
360,61	3,990
360,82	0,790
361,03	6,438
361,24	3,987
361,44	3,291
361,65	2,749
361,86	0,516
362,07	5,343
362,28	3,031
362,49	1,363
362,70	3,253
362,90	6,694
363,11	-1,311
363,32	2,983
363,53	3,660
363,74	4,702
363,95	5,519
364,15	4,149
364,36	7,242
364,57	5,159
364,78	2,164
364,99	4,067
365,20	2,513
365,40	5,034
365,61	2,597
365,82	5,128
366,03	5,224
366,24	5,807
366,45	1,126
366,65	2,024
366,86	2,309
367,07	2,553
367,28	4,576
367,49	4,329
367,69	6,086
367,90	1,675
368,11	5,122
368,32	0,749
368,53	3,959
368,73	7,529
368,94	4,255
369,15	2,586
369,36	5,144
369,57	4,679
369,78	5,114
369,98	5,600
370,19	7,495
370,40	4,377
370,61	2,231
370,82	5,253
371,02	5,774
371,23	7,235
371,44	3,182
371,65	7,331
371,85	6,887
372,06	4,275
372,27	4,366
372,48	3,738
372,69	4,154
372,89	2,894
373,10	2,767
373,31	3,198
373,52	6,727
373,73	6,436
373,93	2,407
374,14	1,654
374,35	6,099
374,56	6,657
374,76	6,509
374,97	2,216
375,18	3,168
375,39	4,542
375,60	4,687
375,80	0,958
376,01	1,565
376,22	3,244
376,43	2,139
376,63	4,830
376,84	3,339
377,05	6,147
377,26	6,230
377,46	2,293
377,67	3,265
377,88	5,872
378,09	3,951
378,29	0,059
378,50	4,383
378,71	7,698
378,92	3,223
379,12	-1,519
379,33	4,229
379,54	6,314
379,75	2,598
379,95	2,386
380,16	5,659
380,37	3,859
380,58	3,616
380,78	3,638
380,99	-0,927
381,20	-0,071
381,41	3,523
381,61	6,016
381,82	4,840
382,03	5,551
382,24	6,082
382,44	4,207
382,65	1,342
382,86	2,480
383,06	4,336
383,27	1,832
383,48	1,257
383,69	6,672
383,89	4,265
384,10	5,445
384,31	3,777
384,51	8,755
384,72	6,146
384,93	3,019
385,14	4,963
385,34	5,673
385,55	1,859
385,76	3,299
385,96	5,973
386,17	3,327
386,38	4,074
386,59	5,464
386,79	1,076
387,00	4,369
387,21	4,166
387,41	4,767
387,62	1,054
387,83	10,531
388,03	3,033
388,24	-0,340
388,45	5,477
388,66	4,735
388,86	4,188
389,07	3,750
389,28	7,961
389,48	7,831
389,69	2,935
389,90	2,255
390,10	5,977
390,31	7,636
390,52	-0,272
390,72	3,517
390,93	6,126
391,14	0,383
391,34	3,742
391,55	5,107
391,76	10,588
391,96	5,269
392,17	2,999
392,38	6,401
392,58	3,312
392,79	5,725
393,00	2,697
393,20	1,900
393,41	4,369
393,62	3,662
393,82	3,213
394,03	6,703
394,24	4,015
394,44	8,255
394,65	6,799
394,86	4,957
395,06	7,570
395,27	0,936
395,48	4,243
395,68	2,982
395,89	4,171
396,10	5,259
396,30	5,409
396,51	4,264
396,72	8,576
396,92	3,030
397,13	1,877
397,34	2,592
397,54	6,452
397,75	6,495
397,95	3,644
398,16	3,548
398,37	3,285
398,57	5,102
398,78	6,851
398,99	6,164
399,19	4,845
399,40	8,795
399,60	1,527
399,81	7,575
400,02	8,316
400,22	5,559
400,43	3,978
400,64	10,047
400,84	9,861
401,05	7,442
401,25	5,502
401,46	6,437
401,67	5,907
401,87	8,324
402,08	4,101
402,29	6,499
402,49	6,510
402,70	5,845
402,90	7,369
403,11	6,382
403,32	5,171
403,52	4,965
403,73	10,838
403,93	9,565
404,14	11,900
404,35	6,366
404,55	2,589
404,76	7,088
404,96	11,727
405,17	10,970
405,38	8,975
405,58	7,885
405,79	9,961
405,99	7,232
406,20	5,604
406,40	4,291
406,61	9,330
406,82	9,797
407,02	9,336
407,23	10,976
407,43	9,203
407,64	6,795
407,85	10,076
408,05	2,838
408,26	12,614
408,46	11,101
408,67	5,727
408,87	9,152
409,08	9,011
409,29	15,632
409,49	12,970
409,70	11,771
409,90	12,324
410,11	14,320
410,31	14,982
410,52	9,865
410,72	8,919
410,93	15,718
411,14	13,915
411,34	6,304
411,55	15,237
411,75	16,275
411,96	10,879
412,16	12,154
412,37	10,653
412,57	16,142
412,78	13,827
412,99	10,190
413,19	11,467
413,40	15,785
413,60	7,987
413,81	11,927
414,01	9,958
414,22	12,653
414,42	14,491
414,63	9,129
414,83	15,829
415,04	17,134
415,24	17,369
415,45	14,665
415,65	15,364
415,86	15,093
416,07	15,659
416,27	14,896
416,48	14,965
416,68	16,100
416,89	13,117
417,09	14,602
417,30	18,227
417,50	14,478
417,71	16,709
417,91	15,488
418,12	12,893
418,32	17,632
418,53	18,117
418,73	17,372
418,94	15,443
419,14	17,526
419,35	13,880
419,55	17,435
419,76	16,229
419,96	15,837
420,17	16,212
420,37	14,138
420,58	23,164
420,78	18,218
420,99	16,162
421,19	20,015
421,40	19,078
421,60	20,929
421,81	16,610
422,01	16,872
422,22	17,772
422,42	19,770
422,63	14,913
422,83	16,242
423,04	20,546
423,24	25,880
423,45	16,298
423,65	22,278
423,86	19,600
424,06	18,792
424,27	19,345
424,47	14,982
424,67	17,432
424,88	18,442
425,08	16,690
425,29	24,157
425,49	16,828
425,70	12,459
425,90	21,077
426,11	17,964
426,31	18,877
426,52	19,958
426,72	16,771
426,93	22,357
427,13	19,122
427,33	16,614
427,54	20,036
427,74	24,141
427,95	24,189
428,15	16,580
428,36	19,961
428,56	18,806
428,77	17,920
428,97	17,500
429,18	20,714
429,38	18,098
429,58	23,854
429,79	22,000
429,99	19,282
430,20	15,222
430,40	24,300
430,61	20,779
430,81	19,253
431,01	18,351
431,22	22,889
431,42	22,698
431,63	17,569
431,83	17,182
432,04	18,474
432,24	22,747
432,44	19,117
432,65	17,337
432,85	17,228
433,06	22,645
433,26	20,560
433,47	14,086
433,67	19,924
433,87	17,695
434,08	18,325
434,28	16,990
434,49	18,383
434,69	21,432
434,89	16,311
435,10	17,692
435,30	24,784
435,51	17,373
435,71	17,138
435,91	16,594
436,12	17,607
436,32	19,950
436,53	19,783
436,73	19,511
436,93	22,789
437,14	21,471
437,34	19,635
437,55	20,993
437,75	20,375
437,95	20,641
438,16	20,970
438,36	22,907
438,57	18,397
438,77	19,617
438,97	20,764
439,18	21,479
439,38	21,425
439,58	21,011
439,79	22,391
439,99	19,831
440,20	20,682
440,40	23,311
440,60	22,153
440,81	24,948
441,01	20,940
441,21	22,434
441,42	20,182
441,62	22,162
441,83	22,769
442,03	22,092
442,23	25,589
442,44	20,588
442,64	20,295
442,84	15,813
443,05	22,267
443,25	20,872
443,45	19,565
443,66	23,711
443,86	17,451
444,06	19,409
444,27	19,781
444,47	20,022
444,67	19,767
444,88	23,128
445,08	21,164
445,28	24,608
445,49	18,349
445,69	19,296
445,90	19,611
446,10	23,911
446,30	23,885
446,51	21,730
446,71	24,605
446,91	25,076
447,12	22,654
447,32	22,849
447,52	21,889
447,72	24,160
447,93	22,488
448,13	16,402
448,33	29,752
448,54	26,193
448,74	21,233
448,94	23,195
449,15	24,678
449,35	23,891
449,55	18,851
449,76	25,631
449,96	22,590
450,16	22,691
450,37	18,726
450,57	19,328
450,77	16,878
450,98	21,938
451,18	22,663
451,38	20,070
451,58	28,721
451,79	23,735
451,99	22,902
452,19	23,068
452,40	22,916
452,60	23,022
452,80	19,310
453,00	21,935
453,21	20,899
453,41	25,331
453,61	21,065
453,82	27,480
454,02	21,771
454,22	24,204
454,42	19,518
454,63	22,483
454,83	19,356
455,03	22,370
455,24	24,640
455,44	17,955
455,64	20,165
455,84	20,240
456,05	19,851
456,25	17,666
456,45	23,272
456,65	21,020
456,86	23,687
457,06	25,330
457,26	20,107
457,47	26,556
457,67	22,920
457,87	18,937
458,07	19,457
458,28	24,733
458,48	22,115
458,68	17,412
458,88	22,654
459,09	24,048
459,29	25,362
459,49	22,791
459,69	20,945
459,90	21,806
460,10	18,178
460,30	21,056
460,50	20,330
460,71	27,116
460,91	18,464
461,11	23,639
461,31	19,099
461,52	24,792
461,72	19,907
461,92	21,537
462,12	33,132
462,32	16,721
462,53	21,080
462,73	13,399
462,93	25,184
463,13	19,970
463,34	18,989
463,54	21,201
463,74	19,530
463,94	24,959
464,14	23,814
464,35	22,184
464,55	22,019
464,75	23,788
464,95	22,688
465,16	18,315
465,36	22,155
465,56	19,395
465,76	19,700
465,96	18,965
466,17	20,051
466,37	21,808
466,57	21,635
466,77	21,391
466,97	21,145
467,18	21,213
467,38	19,112
467,58	22,568
467,78	26,453
467,98	24,515
468,19	21,860
468,39	23,773
468,59	23,117
468,79	23,375
468,99	19,774
469,19	19,706
469,40	22,025
469,60	16,419
469,80	18,768
470,00	21,804
470,20	21,271
470,41	22,204
470,61	21,430
470,81	19,400
471,01	18,725
471,21	19,679
471,41	19,845
471,62	19,227
471,82	15,213
472,02	21,284
472,22	17,835
472,42	22,628
472,62	22,275
472,83	20,449
473,03	20,583
473,23	22,676
473,43	26,920
473,63	19,142
473,83	22,676
474,03	20,400
474,24	24,490
474,44	20,579
474,64	19,942
474,84	19,707
475,04	23,614
475,24	20,456
475,45	19,353
475,65	18,404
475,85	25,709
476,05	17,653
476,25	22,412
476,45	19,393
476,65	25,499
476,85	19,391
477,06	23,222
477,26	17,250
477,46	18,854
477,66	20,076
477,86	21,054
478,06	19,330
478,26	25,084
478,46	17,221
478,67	23,155
478,87	21,226
479,07	18,791
479,27	21,865
479,47	18,407
479,67	15,479
479,87	18,216
480,07	19,343
480,28	19,957
480,48	16,287
480,68	22,893
480,88	23,456
481,08	19,969
481,28	23,238
481,48	19,258
481,68	18,373
481,88	17,361
482,08	19,739
482,29	21,688
482,49	15,349
482,69	20,535
482,89	19,619
483,09	22,030
483,29	20,935
483,49	18,952
483,69	18,887
483,89	17,391
484,09	17,378
484,29	16,221
484,50	16,876
484,70	19,149
484,90	18,174
485,10	19,303
485,30	20,146
485,50	21,645
485,70	19,554
485,90	16,867
486,10	15,610
486,30	18,712
486,50	17,815
486,70	19,389
486,90	17,409
487,10	20,336
487,30	18,439
487,51	16,400
487,71	16,578
487,91	16,121
488,11	20,952
488,31	15,843
488,51	19,178
488,71	17,241
488,91	19,667
489,11	14,678
489,31	16,337
489,51	15,194
489,71	17,965
489,91	15,078
490,11	14,041
490,31	18,330
490,51	19,256
490,71	18,374
490,91	16,936
491,11	17,183
491,31	19,146
491,51	17,075
491,72	17,120
491,92	16,572
492,12	20,079
492,32	17,573
492,52	18,591
492,72	16,715
492,92	16,253
493,12	17,955
493,32	17,447
493,52	15,122
493,72	15,744
493,92	15,552
494,12	17,004
494,32	19,739
494,52	18,255
494,72	15,021
494,92	15,026
495,12	18,834
495,32	19,554
495,52	16,463
495,72	18,065
495,92	21,932
496,12	18,571
496,32	15,171
496,52	15,627
496,72	17,224
496,92	16,910
497,12	15,299
497,32	19,193
497,52	16,995
497,72	20,116
497,92	18,456
498,12	16,903
498,32	15,825
498,52	15,932
498,72	16,022
498,92	14,989
499,12	19,622
499,32	15,871
499,52	16,433
499,72	17,792
499,92	18,207
500,12	15,543
500,32	17,045
500,52	13,771
500,72	19,634
500,91	17,672
501,11	16,594
501,31	13,355
501,51	19,259
501,71	17,163
501,91	16,204
502,11	13,472
502,31	14,288
502,51	17,646
502,71	15,487
502,91	17,865
503,11	16,942
503,31	17,725
503,51	16,663
503,71	12,866
503,91	16,637
504,11	17,356
504,31	16,840
504,51	15,161
504,71	19,983
504,91	16,380
505,10	16,056
505,30	13,337
505,50	16,994
505,70	15,950
505,90	16,368
506,10	14,152
506,30	16,612
506,50	18,715
506,70	19,055
506,90	15,677
507,10	15,998
507,30	14,807
507,50	16,288
507,70	14,247
507,89	14,925
508,09	15,090
508,29	15,567
508,49	13,855
508,69	13,332
508,89	15,153
509,09	13,391
509,29	14,729
509,49	16,717
509,69	18,102
509,89	16,503
510,09	13,231
510,28	14,822
510,48	15,885
510,68	13,066
510,88	13,798
511,08	15,195
511,28	16,095
511,48	13,504
511,68	12,558
511,88	10,377
512,07	15,245
512,27	15,436
512,47	15,414
512,67	14,358
512,87	12,277
513,07	14,604
513,27	11,080
513,47	14,040
513,67	10,989
513,86	12,933
514,06	13,152
514,26	14,230
514,46	16,798
514,66	13,069
514,86	13,697
515,06	16,320
515,26	13,919
515,45	12,626
515,65	10,486
515,85	14,011
516,05	9,641
516,25	13,466
516,45	15,057
516,65	11,557
516,84	12,532
517,04	16,110
517,24	14,222
517,44	14,140
517,64	15,392
517,84	14,949
518,04	14,243
518,23	15,992
518,43	16,736
518,63	12,365
518,83	10,984
519,03	12,003
519,23	12,130
519,42	12,451
519,62	10,540
519,82	10,081
520,02	12,401
520,22	11,202
520,42	11,878
520,61	13,925
520,81	14,444
521,01	14,730
521,21	10,396
521,41	12,780
521,61	15,309
521,80	9,564
522,00	12,349
522,20	12,442
522,40	13,342
522,60	11,462
522,79	9,645
522,99	14,792
523,19	8,680
523,39	9,059
523,59	12,607
523,78	16,307
523,98	11,316
524,18	11,183
524,38	11,440
524,58	11,744
524,77	14,593
524,97	13,528
525,17	12,428
525,37	11,595
525,57	11,928
525,76	10,435
525,96	10,806
526,16	10,946
526,36	8,588
526,56	10,972
526,75	10,184
526,95	13,181
527,15	13,562
527,35	12,778
527,55	9,518
527,74	12,533
527,94	11,457
528,14	10,416
528,34	12,115
528,53	7,875
528,73	11,646
528,93	12,705
529,13	9,269
529,32	11,665
529,52	14,556
529,72	10,194
529,92	9,342
530,12	8,728
530,31	8,086
530,51	11,658
530,71	12,266
530,91	13,094
531,10	4,760
531,30	11,083
531,50	7,969
531,70	12,000
531,89	9,631
532,09	9,372
532,29	9,573
532,49	11,122
532,68	13,718
532,88	9,280
533,08	8,763
533,28	10,725
533,47	8,319
533,67	11,184
533,87	10,407
534,06	16,064
534,26	9,374
534,46	9,731
534,66	11,982
534,85	11,716
535,05	5,836
535,25	8,763
535,45	7,617
535,64	11,875
535,84	9,485
536,04	8,868
536,23	7,774
536,43	12,922
536,63	10,379
536,83	11,309
537,02	9,317
537,22	8,029
537,42	9,656
537,61	9,880
537,81	11,409
538,01	9,146
538,20	9,886
538,40	8,851
538,60	10,993
538,80	7,647
538,99	9,574
539,19	8,484
539,39	7,735
539,58	10,355
539,78	7,518
539,98	8,655
540,17	6,600
540,37	8,028
540,57	7,126
540,76	7,379
540,96	6,332
541,16	8,836
541,36	6,921
541,55	4,663
541,75	5,906
541,95	5,962
542,14	4,593
542,34	4,461
542,54	5,844
542,73	6,660
542,93	6,578
543,13	6,249
543,32	5,730
543,52	7,577
543,72	4,258
543,91	8,060
544,11	5,160
544,31	6,213
544,50	5,988
544,70	6,312
544,89	5,745
545,09	8,029
545,29	6,575
545,48	5,600
545,68	5,479
545,88	7,333
546,07	5,722
546,27	6,405
546,47	6,494
546,66	8,283
546,86	7,567
547,06	6,789
547,25	5,870
547,45	8,362
547,64	6,695
547,84	9,108
548,04	7,479
548,23	9,891
548,43	9,369
548,63	8,585
548,82	7,717
549,02	8,986
549,21	6,446
549,41	8,769
549,61	9,395
549,80	6,942
550,00	8,199
550,20	6,771
550,39	11,571
550,59	7,991
550,78	11,330
550,98	4,467
551,18	9,992
551,37	8,849
551,57	8,014
551,76	8,444
551,96	7,875
552,16	6,900
552,35	8,766
552,55	8,652
552,74	10,237
552,94	8,140
553,14	8,868
553,33	6,842
553,53	7,728
553,72	8,196
553,92	10,072
554,12	7,561
554,31	7,154
554,51	10,287
554,70	4,559
554,90	8,661
555,09	8,677
555,29	8,908
555,49	7,386
555,68	9,528
555,88	7,446
556,07	6,862
556,27	9,780
556,46	8,551
556,66	5,042
556,86	11,169
557,05	8,710
557,25	4,911
557,44	7,988
557,64	6,587
557,83	9,464
558,03	8,486
558,22	8,459
558,42	9,845
558,62	9,016
558,81	9,313
559,01	8,340
559,20	10,045
559,40	5,464
559,59	7,248
559,79	7,070
559,98	8,394
560,18	6,891
560,37	7,827
560,57	9,659
560,76	7,497
560,96	6,356
561,16	7,683
561,35	9,164
561,55	13,007
561,74	9,991
561,94	8,799
562,13	7,747
562,33	11,327
562,52	8,435
562,72	8,353
562,91	8,481
563,11	6,237
563,30	8,112
563,50	4,751
563,69	7,458
563,89	6,892
564,08	9,337
564,28	6,994
564,47	7,923
564,67	5,908
564,86	8,850
565,06	7,079
565,25	7,419
565,45	8,086
565,64	10,271
565,84	8,686
566,03	6,155
566,23	6,401
566,42	9,523
566,62	8,018
566,81	9,242
567,01	8,714
567,20	10,438
567,40	6,963
567,59	7,020
567,79	8,918
567,98	10,320
568,18	9,391
568,37	9,292
568,57	8,564
568,76	9,211
568,96	7,277
569,15	8,484
569,35	10,093
569,54	9,840
569,73	9,172
569,93	9,595
570,12	9,002
570,32	9,576
570,51	8,651
570,71	10,299
570,90	9,721
571,10	9,041
571,29	7,632
571,49	7,423
571,68	10,041
571,87	8,118
572,07	6,767
572,26	6,858
572,46	8,071
572,65	8,830
572,85	6,375
573,04	9,288
573,24	7,657
573,43	10,277
573,62	9,207
573,82	9,557
574,01	8,277
574,21	7,869
574,40	7,193
574,60	5,535
574,79	8,720
574,98	8,248
575,18	8,823
575,37	7,791
575,57	8,107
575,76	10,339
575,96	8,510
576,15	7,456
576,34	8,793
576,54	9,847
576,73	8,881
576,93	8,221
577,12	9,601
577,31	9,203
577,51	8,099
577,70	7,220
577,90	9,040
578,09	7,585
578,28	8,797
578,48	10,062
578,67	9,661
578,87	9,435
579,06	8,668
579,25	10,154
579,45	10,014
579,64	8,589
579,84	9,191
580,03	8,461
580,22	11,011
580,42	7,146
580,61	10,238
580,81	10,334
581,00	10,597
581,19	10,385
581,39	9,463
581,58	9,182
581,77	8,978
581,97	9,906
582,16	10,020
582,35	8,897
582,55	10,112
582,74	11,979
582,94	9,912
583,13	7,584
583,32	9,652
583,52	9,326
583,71	10,266
583,90	9,828
584,10	9,925
584,29	11,608
584,48	10,343
584,68	9,901
584,87	11,804
585,06	10,954
585,26	9,283
585,45	9,149
585,65	11,280
585,84	10,669
586,03	10,662
586,23	9,490
586,42	10,662
586,61	13,253
586,81	10,323
587,00	10,570
587,19	9,534
587,39	12,859
587,58	10,739
587,77	11,807
587,97	11,179
588,16	10,846
588,35	12,041
588,54	13,371
588,74	10,627
588,93	12,874
589,12	13,139
589,32	11,975
589,51	12,088
589,70	9,841
589,90	11,663
590,09	11,920
590,28	15,253
590,48	10,959
590,67	12,011
590,86	12,109
591,06	13,257
591,25	14,426
591,44	14,471
591,63	12,262
591,83	13,708
592,02	12,812
592,21	13,295
592,41	12,995
592,60	13,553
592,79	14,194
592,98	12,705
593,18	13,052
593,37	13,142
593,56	14,471
593,76	13,859
593,95	12,722
594,14	12,940
594,33	14,145
594,53	12,836
594,72	13,484
594,91	17,053
595,10	14,456
595,30	14,850
595,49	14,359
595,68	16,019
595,88	15,549
596,07	14,757
596,26	13,418
596,45	14,821
596,65	14,630
596,84	15,228
597,03	15,465
597,22	16,257
597,42	17,179
597,61	14,531
597,80	15,978
597,99	15,596
598,19	15,964
598,38	15,660
598,57	15,142
598,76	15,508
598,95	17,252
599,15	16,629
599,34	15,117
599,53	17,625
599,72	15,273
599,92	17,415
600,11	17,225
600,30	17,052
600,49	18,828
600,69	15,954
600,88	17,315
601,07	18,913
601,26	17,560
601,45	16,874
601,65	16,693
601,84	17,543
602,03	17,410
602,22	18,141
602,42	18,627
602,61	17,502
602,80	17,303
602,99	18,140
603,18	16,946
603,38	18,727
603,57	17,961
603,76	17,736
603,95	16,278
604,14	19,185
604,34	18,437
604,53	19,298
604,72	17,770
604,91	18,315
605,10	18,683
605,29	18,234
605,49	17,177
605,68	18,021
605,87	19,537
606,06	18,603
606,25	18,055
606,45	19,282
606,64	19,797
606,83	18,249
607,02	18,348
607,21	19,908
607,40	19,141
607,60	17,195
607,79	16,061
607,98	17,375
608,17	17,327
608,36	18,530
608,55	19,240
608,75	19,270
608,94	19,087
609,13	17,555
609,32	15,651
609,51	17,192
609,70	16,133
609,89	16,917
610,09	17,157
610,28	18,137
610,47	17,054
610,66	16,373
610,85	14,852
611,04	18,618
611,23	15,756
611,43	16,093
611,62	16,033
611,81	15,673
612,00	18,657
612,19	16,832
612,38	15,175
612,57	19,324
612,77	16,492
612,96	18,161
613,15	18,305
613,34	21,000
613,53	19,338
613,72	20,889
613,91	18,182
614,10	18,580
614,29	21,189
614,49	18,675
614,68	18,469
614,87	20,930
615,06	21,986
615,25	20,384
615,44	23,618
615,63	20,512
615,82	21,498
616,01	20,298
616,21	20,409
616,40	21,169
616,59	23,409
616,78	22,365
616,97	22,241
617,16	21,675
617,35	24,037
617,54	22,445
617,73	24,596
617,92	21,136
618,11	24,891
618,31	20,886
618,50	21,338
618,69	23,680
618,88	22,395
619,07	21,033
619,26	22,734
619,45	22,933
619,64	21,679
619,83	21,408
620,02	21,180
620,21	25,062
620,40	23,690
620,59	22,571
620,78	20,720
620,97	23,819
621,17	22,279
621,36	22,827
621,55	24,462
621,74	23,188
621,93	23,579
622,12	23,260
622,31	22,948
622,50	23,384
622,69	26,197
622,88	24,064
623,07	24,857
623,26	24,277
623,45	25,918
623,64	23,503
623,83	23,946
624,02	26,099
624,21	24,928
624,40	25,883
624,59	23,365
624,78	25,170
624,97	26,643
625,16	22,450
625,35	22,686
625,54	23,951
625,73	24,447
625,92	24,626
626,12	24,936
626,31	25,569
626,50	25,594
626,69	25,285
626,88	22,350
627,07	24,082
627,26	26,513
627,45	24,362
627,64	23,986
627,83	25,134
628,02	24,329
628,21	24,836
628,40	22,775
628,59	24,998
628,78	23,312
628,97	23,460
629,16	23,906
629,35	25,467
629,54	26,504
629,73	24,991
629,92	22,946
630,10	26,838
630,29	24,895
630,48	24,861
630,67	25,626
630,86	25,634
631,05	24,664
631,24	26,364
631,43	24,473
631,62	26,303
631,81	26,939
632,00	26,434
632,19	24,128
632,38	28,113
632,57	26,511
632,76	26,496
632,95	26,683
633,14	27,964
633,33	26,381
633,52	25,971
633,71	28,058
633,90	24,212
634,09	26,616
634,28	27,180
634,47	26,971
634,66	27,425
634,85	27,473
635,04	29,471
635,22	28,716
635,41	27,330
635,60	27,378
635,79	29,249
635,98	25,049
636,17	28,912
636,36	27,476
636,55	28,111
636,74	26,388
636,93	28,784
637,12	28,476
637,31	27,241
637,50	26,772
637,69	26,914
637,87	28,408
638,06	25,958
638,25	26,755
638,44	29,129
638,63	25,825
638,82	28,233
639,01	27,452
639,20	28,918
639,39	29,700
639,58	25,938
639,77	29,103
639,95	26,622
640,14	28,138
640,33	26,768
640,52	27,348
640,71	29,045
640,90	28,979
641,09	30,766
641,28	26,798
641,47	28,430
641,66	28,071
641,84	28,299
642,03	27,641
642,22	27,727
642,41	30,168
642,60	28,884
642,79	28,563
642,98	29,498
643,17	28,142
643,35	28,328
643,54	28,273
643,73	29,331
643,92	30,493
644,11	28,331
644,30	27,566
644,49	29,921
644,67	26,353
644,86	27,368
645,05	29,592
645,24	29,307
645,43	29,599
645,62	28,652
645,81	29,156
645,99	30,196
646,18	30,192
646,37	27,922
646,56	29,453
646,75	29,764
646,94	30,092
647,13	28,873
647,31	27,939
647,50	29,155
647,69	29,641
647,88	29,679
648,07	29,791
648,26	32,685
648,44	28,060
648,63	28,221
648,82	29,510
649,01	31,364
649,20	27,716
649,38	28,296
649,57	29,569
649,76	27,887
649,95	29,417
650,14	28,500
650,33	28,499
650,51	28,986
650,70	30,646
650,89	28,645
651,08	29,312
651,27	28,687
651,45	27,377
651,64	27,921
651,83	30,254
652,02	27,882
652,21	30,071
652,39	30,229
652,58	29,646
652,77	29,208
652,96	30,592
653,15	30,432
653,33	28,936
653,52	30,171
653,71	33,183
653,90	31,246
654,09	29,776
654,27	30,984
654,46	31,595
654,65	30,953
654,84	30,252
655,02	31,540
655,21	31,349
655,40	31,664
655,59	30,358
655,77	30,359
655,96	31,920
656,15	31,083
656,34	31,185
656,53	31,363
656,71	30,698
656,90	30,702
657,09	30,774
657,28	30,441
657,46	29,947
657,65	30,270
657,84	29,259
658,03	31,093
658,21	31,793
658,40	26,855
658,59	29,046
658,78	32,077
658,96	29,485
659,15	28,389
659,34	30,692
659,52	29,909
659,71	30,691
659,90	27,824
660,09	31,018
660,27	28,468
660,46	30,095
660,65	29,202
660,84	29,238
661,02	30,643
661,21	30,352
661,40	28,048
661,58	29,165
661,77	28,991
661,96	26,870
662,15	28,142
662,33	29,241
662,52	27,277
662,71	28,883
662,89	28,533
663,08	28,770
663,27	28,404
663,45	28,779
663,64	29,565
663,83	28,289
664,02	29,112
664,20	29,477
664,39	28,213
664,58	29,620
664,76	26,580
664,95	28,623
665,14	27,932
665,32	27,656
665,51	30,305
665,70	30,723
665,88	28,326
666,07	29,648
666,26	30,857
666,44	27,982
666,63	27,623
666,82	29,177
667,00	30,152
667,19	27,772
667,38	27,473
667,56	29,566
667,75	28,649
667,94	29,634
668,12	26,949
668,31	28,983
668,50	29,304
668,68	28,682
668,87	27,754
669,06	28,813
669,24	28,363
669,43	29,036
669,62	26,504
669,80	27,564
669,99	27,470
670,18	28,513
670,36	26,784
670,55	28,976
670,74	26,410
670,92	25,585
671,11	29,088
671,29	27,457
671,48	27,200
671,67	28,499
671,85	28,262
672,04	27,321
672,23	26,916
672,41	29,604
672,60	29,510
672,78	26,927
672,97	29,560
673,16	28,039
673,34	28,795
673,53	27,687
673,71	29,632
673,90	29,070
674,09	26,774
674,27	27,139
674,46	28,475
674,64	28,430
674,83	28,288
675,02	25,721
675,20	27,398
675,39	27,398
675,57	28,026
675,76	27,794
675,95	28,835
676,13	28,343
676,32	28,310
676,50	27,414
676,69	25,962
676,88	28,387
677,06	26,701
677,25	27,540
677,43	29,446
677,62	28,424
677,80	27,644
677,99	27,753
678,18	30,036
678,36	30,739
678,55	25,624
678,73	27,175
678,92	29,018
679,10	29,385
679,29	27,977
679,48	26,654
679,66	27,616
679,85	27,585
680,03	27,120
680,22	26,935
680,40	27,412
680,59	26,809
680,77	27,638
680,96	27,726
681,15	26,957
681,33	30,423
681,52	26,731
681,70	29,179
681,89	30,291
682,07	28,242
682,26	28,896
682,44	28,222
682,63	28,102
682,81	29,758
683,00	29,239
683,18	26,638
683,37	29,005
683,55	28,942
683,74	28,424
683,92	33,158
684,11	29,657
684,29	29,231
684,48	27,333
684,67	27,970
684,85	30,416
685,04	29,963
685,22	29,140
685,41	28,403
685,59	29,034
685,78	27,454
685,96	29,066
686,15	28,672
686,33	28,680
686,52	28,088
686,70	29,970
686,89	30,226
687,07	29,438
687,26	29,933
687,44	30,548
687,62	27,745
687,81	30,705
687,99	28,645
688,18	29,388
688,36	29,341
688,55	29,673
688,73	30,117
688,92	28,371
689,10	29,646
689,29	29,797
689,47	31,574
689,66	30,112
689,84	28,820
690,03	27,518
690,21	27,844
690,40	29,111
690,58	29,965
690,76	29,025
690,95	31,968
691,13	28,861
691,32	30,455
691,50	30,456
691,69	30,866
691,87	29,525
692,06	30,404
692,24	29,412
692,43	29,664
692,61	28,370
692,79	29,932
692,98	28,780
693,16	31,859
693,35	29,364
693,53	30,172
693,72	30,381
693,90	31,370
694,08	29,377
694,27	28,548
694,45	31,059
694,64	33,546
694,82	28,919
695,01	28,029
695,19	30,162
695,37	29,882
695,56	28,729
695,74	30,348
695,93	31,415
696,11	29,900
696,29	31,573
696,48	31,412
696,66	32,129
696,85	30,782
697,03	28,686
697,21	32,789
697,40	30,646
697,58	29,904
697,77	29,531
697,95	31,745
698,13	31,518
698,32	30,893
698,50	31,005
698,69	29,489
698,87	31,715
699,05	30,367
699,24	28,284
699,42	29,641
699,60	29,162
699,79	31,153
699,97	29,919
700,16	28,442
700,34	32,813
700,52	30,763
700,71	30,939
700,89	29,651
701,07	30,056
701,26	30,827
701,44	31,356
701,63	29,072
701,81	30,845
701,99	29,732
702,18	28,915
702,36	28,903
702,54	29,960
702,73	28,858
702,91	30,025
703,09	29,603
703,28	29,568
703,46	29,385
703,64	30,622
703,83	30,567
704,01	31,216
704,19	29,787
704,38	30,388
704,56	30,290
704,74	30,634
704,93	30,565
705,11	29,914
705,29	30,264
705,48	33,287
705,66	30,912
705,84	30,515
706,03	27,523
706,21	30,229
706,39	30,805
706,58	30,909
706,76	28,959
706,94	32,388
707,12	32,171
707,31	29,729
707,49	29,764
707,67	30,510
707,86	31,457
708,04	30,507
708,22	29,386
708,41	29,482
708,59	31,331
708,77	30,351
708,95	29,727
709,14	33,966
709,32	31,144
709,50	29,303
709,69	28,943
709,87	29,663
710,05	30,477
710,23	29,331
710,42	29,192
710,60	31,556
710,78	31,463
710,97	30,112
711,15	31,141
711,33	31,191
711,51	28,931
711,70	28,356
711,88	29,039
712,06	31,061
712,24	31,164
712,43	29,433
712,61	30,305
712,79	31,582
712,97	28,377
713,16	31,508
713,34	30,319
713,52	29,125
713,70	30,084
713,89	31,337
714,07	29,824
714,25	31,450
714,43	32,002
714,62	30,202
714,80	30,427
714,98	27,682
715,16	29,999
715,35	28,502
715,53	30,435
715,71	31,544
715,89	31,985
716,07	29,335
716,26	34,431
716,44	33,258
716,62	32,403
716,80	31,678
716,99	30,029
717,17	30,618
717,35	30,990
717,53	30,094
717,71	29,125
717,90	31,264
718,08	29,961
718,26	29,145
718,44	31,028
718,62	30,690
718,81	31,814
718,99	30,022
719,17	30,919
719,35	31,081
719,53	29,264
719,72	29,485
719,90	30,551
720,08	29,794
720,26	31,751
720,44	29,330
720,62	30,714
720,81	31,484
720,99	31,167
721,17	30,503
721,35	32,788
721,53	31,314
721,72	31,200
721,90	31,869
722,08	30,301
722,26	32,788
722,44	29,462
722,62	30,064
722,81	30,545
722,99	29,451
723,17	30,424
723,35	30,759
723,53	32,303
723,71	32,914
723,89	31,551
724,08	29,960
724,26	30,635
724,44	29,942
724,62	31,458
724,80	30,800
724,98	31,050
725,16	33,294
725,35	32,186
725,53	29,079
725,71	30,055
725,89	30,263
726,07	31,684
726,25	32,502
726,43	30,695
726,61	30,970
726,80	31,245
726,98	30,209
727,16	30,718
727,34	30,758
727,52	30,416
727,70	28,738
727,88	30,353
728,06	29,444
728,25	30,285
728,43	30,295
728,61	30,201
728,79	30,741
728,97	30,608
729,15	32,152
729,33	33,530
729,51	31,869
729,69	30,247
729,87	30,228
730,06	31,476
730,24	30,836
730,42	32,266
730,60	27,855
730,78	30,549
730,96	30,048
731,14	33,161
731,32	29,694
731,50	29,473
731,68	31,353
731,86	29,661
732,04	32,701
732,22	31,588
732,41	33,660
732,59	30,130
732,77	32,189
732,95	32,514
733,13	32,533
733,31	31,234
733,49	28,984
733,67	31,233
733,85	32,308
734,03	32,952
734,21	30,147
734,39	31,263
734,57	32,486
734,75	31,596
734,93	29,422
735,11	30,516
735,29	29,930
735,47	33,342
735,65	30,718
735,84	29,952
736,02	31,883
736,20	34,420
736,38	30,602
736,56	30,677
736,74	29,397
736,92	31,070
737,10	29,657
737,28	31,584
737,46	31,893
737,64	30,343
737,82	29,369
738,00	31,935
738,18	30,013
738,36	31,208
738,54	30,296
738,72	28,834
738,90	31,714
739,08	33,193
739,26	27,379
739,44	30,011
739,62	32,070
739,80	32,303
739,98	30,726
740,16	29,987
740,34	31,133
740,52	33,678
740,70	32,121
740,88	29,949
741,06	30,091
741,24	29,902
741,42	31,538
741,60	29,400
741,78	32,325
741,96	30,606
742,14	30,534
742,32	28,844
742,50	30,451
742,68	31,330
742,86	28,269
743,04	29,347
743,21	31,911
743,39	32,040
743,57	29,210
743,75	32,143
743,93	28,021
744,11	28,443
744,29	29,514
744,47	30,988
744,65	31,361
744,83	30,069
745,01	32,013
745,19	31,138
745,37	33,716
745,55	32,721
745,73	30,552
745,91	30,850
746,09	31,625
746,27	30,937
746,45	29,190
746,62	29,403
746,80	30,117
746,98	30,747
747,16	30,219
747,34	30,615
747,52	31,556
747,70	29,993
747,88	30,307
748,06	29,942
748,24	30,452
748,42	32,533
748,60	30,144
748,78	30,138
748,95	30,594
749,13	36,281
749,31	30,489
749,49	31,771
749,67	31,139
749,85	32,157
750,03	31,769
750,21	30,817
750,39	29,538
750,57	34,810
750,74	33,036
750,92	29,254
751,10	31,744
751,28	29,840
751,46	30,916
751,64	31,534
751,82	31,790
752,00	31,364
752,17	31,667
752,35	29,638
752,53	30,491
752,71	30,328
752,89	30,007
753,07	29,401
753,25	31,290
753,43	30,313
753,60	30,223
753,78	29,289
753,96	31,039
754,14	31,007
754,32	31,053
754,50	30,717
754,68	31,707
754,85	29,912
755,03	30,635
755,21	30,085
755,39	33,391
755,57	32,287
755,75	29,453
755,92	30,520
756,10	32,711
756,28	33,225
756,46	30,346
756,64	30,398
756,82	32,148
756,99	29,821
757,17	29,413
757,35	29,403
757,53	33,788
757,71	31,908
757,89	28,316
758,06	31,683
758,24	31,740
758,42	32,470
758,60	29,983
758,78	30,899
758,95	32,272
759,13	32,469
759,31	30,138
759,49	30,577
759,67	30,359
759,84	33,011
760,02	31,248
760,20	30,145
760,38	30,036
760,56	30,503
760,73	31,344
760,91	31,633
761,09	34,711
761,27	31,420
761,45	30,994
761,62	30,643
761,80	30,460
761,98	30,704
762,16	31,845
762,33	31,305
762,51	31,656
762,69	30,680
762,87	31,778
763,05	29,397
763,22	30,969
763,40	30,688
763,58	30,332
763,76	29,292
763,93	31,933
764,11	31,960
764,29	29,843
764,47	29,691
764,64	29,856
764,82	33,097
765,00	30,679
765,18	29,499
765,35	30,751
765,53	31,704
765,71	30,394
765,89	30,373
766,06	30,023
766,24	32,403
766,42	32,616
766,60	30,692
766,77	31,183
766,95	30,323
767,13	31,666
767,30	30,367
767,48	31,040
767,66	31,023
767,84	30,802
768,01	30,375
768,19	33,023
768,37	31,106
768,54	30,253
768,72	31,066
768,90	32,114
769,08	30,902
769,25	33,422
769,43	30,891
769,61	26,443
769,78	31,353
769,96	30,601
770,14	34,036
770,31	32,073
770,49	32,134
770,67	31,047
770,85	30,953
771,02	31,249
771,20	29,084
771,38	32,862
771,55	32,176
771,73	28,826
771,91	30,858
772,08	31,165
772,26	29,588
772,44	31,326
772,61	30,394
772,79	30,463
772,97	30,338
773,14	27,911
773,32	33,034
773,50	28,613
773,67	31,822
773,85	34,243
774,03	33,356
774,20	31,894
774,38	31,806
774,56	30,609
774,73	28,197
774,91	30,296
775,09	31,807
775,26	30,300
775,44	30,447
775,61	31,618
775,79	30,157
775,97	35,008
776,14	29,410
776,32	29,239
776,50	30,335
776,67	30,473
776,85	30,443
777,03	27,462
777,20	31,491
777,38	31,720
777,55	32,187
777,73	27,065
777,91	30,053
778,08	30,864
778,26	31,531
778,43	31,361
778,61	28,490
778,79	32,664
778,96	29,959
779,14	30,505
779,32	29,515
779,49	32,141
779,67	33,120
779,84	32,273
780,02	32,431
780,20	27,571
780,37	30,824
780,55	25,619
780,72	34,525
780,90	31,200
781,07	30,906
781,25	30,437
781,43	31,823
781,60	30,024
781,78	31,448
781,95	31,377
782,13	31,547
782,30	33,027
782,48	31,939
782,66	29,760
782,83	29,321
783,01	33,698
783,18	29,431
783,36	31,001
783,53	30,308
783,71	30,635
783,89	32,135
784,06	33,993
784,24	31,408
784,41	32,871
784,59	30,694
784,76	31,873
784,94	32,540
785,11	30,224
785,29	32,641
785,46	33,087
785,64	32,123
785,82	32,186
785,99	31,986
786,17	29,074
786,34	31,112
786,52	31,977
786,69	33,111
786,87	30,308
787,04	28,643
787,22	29,253
787,39	32,481
787,57	33,482
787,74	30,140
787,92	34,335
788,09	31,937
788,27	32,008
788,44	31,301
788,62	32,851
788,79	32,104
788,97	30,597
789,14	29,343
789,32	32,232
789,49	32,317
789,67	29,816
789,84	32,149
790,02	33,290
790,19	32,824
790,37	33,010
790,54	31,169
790,72	35,637
790,89	34,774
791,07	32,237
791,24	27,770
791,42	32,017
791,59	31,170
791,77	30,429
791,94	30,255
792,12	32,606
792,29	32,551
792,47	33,068
792,64	32,850
792,81	31,736
792,99	30,503
793,16	32,961
793,34	32,635
793,51	33,777
793,69	33,438
793,86	31,008
794,04	31,673
794,21	35,669
794,39	28,178
794,56	31,228
794,73	33,441
794,91	33,550
795,08	31,834
795,26	30,107
795,43	31,076
795,61	34,606
795,78	33,417
795,95	32,736
796,13	31,931
796,30	33,690
796,48	33,411
796,65	33,030
796,83	34,088
797,00	33,139
797,17	30,065
797,35	32,144
797,52	30,653
797,70	33,222
797,87	32,381
798,04	30,723
798,22	34,946
798,39	34,116
798,57	31,848
798,74	33,975
798,91	32,769
799,09	31,307
799,26	32,947
799,44	31,096
799,61	30,649
799,78	32,012
799,96	34,168
800,13	31,710
800,31	32,810
800,48	34,952
800,65	36,828
800,83	32,022
801,00	29,827
801,17	33,840
801,35	33,085
801,52	32,125
801,70	32,326
801,87	31,191
802,04	34,995
802,22	29,027
802,39	32,626
802,56	36,077
802,74	34,998
802,91	31,352
803,08	29,416
803,26	33,297
803,43	36,426
803,61	31,828
803,78	29,201
803,95	34,661
804,13	34,689
804,30	32,021
804,47	35,172
804,65	35,734
804,82	32,867
804,99	32,327
805,17	34,388
805,34	36,285
805,51	36,835
805,69	28,043
805,86	31,831
806,03	34,509
806,21	36,130
806,38	33,448
806,55	38,367
806,72	34,244
806,90	34,155
807,07	31,558
807,24	32,206
807,42	31,777
807,59	35,081
807,76	31,210
807,94	31,113
808,11	34,121
808,28	34,674
808,45	31,880
808,63	33,624
808,80	37,878
808,97	33,261
809,15	32,175
809,32	31,727
809,49	31,222
809,67	29,876
809,84	33,482
810,01	35,953
810,18	40,504
810,36	34,791
810,53	36,390
810,70	32,545
810,87	34,436
811,05	31,744
811,22	33,181
811,39	31,948
811,57	37,518
811,74	38,696
811,91	32,128
812,08	33,291
812,26	35,630
812,43	32,293
812,60	32,328
812,77	35,072
812,95	38,823
813,12	36,392
813,29	29,696
813,46	30,975
813,64	34,819
813,81	32,511
813,98	34,191
814,15	32,906
814,32	39,704
814,50	37,040
814,67	35,054
814,84	33,751
815,01	31,032
815,19	28,719
815,36	24,916
815,53	33,157
815,70	33,353
815,87	34,569
816,05	30,083
816,22	34,239
816,39	39,095
816,56	37,191
816,74	30,279
816,91	33,099
817,08	40,987
817,25	38,190
817,42	34,279
817,60	32,540
817,77	35,268
817,94	34,799
818,11	36,290
818,28	29,907
818,45	32,171
818,63	31,364
818,80	30,210
818,97	35,748
819,14	34,525
819,31	39,412
819,49	36,472
819,66	27,167
819,83	36,353
820,00	35,435
820,17	35,188
820,34	36,546
820,52	40,577
820,69	40,104
820,86	33,237
821,03	32,988
821,20	42,220
821,37	36,403
821,55	26,064
821,72	33,031
821,89	36,990
822,06	38,099
822,23	28,739
822,40	36,158
822,57	33,722
822,75	37,197
822,92	28,966
823,09	31,513
823,26	35,900
823,43	43,240
823,60	32,764
823,77	38,247
823,94	35,497
824,12	41,308
824,29	29,884
824,46	30,835
824,63	37,983
824,80	34,305
824,97	37,751
825,14	36,467
825,31	37,848
825,49	40,203
825,66	32,249
825,83	32,967
826,00	36,611
826,17	44,261
826,34	31,644
826,51	29,972
826,68	33,904
826,85	31,579
827,02	35,959
827,20	30,085
827,37	36,087
827,54	36,286
827,71	34,424
827,88	37,065
828,05	36,980
828,22	32,440
828,39	37,414
828,56	43,369
828,73	38,913
828,90	39,972
829,07	33,288
829,25	35,868
829,42	39,016
829,59	29,038
829,76	31,983
829,93	34,969
830,10	38,784
830,27	31,129
830,44	38,522
830,61	34,720
830,78	48,689
830,95	36,808
831,12	38,767
831,29	36,910
831,46	26,624
831,63	32,897
831,80	34,916
831,97	35,336
832,14	39,427
832,31	44,780
832,48	37,521
832,65	40,438
832,83	33,547
833,00	35,203
833,17	35,925
833,34	36,542
833,51	40,829
833,68	38,396
833,85	48,048
834,02	30,282
834,19	33,932
834,36	41,441
834,53	27,068
834,70	32,524
834,87	45,920
835,04	39,820
835,21	39,224
835,38	31,745
835,55	36,125
835,72	46,608
835,89	34,019
836,06	37,515
836,23	46,361
836,40	31,083
836,57	32,669
836,74	46,991
836,91	41,170
837,08	43,124
837,25	38,531
837,42	32,209
837,59	42,127
837,76	41,148
837,93	41,574
838,09	33,943
838,26	39,319
838,43	44,291
838,60	39,591
838,77	31,099
838,94	49,565
839,11	32,997
839,28	31,055
839,45	39,885
839,62	42,600
839,79	37,166
839,96	44,997
840,13	38,619
840,30	32,706
840,47	35,056
840,64	37,300
840,81	38,813
840,98	36,086
841,15	40,066
841,32	27,528
841,48	39,691
841,65	43,780
841,82	38,273
841,99	38,730
842,16	34,589
842,33	41,890
842,50	39,845
842,67	38,509
842,84	38,369
843,01	38,667
843,18	32,027
843,35	33,320
843,52	34,048
843,68	40,898
843,85	42,824
844,02	37,066
844,19	35,939
844,36	48,783
844,53	49,989
844,70	43,283
844,87	57,081
845,04	45,166
845,21	32,632
845,37	42,884
845,54	40,142
845,71	31,598
845,88	52,725
846,05	28,990
846,22	28,898
846,39	40,952
846,56	42,995
846,72	25,600
846,89	48,695
847,06	45,508
847,23	54,800
847,40	39,048
847,57	28,671
847,74	46,561
847,90	48,302
848,07	33,946
848,24	33,503
848,41	38,528
848,58	50,177
848,75	45,125
848,92	29,413
849,08	35,323
849,25	41,928
849,42	38,924
849,59	40,560
849,76	35,330
849,93	37,693
850,09	40,773
850,26	34,143
850,43	47,780
850,60	40,666
850,77	30,958
850,94	40,689
851,10	50,382
851,27	42,448
851,44	33,807
851,61	29,833
851,78	49,041
851,95	44,691
852,11	29,817
852,28	38,109
852,45	40,752
852,62	31,865
852,79	38,669
852,95	38,113
853,12	40,542
853,29	33,803
853,46	22,595
853,63	44,707
853,79	39,538
853,96	38,161
854,13	52,296
854,30	42,236
854,46	61,148
854,63	49,720
854,80	31,764
854,97	33,985
855,14	50,258
855,30	48,121
855,47	37,353
855,64	40,131
855,81	44,261
855,97	51,140
856,14	46,217
856,31	32,587
856,48	53,152
856,65	54,204
856,81	47,439
856,98	34,895
857,15	28,991
857,32	50,833
857,48	39,798
857,65	44,239
857,82	49,370
857,99	40,128
858,15	38,671
858,32	37,903
858,49	48,909
858,65	61,464
858,82	42,434
858,99	38,186
859,16	53,993
859,32	54,298
859,49	27,737
859,66	41,353
859,83	45,815
859,99	34,917
860,16	55,676
860,33	47,127
860,49	50,596
860,66	58,829
860,83	42,200
861,00	34,890
861,16	57,218
861,33	42,232
861,50	46,126
861,66	48,073
861,83	67,322
862,00	39,250
862,16	51,342
862,33	33,827
862,50	65,684
862,67	52,003
862,83	39,780
863,00	54,220
863,17	64,400
863,33	55,603
863,50	23,862
863,67	23,604
863,83	43,828
864,00	63,861
864,17	22,744
864,33	34,779
864,50	67,030
864,67	37,071
864,83	27,848
865,00	39,537
865,17	48,291
865,33	59,855
865,50	28,369
865,67	41,365
865,83	50,797
866,00	57,666
866,17	38,171
866,33	48,119
866,50	75,363
866,66	51,913
866,83	36,911
867,00	69,698
867,16	59,221
867,33	84,901
867,50	7,492
867,66	34,211
867,83	57,778
868,00	66,764
868,16	46,321
868,33	26,844
868,49	80,513
868,66	65,560
868,83	54,364
868,99	59,175
869,16	60,979
869,32	64,808
869,49	53,947
869,66	15,728
869,82	84,496
869,99	63,822
870,15	23,277
870,32	59,354
870,49	72,580
870,65	82,440
870,82	34,176
870,98	52,395
871,15	80,436
871,32	65,125
871,48	14,234
871,65	36,943
871,81	57,465
871,98	27,883
872,15	29,321
872,31	33,367
872,48	91,409
872,64	69,261
872,81	41,224
872,97	35,049
873,14	86,386
873,31	69,098
873,47	54,482
873,64	58,597
873,80	81,563
873,97	94,899
874,13	39,764
874,30	59,049
874,46	87,173
874,63	68,923
874,80	45,817
874,96	14,467
875,13	89,913
875,29	34,478
875,46	92,873
875,62	15,041
875,79	99,421
875,95	65,370
876,12	47,034
876,28	2,361
876,45	74,074
876,61	58,317
876,78	35,438
876,94	37,534
877,11	59,804
877,27	78,682
877,44	100,527
877,60	22,341
877,77	105,044
877,94	110,173
878,10	39,023
878,27	82,892
878,43	99,336
878,60	45,878
878,76	50,230
878,93	40,372
879,09	92,736
879,26	80,331
879,42	81,705
879,58	47,395
879,75	96,925
879,91	119,281
880,08	17,018
880,24	43,669
880,41	66,882
880,57	108,736
880,74	33,910
880,90	50,222
881,07	75,859
881,23	99,954
881,40	34,509
881,56	90,808
881,73	107,077
881,89	119,813
882,06	4,451
882,22	158,377
882,38	137,819
882,55	124,387
882,71	35,981
882,88	27,623
883,04	70,590
883,21	143,453
883,37	24,126
883,54	63,663
883,70	148,716
883,86	67,331
884,03	86,361
884,19	45,411
884,36	-14,540
884,52	180,707
884,69	49,907
884,85	36,479
885,01	136,513
885,18	120,761
885,34	200,038
885,51	8,834
885,67	89,821
>>>>> Data<<<<< Espectral Procesado Extremo
