Fichero De Datos De SpectraSuite
++++++++++++++++++++++++++++++++++++
Fecha: Wed Apr 22 11:17:45 CEST 2009
Usuario: evoflor
Presente Oscuro Del Espectro: Sí
La Referencia de Presente Del Espectro De: Sí
Muestreados de los componentes de Número de espectros: 1
Espectrómetros: USB4F02353
Tiempo de integración (usec): 500000 (USB4F02353)
Promedio de Espectros Hechos un: 5 (USB4F02353)
El Alisar Del Furgón: 0 (USB4F02353)
Párrafo de de Corregir del la del del de Eléctrica del obscuridad: Sí (USB4F02353)
Estrobo/Lámpara Permitido: No (USB4F02353)
Correct for Detector Non-linearity: No (USB4F02353)
Párrafo de de Corregir del la del del de Externa del luz: No (USB4F02353)
Procesado del espectro de Número de pixeles en: 3648
>>>>> Comienza Data<<<<< Espectral Procesado Del EL
177,79	210,629
178,00	210,629
178,22	210,629
178,44	869,835
178,66	88,448
178,88	202,134
179,09	-180,191
179,31	176,948
179,53	568,560
179,75	357,967
179,96	636,595
180,18	-241,062
180,40	536,131
180,62	391,631
180,83	-245,269
181,05	-1504,207
181,27	-93645,000
181,49	-33,359
181,70	484,788
181,92	553,020
182,14	517,907
182,36	-1,807
182,58	251,550
182,79	1113,147
183,01	-2,362
183,23	201,699
183,45	-108,138
183,66	-191,350
183,88	58,500
184,10	-1866,273
184,32	193,923
184,53	256,279
184,75	-183,623
184,97	3,157
185,18	-125,273
185,40	-411,274
185,62	106,577
185,84	82,631
186,05	101,661
186,27	-102,152
186,49	1386,346
186,71	-9,944
186,92	59,909
187,14	-250,353
187,36	70,737
187,58	111,706
187,79	-16,482
188,01	172,558
188,23	-64,048
188,45	44,783
188,66	289,487
188,88	-148,091
189,10	-1701,450
189,31	116,647
189,53	-32,765
189,75	155,557
189,97	270,173
190,18	-65,472
190,40	286,147
190,62	-117,997
190,83	-296,002
191,05	184,650
191,27	146,700
191,49	234,022
191,70	-631,947
191,92	-404,619
192,14	23,939
192,35	534,867
192,57	3729,857
192,79	123,437
193,01	74,592
193,22	91,284
193,44	-101,442
193,66	105,373
193,87	131,146
194,09	-51,953
194,31	184,314
194,53	1076,538
194,74	132,169
194,96	105,940
195,18	167,036
195,39	-73,734
195,61	-33,069
195,83	-197,707
196,04	71,335
196,26	90,226
196,48	-5,667
196,70	157,545
196,91	69,708
197,13	109,481
197,35	21,324
197,56	426,455
197,78	1236,157
198,00	302,413
198,21	607,500
198,43	-602,006
198,65	78,380
198,86	230,018
199,08	47,361
199,30	93,006
199,51	-135,000
199,73	279,950
199,95	568,181
200,16	322,096
200,38	207,135
200,60	113,046
200,81	375,899
201,03	183,546
201,25	-1089,450
201,46	152,824
201,68	74,689
201,90	941,932
202,11	-659,714
202,33	116,418
202,55	-190,687
202,76	26,722
202,98	185,174
203,20	-30,505
203,41	-412,342
203,63	81,690
203,85	-81045,000
204,06	-81,334
204,28	-227,819
204,50	124,727
204,71	238,595
204,93	439,560
205,15	24,533
205,36	-241,004
205,58	74,367
205,80	-122,442
206,01	118,459
206,23	200,218
206,45	157,953
206,66	74,914
206,88	46,815
207,10	131,011
207,31	343,371
207,53	228,986
207,75	6,513
207,96	1068,246
208,18	-270,384
208,39	66,107
208,61	4038,429
208,83	-242,325
209,04	127,291
209,26	-37,535
209,48	207,644
209,69	206,202
209,91	514,003
210,13	55,408
210,34	-6,429
210,56	112,442
210,77	-1304,291
210,99	123,381
211,21	5190,882
211,42	-149,847
211,64	-4,194
211,86	204,820
212,07	254,978
212,29	186,990
212,50	135,152
212,72	34,788
212,94	134,803
213,15	81,200
213,37	68,354
213,58	-71,940
213,80	-1994,464
214,02	8367,353
214,23	363,038
214,45	138,836
214,67	-988,354
214,88	-311,225
215,10	-278,952
215,31	-60,819
215,53	-155,352
215,75	162,861
215,96	1733,199
216,18	-569,789
216,39	184,068
216,61	147,478
216,83	317,612
217,04	849,944
217,26	39,266
217,47	146,196
217,69	225,300
217,91	-113,776
218,12	-94545,000
218,34	112,552
218,55	186,326
218,77	2,853
218,99	118,181
219,20	-43,376
219,42	285,434
219,63	-13,529
219,85	-129,882
220,06	190,558
220,28	128,129
220,50	77,427
220,71	46,967
220,93	2768,774
221,14	-1827,450
221,36	36,052
221,58	-86,809
221,79	80,738
222,01	923,664
222,22	586,480
222,44	-282,640
222,65	73,915
222,87	214,301
223,09	114,396
223,30	82,142
223,52	54,483
223,73	146,601
223,95	-148,246
224,16	241,330
224,38	394,656
224,60	76,318
224,81	112,865
225,03	143,772
225,24	221,442
225,46	80,806
225,67	73,519
225,89	128,462
226,10	298,328
226,32	597,960
226,54	25,793
226,75	-32,976
226,97	148,545
227,18	127,529
227,40	82,857
227,61	47,571
227,83	37,625
228,04	115,805
228,26	9,902
228,47	30,155
228,69	215,532
228,91	161,812
229,12	61,367
229,34	43,628
229,55	48,878
229,77	2,692
229,98	-35,432
230,20	18,431
230,41	30,407
230,63	62,695
230,84	-27,570
231,06	16,493
231,27	24,293
231,49	38,679
231,71	34,417
231,92	17,331
232,14	10,214
232,35	51,387
232,57	33,248
232,78	33,160
233,00	2,546
233,21	44,253
233,43	6,894
233,64	-1,983
233,86	20,019
234,07	-6,492
234,29	11,707
234,50	17,072
234,72	35,300
234,93	-5,124
235,15	23,383
235,36	19,383
235,58	30,153
235,79	37,102
236,01	8,256
236,22	11,671
236,44	31,709
236,65	20,340
236,87	24,267
237,08	7,437
237,30	-18,225
237,51	26,404
237,73	-0,266
237,94	5,749
238,16	15,139
238,37	10,844
238,59	8,476
238,80	15,825
239,02	5,193
239,23	15,580
239,45	-9,275
239,66	14,498
239,88	29,691
240,09	12,754
240,31	-13,550
240,52	1,059
240,74	7,574
240,95	9,525
241,17	2,189
241,38	7,720
241,60	19,741
241,81	26,890
242,03	3,249
242,24	7,895
242,46	16,139
242,67	-0,860
242,89	10,112
243,10	15,389
243,32	17,351
243,53	9,123
243,75	3,384
243,96	1,713
244,18	10,121
244,39	16,293
244,60	6,937
244,82	7,791
245,03	15,662
245,25	3,969
245,46	26,083
245,68	1,914
245,89	13,978
246,11	7,593
246,32	13,987
246,54	2,740
246,75	7,434
246,97	6,670
247,18	17,246
247,39	-2,082
247,61	15,161
247,82	-1,307
248,04	3,445
248,25	4,964
248,47	5,879
248,68	6,696
248,90	0,003
249,11	12,094
249,33	13,492
249,54	3,742
249,75	10,369
249,97	5,367
250,18	9,771
250,40	12,186
250,61	-6,908
250,83	0,860
251,04	0,061
251,25	7,146
251,47	1,763
251,68	6,332
251,90	8,881
252,11	4,605
252,33	3,712
252,54	4,635
252,76	6,178
252,97	3,145
253,18	2,141
253,40	4,393
253,61	2,805
253,83	12,114
254,04	7,907
254,25	3,485
254,47	1,597
254,68	6,887
254,90	5,329
255,11	7,011
255,33	6,395
255,54	6,525
255,75	0,629
255,97	3,811
256,18	2,468
256,40	1,797
256,61	7,299
256,82	-0,777
257,04	10,493
257,25	3,056
257,47	0,825
257,68	1,222
257,89	7,601
258,11	8,332
258,32	1,298
258,54	2,306
258,75	5,352
258,96	8,151
259,18	4,532
259,39	1,119
259,61	3,384
259,82	3,422
260,03	7,335
260,25	4,940
260,46	6,267
260,68	3,714
260,89	4,722
261,10	0,771
261,32	7,018
261,53	1,837
261,75	8,073
261,96	-1,370
262,17	10,527
262,39	9,228
262,60	2,402
262,81	-1,867
263,03	8,087
263,24	6,008
263,46	2,462
263,67	0,308
263,88	3,925
264,10	7,700
264,31	-2,943
264,52	6,437
264,74	9,892
264,95	4,251
265,17	5,336
265,38	2,785
265,59	5,063
265,81	6,308
266,02	3,626
266,23	2,610
266,45	9,058
266,66	10,038
266,87	5,434
267,09	3,861
267,30	3,954
267,52	6,656
267,73	2,535
267,94	5,132
268,16	3,174
268,37	7,365
268,58	5,828
268,80	2,741
269,01	3,024
269,22	4,537
269,44	3,929
269,65	4,753
269,86	1,713
270,08	7,589
270,29	1,781
270,50	5,697
270,72	6,408
270,93	2,459
271,14	2,449
271,36	4,404
271,57	4,414
271,78	6,415
272,00	1,349
272,21	6,618
272,42	2,725
272,64	4,884
272,85	3,778
273,06	1,136
273,28	6,072
273,49	5,599
273,70	7,020
273,92	8,965
274,13	8,637
274,34	2,123
274,56	1,779
274,77	1,533
274,98	7,247
275,20	5,171
275,41	5,642
275,62	6,676
275,84	5,230
276,05	10,257
276,26	-1,303
276,47	1,063
276,69	6,412
276,90	5,134
277,11	4,871
277,33	0,834
277,54	5,850
277,75	3,471
277,97	2,746
278,18	1,109
278,39	2,321
278,61	4,855
278,82	5,116
279,03	6,761
279,24	2,446
279,46	3,459
279,67	6,892
279,88	5,083
280,10	7,336
280,31	-0,387
280,52	7,492
280,73	2,408
280,95	2,850
281,16	7,785
281,37	4,376
281,59	5,141
281,80	9,033
282,01	2,982
282,22	2,774
282,44	0,097
282,65	7,536
282,86	7,059
283,08	2,618
283,29	4,219
283,50	4,286
283,71	5,564
283,93	1,390
284,14	7,513
284,35	2,491
284,56	5,103
284,78	2,081
284,99	5,494
285,20	5,097
285,42	3,618
285,63	1,828
285,84	1,940
286,05	2,709
286,27	4,694
286,48	1,340
286,69	2,311
286,90	0,757
287,12	3,270
287,33	0,992
287,54	4,831
287,75	5,433
287,97	6,433
288,18	3,314
288,39	0,349
288,60	2,864
288,82	3,075
289,03	1,278
289,24	4,175
289,45	4,999
289,67	2,523
289,88	1,422
290,09	5,132
290,30	2,683
290,52	1,247
290,73	1,509
290,94	0,798
291,15	1,752
291,37	3,015
291,58	4,895
291,79	1,469
292,00	4,318
292,21	6,942
292,43	2,217
292,64	2,145
292,85	1,635
293,06	8,862
293,28	3,945
293,49	2,377
293,70	6,471
293,91	2,379
294,12	2,868
294,34	5,095
294,55	3,345
294,76	5,740
294,97	4,074
295,19	2,873
295,40	5,003
295,61	6,030
295,82	-0,308
296,03	5,103
296,25	4,111
296,46	1,177
296,67	0,278
296,88	-0,353
297,09	5,702
297,31	4,421
297,52	6,363
297,73	2,161
297,94	6,527
298,15	4,276
298,37	2,337
298,58	5,610
298,79	5,675
299,00	0,984
299,21	3,053
299,43	3,186
299,64	5,178
299,85	4,728
300,06	0,284
300,27	1,840
300,49	6,247
300,70	3,211
300,91	4,291
301,12	2,636
301,33	4,006
301,54	2,161
301,76	5,566
301,97	1,378
302,18	1,469
302,39	7,771
302,60	4,860
302,82	3,685
303,03	6,289
303,24	4,636
303,45	3,775
303,66	4,441
303,87	3,085
304,09	5,837
304,30	1,970
304,51	3,507
304,72	2,258
304,93	4,791
305,14	3,743
305,36	0,001
305,57	0,389
305,78	4,666
305,99	2,892
306,20	4,562
306,41	0,465
306,62	1,767
306,84	1,968
307,05	1,445
307,26	4,784
307,47	4,249
307,68	4,229
307,89	1,930
308,11	2,993
308,32	2,861
308,53	3,521
308,74	2,586
308,95	3,607
309,16	3,619
309,37	4,498
309,59	1,018
309,80	3,613
310,01	4,367
310,22	5,076
310,43	2,169
310,64	4,871
310,85	4,649
311,06	1,609
311,28	5,209
311,49	0,970
311,70	7,932
311,91	1,059
312,12	1,470
312,33	3,132
312,54	3,652
312,75	1,232
312,97	-0,048
313,18	5,448
313,39	2,387
313,60	3,935
313,81	4,364
314,02	5,974
314,23	4,352
314,44	2,965
314,65	5,077
314,87	3,462
315,08	3,197
315,29	5,530
315,50	4,427
315,71	6,838
315,92	6,597
316,13	3,292
316,34	1,233
316,55	7,113
316,77	-0,352
316,98	3,331
317,19	0,122
317,40	2,253
317,61	6,800
317,82	2,326
318,03	0,050
318,24	1,980
318,45	4,407
318,66	3,428
318,87	1,150
319,09	3,624
319,30	2,333
319,51	5,359
319,72	4,261
319,93	4,665
320,14	5,389
320,35	5,641
320,56	-1,215
320,77	2,299
320,98	5,725
321,19	2,678
321,40	3,908
321,62	6,170
321,83	2,461
322,04	2,716
322,25	2,874
322,46	5,009
322,67	6,039
322,88	4,560
323,09	1,173
323,30	7,480
323,51	5,217
323,72	4,186
323,93	-0,789
324,14	2,148
324,35	-0,229
324,56	2,352
324,77	2,693
324,99	2,671
325,20	-0,328
325,41	3,086
325,62	4,018
325,83	3,838
326,04	4,329
326,25	5,625
326,46	0,824
326,67	2,908
326,88	6,248
327,09	3,714
327,30	3,232
327,51	3,736
327,72	5,224
327,93	4,359
328,14	0,876
328,35	3,831
328,56	4,304
328,77	5,387
328,98	2,941
329,19	3,989
329,40	2,079
329,61	5,245
329,82	2,221
330,04	5,352
330,25	3,471
330,46	4,220
330,67	0,182
330,88	4,384
331,09	2,570
331,30	3,450
331,51	3,866
331,72	3,125
331,93	4,276
332,14	2,341
332,35	3,358
332,56	3,302
332,77	3,446
332,98	-0,104
333,19	4,101
333,40	3,783
333,61	3,816
333,82	5,026
334,03	5,099
334,24	4,138
334,45	1,824
334,66	6,756
334,87	2,493
335,08	0,346
335,29	2,970
335,50	0,216
335,71	3,253
335,92	4,128
336,13	6,417
336,34	1,558
336,55	5,357
336,76	6,369
336,97	3,517
337,18	2,532
337,39	1,987
337,60	3,698
337,81	2,234
338,02	4,136
338,23	3,521
338,44	4,439
338,65	4,242
338,86	4,236
339,07	1,891
339,28	2,935
339,49	3,244
339,70	-0,670
339,91	4,037
340,11	6,260
340,32	0,598
340,53	1,395
340,74	1,044
340,95	3,417
341,16	8,303
341,37	3,180
341,58	2,852
341,79	3,270
342,00	1,793
342,21	2,073
342,42	1,661
342,63	2,617
342,84	0,313
343,05	5,235
343,26	4,297
343,47	2,345
343,68	2,540
343,89	2,715
344,10	4,802
344,31	3,339
344,52	3,372
344,73	0,916
344,94	3,053
345,14	3,696
345,35	6,914
345,56	2,571
345,77	3,144
345,98	4,528
346,19	3,619
346,40	0,488
346,61	2,788
346,82	2,142
347,03	1,268
347,24	4,432
347,45	1,458
347,66	5,998
347,87	2,791
348,08	3,002
348,28	0,828
348,49	1,359
348,70	4,479
348,91	3,950
349,12	1,342
349,33	14,903
349,54	3,706
349,75	2,349
349,96	4,453
350,17	2,489
350,38	1,902
350,59	4,086
350,80	2,700
351,00	4,091
351,21	5,349
351,42	3,240
351,63	2,818
351,84	3,786
352,05	4,058
352,26	4,597
352,47	1,753
352,68	4,331
352,89	4,366
353,09	3,524
353,30	1,145
353,51	4,675
353,72	6,278
353,93	4,736
354,14	0,310
354,35	-0,569
354,56	7,968
354,77	2,824
354,98	0,181
355,18	2,059
355,39	8,078
355,60	2,484
355,81	4,138
356,02	4,123
356,23	2,956
356,44	1,771
356,65	4,069
356,85	8,218
357,06	6,315
357,27	5,395
357,48	3,000
357,69	5,395
357,90	4,189
358,11	2,294
358,32	4,208
358,52	6,312
358,73	3,901
358,94	2,006
359,15	6,831
359,36	4,755
359,57	3,218
359,78	3,380
359,98	0,842
360,19	-0,270
360,40	3,615
360,61	7,705
360,82	1,470
361,03	11,441
361,24	5,444
361,44	1,272
361,65	1,546
361,86	3,348
362,07	3,937
362,28	0,567
362,49	1,675
362,70	4,652
362,90	6,814
363,11	2,938
363,32	0,032
363,53	2,905
363,74	5,879
363,95	7,397
364,15	2,270
364,36	7,337
364,57	1,994
364,78	3,300
364,99	3,371
365,20	6,194
365,40	5,160
365,61	3,587
365,82	6,233
366,03	2,015
366,24	5,207
366,45	4,382
366,65	4,384
366,86	6,033
367,07	5,330
367,28	2,896
367,49	3,386
367,69	6,506
367,90	4,585
368,11	3,152
368,32	0,253
368,53	7,339
368,73	7,536
368,94	1,262
369,15	-0,090
369,36	4,762
369,57	2,882
369,78	1,594
369,98	7,114
370,19	8,674
370,40	3,587
370,61	0,623
370,82	2,768
371,02	4,010
371,23	8,024
371,44	1,769
371,65	4,498
371,85	6,355
372,06	3,470
372,27	4,435
372,48	1,311
372,69	4,506
372,89	3,065
373,10	1,582
373,31	2,202
373,52	3,564
373,73	5,824
373,93	4,003
374,14	3,635
374,35	9,129
374,56	6,147
374,76	4,385
374,97	0,941
375,18	2,987
375,39	4,333
375,60	6,760
375,80	5,785
376,01	1,480
376,22	5,882
376,43	4,381
376,63	2,526
376,84	3,034
377,05	3,898
377,26	2,304
377,46	1,828
377,67	1,220
377,88	5,350
378,09	2,425
378,29	0,457
378,50	4,391
378,71	6,068
378,92	1,571
379,12	3,689
379,33	4,142
379,54	3,520
379,75	4,958
379,95	4,227
380,16	5,605
380,37	8,504
380,58	3,936
380,78	6,137
380,99	5,175
381,20	2,643
381,41	7,220
381,61	4,789
381,82	4,784
382,03	6,638
382,24	5,897
382,44	6,685
382,65	4,014
382,86	5,405
383,06	3,515
383,27	2,562
383,48	4,017
383,69	8,559
383,89	3,197
384,10	5,688
384,31	3,653
384,51	3,460
384,72	7,876
384,93	2,830
385,14	3,412
385,34	3,627
385,55	0,460
385,76	1,571
385,96	5,913
386,17	3,533
386,38	2,572
386,59	6,482
386,79	2,494
387,00	9,731
387,21	7,111
387,41	5,977
387,62	3,078
387,83	6,378
388,03	4,512
388,24	0,601
388,45	5,672
388,66	4,239
388,86	2,049
389,07	2,438
389,28	7,356
389,48	2,524
389,69	3,335
389,90	3,509
390,10	5,667
390,31	5,788
390,52	0,632
390,72	1,176
390,93	5,570
391,14	0,002
391,34	4,262
391,55	5,735
391,76	5,873
391,96	2,854
392,17	1,696
392,38	6,880
392,58	4,963
392,79	5,024
393,00	1,137
393,20	3,976
393,41	6,581
393,62	5,734
393,82	3,985
394,03	4,575
394,24	6,475
394,44	7,088
394,65	3,618
394,86	1,806
395,06	4,092
395,27	2,325
395,48	1,823
395,68	4,051
395,89	3,031
396,10	4,714
396,30	1,078
396,51	1,851
396,72	8,362
396,92	1,351
397,13	4,417
397,34	-1,198
397,54	4,105
397,75	0,903
397,95	2,609
398,16	4,461
398,37	1,537
398,57	2,196
398,78	5,240
398,99	5,066
399,19	3,574
399,40	4,604
399,60	0,869
399,81	0,413
400,02	8,358
400,22	6,489
400,43	3,687
400,64	3,198
400,84	1,657
401,05	4,105
401,25	3,149
401,46	5,563
401,67	5,982
401,87	4,881
402,08	2,685
402,29	1,671
402,49	6,349
402,70	7,190
402,90	-0,159
403,11	2,350
403,32	6,715
403,52	4,876
403,73	4,880
403,93	6,866
404,14	8,510
404,35	8,090
404,55	2,217
404,76	3,566
404,96	5,464
405,17	6,031
405,38	6,913
405,58	1,364
405,79	5,849
405,99	0,840
406,20	1,883
406,40	0,516
406,61	6,122
406,82	0,329
407,02	6,351
407,23	3,686
407,43	1,337
407,64	1,196
407,85	3,625
408,05	0,494
408,26	10,623
408,46	7,431
408,67	-1,044
408,87	2,247
409,08	2,820
409,29	7,692
409,49	4,759
409,70	5,620
409,90	6,864
410,11	2,384
410,31	6,580
410,52	2,757
410,72	2,252
410,93	7,485
411,14	2,480
411,34	0,970
411,55	5,854
411,75	6,111
411,96	3,464
412,16	5,089
412,37	2,912
412,57	4,136
412,78	4,789
412,99	2,516
413,19	-0,369
413,40	0,290
413,60	2,700
413,81	1,432
414,01	1,833
414,22	2,665
414,42	-0,072
414,63	-1,395
414,83	7,762
415,04	6,744
415,24	2,035
415,45	-0,911
415,65	5,174
415,86	7,533
416,07	2,291
416,27	2,322
416,48	5,407
416,68	8,771
416,89	1,358
417,09	2,560
417,30	6,295
417,50	6,309
417,71	4,856
417,91	5,057
418,12	-0,221
418,32	2,718
418,53	4,558
418,73	0,549
418,94	2,938
419,14	6,138
419,35	-2,536
419,55	6,578
419,76	4,681
419,96	1,855
420,17	3,901
420,37	2,590
420,58	8,531
420,78	6,732
420,99	3,430
421,19	2,355
421,40	6,607
421,60	6,549
421,81	1,512
422,01	5,628
422,22	3,049
422,42	2,668
422,63	1,785
422,83	2,477
423,04	4,140
423,24	5,448
423,45	1,813
423,65	6,832
423,86	4,975
424,06	5,243
424,27	3,358
424,47	0,487
424,67	1,433
424,88	5,294
425,08	4,520
425,29	8,572
425,49	-0,819
425,70	-2,777
425,90	6,727
426,11	2,471
426,31	1,984
426,52	2,506
426,72	4,880
426,93	-0,180
427,13	6,920
427,33	1,992
427,54	8,152
427,74	5,599
427,95	3,913
428,15	0,759
428,36	5,414
428,56	1,512
428,77	8,981
428,97	3,821
429,18	5,779
429,38	1,713
429,58	5,898
429,79	6,143
429,99	4,807
430,20	-0,516
430,40	8,435
430,61	1,746
430,81	3,847
431,01	5,949
431,22	5,330
431,42	8,536
431,63	6,167
431,83	2,611
432,04	5,055
432,24	6,744
432,44	1,946
432,65	2,742
432,85	4,532
433,06	4,453
433,26	5,492
433,47	2,684
433,67	4,896
433,87	6,174
434,08	1,507
434,28	6,078
434,49	5,084
434,69	4,426
434,89	4,527
435,10	1,193
435,30	6,232
435,51	0,612
435,71	1,739
435,91	6,642
436,12	2,985
436,32	5,071
436,53	5,495
436,73	-0,140
436,93	5,701
437,14	5,580
437,34	3,664
437,55	4,687
437,75	2,949
437,95	6,545
438,16	2,281
438,36	1,120
438,57	0,330
438,77	0,630
438,97	4,977
439,18	6,069
439,38	2,871
439,58	2,288
439,79	4,313
439,99	2,557
440,20	6,300
440,40	1,748
440,60	4,370
440,81	4,008
441,01	2,855
441,21	7,494
441,42	5,275
441,62	6,257
441,83	1,335
442,03	0,768
442,23	6,275
442,44	5,656
442,64	5,509
442,84	3,277
443,05	5,420
443,25	1,064
443,45	0,482
443,66	3,914
443,86	0,581
444,06	3,549
444,27	2,697
444,47	1,523
444,67	-3,250
444,88	3,790
445,08	6,071
445,28	4,560
445,49	1,273
445,69	-0,836
445,90	5,776
446,10	5,135
446,30	5,695
446,51	5,979
446,71	6,525
446,91	6,773
447,12	5,934
447,32	-0,142
447,52	8,608
447,72	1,892
447,93	4,781
448,13	0,379
448,33	8,163
448,54	3,330
448,74	3,010
448,94	9,526
449,15	10,555
449,35	2,572
449,55	1,309
449,76	6,583
449,96	9,070
450,16	9,555
450,37	1,349
450,57	3,333
450,77	-0,356
450,98	2,615
451,18	7,220
451,38	3,888
451,58	3,579
451,79	5,114
451,99	8,105
452,19	4,274
452,40	1,327
452,60	2,092
452,80	3,046
453,00	6,632
453,21	6,688
453,41	4,423
453,61	2,874
453,82	4,050
454,02	-0,887
454,22	8,869
454,42	4,952
454,63	1,088
454,83	5,957
455,03	5,944
455,24	4,020
455,44	2,540
455,64	0,508
455,84	-1,490
456,05	-2,501
456,25	0,492
456,45	5,898
456,65	2,589
456,86	6,546
457,06	2,962
457,26	2,852
457,47	15,266
457,67	5,724
457,87	2,413
458,07	5,247
458,28	2,573
458,48	7,109
458,68	1,413
458,88	3,216
459,09	5,373
459,29	9,017
459,49	4,501
459,69	6,645
459,90	4,252
460,10	0,834
460,30	5,965
460,50	1,997
460,71	8,271
460,91	1,671
461,11	5,691
461,31	0,287
461,52	10,137
461,72	4,292
461,92	5,585
462,12	11,818
462,32	0,413
462,53	3,915
462,73	-2,190
462,93	8,459
463,13	-0,388
463,34	0,719
463,54	2,837
463,74	7,655
463,94	4,233
464,14	4,832
464,35	-0,467
464,55	8,899
464,75	9,613
464,95	5,340
465,16	0,302
465,36	5,131
465,56	2,562
465,76	0,944
465,96	2,836
466,17	3,963
466,37	5,679
466,57	5,507
466,77	7,280
466,97	0,698
467,18	8,345
467,38	4,595
467,58	2,838
467,78	4,315
467,98	3,910
468,19	2,326
468,39	6,250
468,59	7,925
468,79	3,734
468,99	4,162
469,19	3,208
469,40	8,250
469,60	-4,797
469,80	2,791
470,00	7,522
470,20	6,805
470,41	2,527
470,61	6,287
470,81	3,675
471,01	5,354
471,21	4,576
471,41	4,695
471,62	5,676
471,82	-0,107
472,02	1,040
472,22	4,804
472,42	4,906
472,62	7,323
472,83	4,969
473,03	9,594
473,23	6,434
473,43	9,563
473,63	4,567
473,83	6,478
474,03	1,200
474,24	7,126
474,44	2,661
474,64	2,655
474,84	0,736
475,04	6,034
475,24	8,263
475,45	5,809
475,65	4,057
475,85	6,041
476,05	1,123
476,25	5,956
476,45	4,882
476,65	7,596
476,85	5,698
477,06	3,868
477,26	2,412
477,46	8,014
477,66	4,999
477,86	5,469
478,06	2,609
478,26	10,079
478,46	5,102
478,67	7,067
478,87	2,945
479,07	4,912
479,27	7,606
479,47	6,746
479,67	1,357
479,87	3,205
480,07	7,566
480,28	4,397
480,48	3,027
480,68	7,696
480,88	10,514
481,08	8,107
481,28	6,756
481,48	5,794
481,68	6,578
481,88	7,057
482,08	7,581
482,29	9,325
482,49	5,938
482,69	8,671
482,89	8,401
483,09	9,832
483,29	8,064
483,49	6,248
483,69	10,086
483,89	9,300
484,09	8,054
484,29	4,703
484,50	8,197
484,70	9,746
484,90	8,331
485,10	6,978
485,30	9,778
485,50	11,494
485,70	9,412
485,90	9,508
486,10	5,615
486,30	9,801
486,50	9,621
486,70	9,863
486,90	10,472
487,10	13,815
487,30	8,595
487,51	8,493
487,71	6,988
487,91	9,881
488,11	10,800
488,31	8,752
488,51	14,227
488,71	10,171
488,91	11,994
489,11	10,860
489,31	14,228
489,51	11,526
489,71	12,394
489,91	11,837
490,11	11,886
490,31	14,954
490,51	13,791
490,71	12,292
490,91	13,134
491,11	14,089
491,31	17,040
491,51	12,157
491,72	16,387
491,92	14,529
492,12	19,413
492,32	15,482
492,52	19,502
492,72	16,363
492,92	18,765
493,12	18,915
493,32	14,908
493,52	14,438
493,72	16,050
493,92	18,912
494,12	18,772
494,32	22,606
494,52	18,194
494,72	17,959
494,92	18,899
495,12	23,335
495,32	20,630
495,52	19,627
495,72	22,096
495,92	22,892
496,12	25,265
496,32	18,105
496,52	18,773
496,72	22,508
496,92	25,473
497,12	21,674
497,32	23,869
497,52	24,190
497,72	24,334
497,92	23,462
498,12	24,712
498,32	23,873
498,52	25,351
498,72	23,285
498,92	25,128
499,12	28,236
499,32	24,856
499,52	27,281
499,72	26,709
499,92	27,884
500,12	28,075
500,32	27,211
500,52	27,944
500,72	32,770
500,91	33,086
501,11	29,824
501,31	26,904
501,51	30,923
501,71	31,641
501,91	31,522
502,11	29,974
502,31	30,164
502,51	33,374
502,71	30,868
502,91	32,519
503,11	32,443
503,31	35,043
503,51	29,912
503,71	32,940
503,91	36,292
504,11	36,697
504,31	32,876
504,51	36,393
504,71	39,409
504,91	36,039
505,10	35,946
505,30	37,993
505,50	36,869
505,70	36,280
505,90	39,131
506,10	34,918
506,30	36,545
506,50	37,768
506,70	41,788
506,90	37,703
507,10	38,741
507,30	39,266
507,50	40,074
507,70	38,189
507,89	39,937
508,09	39,789
508,29	40,523
508,49	39,322
508,69	40,992
508,89	42,025
509,09	43,781
509,29	42,575
509,49	42,636
509,69	45,802
509,89	39,390
510,09	43,421
510,28	44,410
510,48	43,675
510,68	43,998
510,88	44,671
511,08	44,993
511,28	44,045
511,48	43,576
511,68	41,156
511,88	43,982
512,07	48,408
512,27	45,914
512,47	47,206
512,67	46,252
512,87	42,315
513,07	47,648
513,27	46,179
513,47	47,054
513,67	46,187
513,86	48,884
514,06	46,110
514,26	46,184
514,46	49,403
514,66	45,629
514,86	48,042
515,06	50,540
515,26	50,259
515,45	46,107
515,65	48,157
515,85	48,360
516,05	49,791
516,25	48,550
516,45	54,394
516,65	51,344
516,84	55,007
517,04	50,405
517,24	49,176
517,44	51,211
517,64	54,466
517,84	55,539
518,04	52,691
518,23	55,818
518,43	52,785
518,63	50,430
518,83	52,535
519,03	50,186
519,23	54,193
519,42	54,096
519,62	53,551
519,82	51,839
520,02	52,272
520,22	52,115
520,42	51,559
520,61	54,930
520,81	56,435
521,01	56,234
521,21	53,554
521,41	52,475
521,61	57,139
521,80	53,073
522,00	54,882
522,20	56,327
522,40	56,157
522,60	55,950
522,79	55,710
522,99	58,760
523,19	53,960
523,39	56,012
523,59	57,789
523,78	61,208
523,98	57,638
524,18	55,964
524,38	56,814
524,58	59,119
524,77	58,881
524,97	58,068
525,17	56,476
525,37	56,287
525,57	61,834
525,76	56,576
525,96	59,198
526,16	55,416
526,36	56,324
526,56	60,008
526,75	53,729
526,95	61,718
527,15	59,710
527,35	61,160
527,55	58,755
527,74	63,088
527,94	57,021
528,14	56,675
528,34	57,862
528,53	56,932
528,73	61,492
528,93	60,246
529,13	57,412
529,32	59,371
529,52	59,121
529,72	59,723
529,92	57,006
530,12	58,587
530,31	55,323
530,51	61,591
530,71	60,350
530,91	62,184
531,10	53,641
531,30	59,687
531,50	58,135
531,70	60,123
531,89	61,117
532,09	56,191
532,29	56,247
532,49	57,112
532,68	58,907
532,88	59,194
533,08	58,887
533,28	59,761
533,47	56,891
533,67	61,967
533,87	58,310
534,06	66,270
534,26	59,473
534,46	59,421
534,66	60,191
534,85	61,228
535,05	55,820
535,25	58,134
535,45	58,479
535,64	58,951
535,84	58,095
536,04	58,795
536,23	60,643
536,43	61,515
536,63	59,762
536,83	60,259
537,02	57,171
537,22	58,497
537,42	58,245
537,61	55,534
537,81	59,739
538,01	57,136
538,20	60,613
538,40	55,513
538,60	56,978
538,80	54,996
538,99	53,911
539,19	53,342
539,39	53,590
539,58	53,186
539,78	50,880
539,98	49,710
540,17	50,198
540,37	48,385
540,57	46,857
540,76	47,724
540,96	45,767
541,16	47,850
541,36	44,464
541,55	43,010
541,75	41,218
541,95	43,431
542,14	40,455
542,34	41,772
542,54	40,164
542,73	42,579
542,93	42,450
543,13	42,996
543,32	41,402
543,52	43,115
543,72	41,247
543,91	43,458
544,11	41,013
544,31	41,266
544,50	42,061
544,70	42,274
544,89	42,990
545,09	44,955
545,29	43,233
545,48	45,550
545,68	43,497
545,88	47,031
546,07	46,688
546,27	45,490
546,47	48,142
546,66	47,648
546,86	51,671
547,06	47,772
547,25	50,601
547,45	52,982
547,64	53,333
547,84	55,969
548,04	54,712
548,23	55,618
548,43	54,191
548,63	58,378
548,82	56,059
549,02	53,455
549,21	55,893
549,41	56,729
549,61	56,530
549,80	55,926
550,00	59,129
550,20	54,848
550,39	56,335
550,59	56,556
550,78	59,714
550,98	57,437
551,18	58,352
551,37	59,887
551,57	55,855
551,76	56,111
551,96	55,562
552,16	58,056
552,35	58,038
552,55	59,049
552,74	59,661
552,94	61,119
553,14	57,874
553,33	60,667
553,53	59,851
553,72	60,137
553,92	63,050
554,12	58,142
554,31	59,818
554,51	60,981
554,70	57,937
554,90	61,368
555,09	64,220
555,29	60,841
555,49	61,764
555,68	62,428
555,88	62,561
556,07	61,520
556,27	63,536
556,46	60,896
556,66	59,615
556,86	63,777
557,05	61,041
557,25	57,700
557,44	61,276
557,64	60,622
557,83	62,973
558,03	57,972
558,22	60,622
558,42	60,772
558,62	64,816
558,81	62,330
559,01	60,124
559,20	61,443
559,40	62,374
559,59	60,187
559,79	59,279
559,98	61,213
560,18	63,450
560,37	62,139
560,57	61,570
560,76	61,431
560,96	61,251
561,16	63,885
561,35	61,632
561,55	64,825
561,74	61,927
561,94	64,853
562,13	62,245
562,33	64,097
562,52	61,690
562,72	60,399
562,91	61,288
563,11	63,613
563,30	64,371
563,50	58,865
563,69	61,688
563,89	59,839
564,08	61,298
564,28	61,997
564,47	62,267
564,67	63,247
564,86	61,998
565,06	60,050
565,25	62,410
565,45	61,464
565,64	63,334
565,84	61,385
566,03	61,258
566,23	63,251
566,42	62,088
566,62	60,029
566,81	60,933
567,01	61,645
567,20	63,459
567,40	60,368
567,59	62,242
567,79	65,484
567,98	64,467
568,18	64,139
568,37	64,425
568,57	62,913
568,76	64,712
568,96	63,500
569,15	60,668
569,35	68,086
569,54	64,161
569,73	66,361
569,93	62,512
570,12	62,985
570,32	67,122
570,51	62,267
570,71	65,049
570,90	65,874
571,10	62,571
571,29	63,695
571,49	62,350
571,68	63,788
571,87	64,601
572,07	63,940
572,26	62,373
572,46	63,186
572,65	64,685
572,85	61,497
573,04	62,855
573,24	64,449
573,43	66,993
573,62	64,702
573,82	65,496
574,01	63,374
574,21	63,654
574,40	60,874
574,60	64,063
574,79	63,919
574,98	62,689
575,18	63,662
575,37	60,313
575,57	64,162
575,76	63,606
575,96	62,950
576,15	62,398
576,34	62,887
576,54	64,680
576,73	64,087
576,93	61,457
577,12	62,778
577,31	62,277
577,51	59,889
577,70	62,688
577,90	63,847
578,09	62,154
578,28	62,019
578,48	61,028
578,67	64,253
578,87	61,849
579,06	61,516
579,25	62,876
579,45	62,544
579,64	60,450
579,84	60,416
580,03	61,557
580,22	64,747
580,42	61,327
580,61	60,876
580,81	61,572
581,00	61,579
581,19	64,630
581,39	62,444
581,58	61,715
581,77	62,240
581,97	63,093
582,16	60,098
582,35	60,981
582,55	61,615
582,74	61,761
582,94	61,323
583,13	60,346
583,32	61,395
583,52	59,185
583,71	60,743
583,90	62,369
584,10	62,443
584,29	61,484
584,48	60,066
584,68	60,387
584,87	61,071
585,06	59,868
585,26	59,554
585,45	59,286
585,65	62,428
585,84	59,490
586,03	61,242
586,23	60,668
586,42	59,845
586,61	62,749
586,81	61,213
587,00	60,454
587,19	59,643
587,39	61,628
587,58	59,565
587,77	60,313
587,97	60,421
588,16	59,542
588,35	59,996
588,54	60,247
588,74	58,549
588,93	60,297
589,12	59,352
589,32	61,339
589,51	61,206
589,70	59,195
589,90	59,447
590,09	60,084
590,28	64,831
590,48	58,754
590,67	59,420
590,86	60,462
591,06	60,084
591,25	61,713
591,44	62,471
591,63	60,428
591,83	61,284
592,02	61,108
592,21	62,606
592,41	59,746
592,60	59,282
592,79	62,419
592,98	60,982
593,18	62,104
593,37	60,405
593,56	62,706
593,76	63,395
593,95	61,885
594,14	60,178
594,33	61,957
594,53	62,532
594,72	62,650
594,91	65,803
595,10	62,111
595,30	63,426
595,49	62,603
595,68	62,739
595,88	62,947
596,07	62,411
596,26	61,444
596,45	62,742
596,65	59,641
596,84	61,646
597,03	61,508
597,22	61,606
597,42	63,465
597,61	61,511
597,80	62,068
597,99	63,076
598,19	61,394
598,38	62,741
598,57	61,873
598,76	64,447
598,95	63,344
599,15	62,528
599,34	63,724
599,53	63,785
599,72	64,753
599,92	63,379
600,11	60,310
600,30	63,714
600,49	63,916
600,69	62,586
600,88	62,454
601,07	62,348
601,26	63,078
601,45	63,557
601,65	63,255
601,84	63,716
602,03	63,140
602,22	62,514
602,42	62,587
602,61	61,755
602,80	63,985
602,99	62,615
603,18	60,575
603,38	62,243
603,57	61,661
603,76	63,071
603,95	61,377
604,14	61,773
604,34	62,965
604,53	61,282
604,72	62,947
604,91	63,700
605,10	63,159
605,29	63,809
605,49	61,012
605,68	63,101
605,87	62,613
606,06	62,399
606,25	61,426
606,45	62,399
606,64	63,019
606,83	60,083
607,02	61,063
607,21	61,388
607,40	62,240
607,60	58,974
607,79	60,292
607,98	57,466
608,17	57,371
608,36	57,283
608,55	56,094
608,75	56,554
608,94	55,545
609,13	52,920
609,32	50,099
609,51	51,938
609,70	49,009
609,89	52,549
610,09	49,660
610,28	52,051
610,47	48,678
610,66	49,125
610,85	47,822
611,04	49,405
611,23	47,794
611,43	50,018
611,62	49,116
611,81	49,444
612,00	50,145
612,19	49,704
612,38	50,575
612,57	51,603
612,77	51,621
612,96	53,040
613,15	53,449
613,34	54,734
613,53	55,473
613,72	54,678
613,91	55,554
614,10	55,588
614,29	57,769
614,49	55,821
614,68	53,689
614,87	57,934
615,06	59,122
615,25	56,471
615,44	59,125
615,63	58,590
615,82	58,566
616,01	57,378
616,21	56,887
616,40	57,997
616,59	58,248
616,78	58,553
616,97	59,056
617,16	58,349
617,35	61,632
617,54	58,215
617,73	60,050
617,92	59,267
618,11	60,002
618,31	57,402
618,50	59,437
618,69	57,793
618,88	58,611
619,07	57,731
619,26	58,480
619,45	56,764
619,64	57,179
619,83	56,799
620,02	56,521
620,21	58,448
620,40	60,206
620,59	56,483
620,78	57,924
620,97	58,841
621,17	57,352
621,36	58,636
621,55	58,121
621,74	58,929
621,93	57,445
622,12	58,801
622,31	58,107
622,50	56,883
622,69	60,382
622,88	57,989
623,07	61,564
623,26	59,306
623,45	59,441
623,64	57,834
623,83	56,964
624,02	58,373
624,21	59,627
624,40	59,834
624,59	58,308
624,78	60,024
624,97	60,695
625,16	56,210
625,35	56,749
625,54	59,028
625,73	58,419
625,92	57,911
626,12	61,493
626,31	60,896
626,50	60,144
626,69	58,853
626,88	59,022
627,07	58,597
627,26	60,729
627,45	56,771
627,64	58,974
627,83	59,644
628,02	57,944
628,21	58,192
628,40	56,028
628,59	60,439
628,78	58,259
628,97	57,892
629,16	57,430
629,35	56,045
629,54	60,773
629,73	58,118
629,92	57,766
630,10	58,228
630,29	58,459
630,48	57,265
630,67	57,131
630,86	58,633
631,05	58,794
631,24	61,351
631,43	56,997
631,62	58,434
631,81	57,230
632,00	58,764
632,19	56,962
632,38	58,462
632,57	58,718
632,76	57,998
632,95	57,558
633,14	60,214
633,33	59,025
633,52	59,800
633,71	57,860
633,90	58,953
634,09	58,916
634,28	59,206
634,47	57,329
634,66	59,505
634,85	60,280
635,04	59,735
635,22	60,324
635,41	57,926
635,60	61,547
635,79	59,278
635,98	58,303
636,17	61,493
636,36	61,033
636,55	58,394
636,74	59,250
636,93	59,411
637,12	61,164
637,31	60,772
637,50	58,748
637,69	59,426
637,87	60,885
638,06	61,278
638,25	58,988
638,44	59,596
638,63	59,109
638,82	58,796
639,01	58,683
639,20	59,738
639,39	61,131
639,58	57,860
639,77	59,718
639,95	58,708
640,14	59,952
640,33	59,000
640,52	58,710
640,71	60,107
640,90	59,970
641,09	61,450
641,28	58,272
641,47	62,585
641,66	59,359
641,84	58,809
642,03	57,105
642,22	58,385
642,41	60,660
642,60	58,878
642,79	59,923
642,98	60,251
643,17	56,891
643,35	58,512
643,54	59,834
643,73	57,934
643,92	59,953
644,11	59,018
644,30	56,592
644,49	59,717
644,67	59,700
644,86	57,202
645,05	61,715
645,24	56,701
645,43	58,946
645,62	59,334
645,81	59,298
645,99	61,355
646,18	59,652
646,37	58,158
646,56	56,426
646,75	59,761
646,94	59,583
647,13	59,173
647,31	59,459
647,50	58,924
647,69	61,093
647,88	60,686
648,07	60,184
648,26	63,351
648,44	58,847
648,63	58,209
648,82	59,388
649,01	60,637
649,20	58,356
649,38	58,734
649,57	58,448
649,76	56,548
649,95	59,897
650,14	57,630
650,33	59,129
650,51	59,061
650,70	59,822
650,89	59,431
651,08	57,202
651,27	59,355
651,45	58,892
651,64	58,351
651,83	59,794
652,02	59,270
652,21	59,093
652,39	59,833
652,58	59,154
652,77	56,703
652,96	58,759
653,15	58,422
653,33	59,037
653,52	60,206
653,71	60,042
653,90	60,474
654,09	60,200
654,27	60,828
654,46	62,256
654,65	61,581
654,84	61,286
655,02	62,693
655,21	62,143
655,40	63,333
655,59	59,605
655,77	62,628
655,96	60,309
656,15	62,138
656,34	63,515
656,53	61,573
656,71	62,254
656,90	61,154
657,09	61,517
657,28	61,352
657,46	61,171
657,65	61,274
657,84	59,417
658,03	59,626
658,21	59,462
658,40	58,897
658,59	60,117
658,78	59,661
658,96	57,573
659,15	57,242
659,34	59,588
659,52	57,402
659,71	59,157
659,90	57,412
660,09	56,286
660,27	57,992
660,46	58,305
660,65	57,914
660,84	55,841
661,02	58,480
661,21	57,943
661,40	57,263
661,58	58,058
661,77	56,782
661,96	56,803
662,15	57,366
662,33	55,566
662,52	57,154
662,71	58,315
662,89	55,958
663,08	55,317
663,27	59,212
663,45	56,539
663,64	57,582
663,83	54,915
664,02	55,158
664,20	57,181
664,39	53,561
664,58	56,386
664,76	56,530
664,95	57,907
665,14	55,940
665,32	54,698
665,51	57,307
665,70	56,933
665,88	56,672
666,07	56,606
666,26	58,625
666,44	56,181
666,63	54,815
666,82	57,565
667,00	56,547
667,19	54,547
667,38	55,716
667,56	55,964
667,75	55,913
667,94	56,055
668,12	54,682
668,31	56,367
668,50	57,382
668,68	57,742
668,87	54,390
669,06	56,266
669,24	55,380
669,43	55,997
669,62	54,898
669,80	52,176
669,99	54,480
670,18	55,461
670,36	53,954
670,55	55,357
670,74	57,024
670,92	53,884
671,11	55,476
671,29	53,936
671,48	56,214
671,67	54,765
671,85	56,622
672,04	54,482
672,23	53,743
672,41	54,199
672,60	56,893
672,78	53,939
672,97	55,578
673,16	56,301
673,34	54,988
673,53	54,190
673,71	54,018
673,90	56,332
674,09	56,070
674,27	53,512
674,46	54,957
674,64	54,918
674,83	54,641
675,02	53,938
675,20	53,676
675,39	54,079
675,57	53,664
675,76	52,961
675,95	56,414
676,13	56,066
676,32	56,802
676,50	53,818
676,69	54,591
676,88	53,079
677,06	55,352
677,25	56,756
677,43	56,348
677,62	54,495
677,80	56,515
677,99	56,140
678,18	56,543
678,36	56,772
678,55	53,472
678,73	54,262
678,92	55,627
679,10	57,012
679,29	54,643
679,48	54,722
679,66	54,433
679,85	54,089
680,03	55,543
680,22	55,714
680,40	54,776
680,59	55,330
680,77	52,946
680,96	57,116
681,15	54,674
681,33	56,871
681,52	53,215
681,70	55,617
681,89	58,134
682,07	56,063
682,26	54,975
682,44	57,896
682,63	57,403
682,81	55,816
683,00	56,384
683,18	52,993
683,37	54,885
683,55	56,124
683,74	55,958
683,92	60,514
684,11	56,686
684,29	55,480
684,48	54,025
684,67	56,812
684,85	56,471
685,04	55,159
685,22	57,062
685,41	56,984
685,59	56,168
685,78	55,659
685,96	55,012
686,15	55,851
686,33	56,965
686,52	57,014
686,70	55,502
686,89	55,223
687,07	57,892
687,26	58,011
687,44	56,180
687,62	57,517
687,81	58,064
687,99	58,552
688,18	58,003
688,36	56,638
688,55	57,383
688,73	56,557
688,92	56,487
689,10	57,775
689,29	58,810
689,47	60,060
689,66	57,321
689,84	56,874
690,03	61,436
690,21	58,266
690,40	57,703
690,58	55,851
690,76	55,622
690,95	59,947
691,13	58,427
691,32	58,917
691,50	58,358
691,69	57,860
691,87	55,558
692,06	57,292
692,24	57,118
692,43	59,455
692,61	56,665
692,79	57,410
692,98	54,916
693,16	60,376
693,35	57,661
693,53	58,543
693,72	59,270
693,90	59,585
694,08	56,524
694,27	56,450
694,45	60,438
694,64	60,397
694,82	58,822
695,01	56,395
695,19	58,972
695,37	58,532
695,56	59,729
695,74	58,925
695,93	58,369
696,11	58,775
696,29	60,915
696,48	58,863
696,66	60,441
696,85	60,923
697,03	57,765
697,21	60,476
697,40	58,150
697,58	58,741
697,77	57,793
697,95	59,205
698,13	62,175
698,32	59,912
698,50	57,930
698,69	57,704
698,87	60,298
699,05	59,676
699,24	57,235
699,42	57,666
699,60	57,061
699,79	58,607
699,97	59,000
700,16	55,464
700,34	59,696
700,52	58,597
700,71	59,493
700,89	58,329
701,07	60,118
701,26	59,476
701,44	59,531
701,63	59,155
701,81	60,333
701,99	59,855
702,18	57,991
702,36	56,315
702,54	59,722
702,73	58,365
702,91	58,620
703,09	57,004
703,28	60,474
703,46	59,020
703,64	59,138
703,83	59,488
704,01	59,430
704,19	59,847
704,38	57,209
704,56	57,977
704,74	58,392
704,93	56,815
705,11	59,347
705,29	57,462
705,48	60,904
705,66	58,053
705,84	58,634
706,03	57,629
706,21	59,972
706,39	57,275
706,58	57,629
706,76	57,015
706,94	59,557
707,12	59,378
707,31	58,853
707,49	56,635
707,67	58,583
707,86	60,277
708,04	59,538
708,22	57,301
708,41	57,738
708,59	58,105
708,77	58,539
708,95	60,377
709,14	62,181
709,32	59,042
709,50	56,788
709,69	57,431
709,87	58,417
710,05	58,354
710,23	57,868
710,42	57,560
710,60	59,082
710,78	59,982
710,97	56,996
711,15	58,822
711,33	59,676
711,51	56,058
711,70	58,923
711,88	56,502
712,06	59,386
712,24	58,671
712,43	59,973
712,61	58,084
712,79	61,837
712,97	58,887
713,16	58,928
713,34	59,350
713,52	59,630
713,70	58,616
713,89	58,211
714,07	59,058
714,25	56,775
714,43	60,840
714,62	58,398
714,80	59,744
714,98	57,573
715,16	59,341
715,35	56,877
715,53	56,762
715,71	59,537
715,89	61,795
716,07	58,223
716,26	64,083
716,44	61,203
716,62	59,197
716,80	59,498
716,99	58,568
717,17	61,167
717,35	58,498
717,53	58,502
717,71	58,438
717,90	57,387
718,08	60,112
718,26	56,227
718,44	59,349
718,62	59,886
718,81	60,204
718,99	57,278
719,17	58,824
719,35	60,310
719,53	58,612
719,72	57,824
719,90	59,679
720,08	58,596
720,26	60,491
720,44	57,598
720,62	57,708
720,81	59,077
720,99	60,638
721,17	58,321
721,35	58,567
721,53	59,451
721,72	59,480
721,90	60,178
722,08	59,870
722,26	59,593
722,44	58,485
722,62	58,301
722,81	56,507
722,99	60,299
723,17	60,202
723,35	57,393
723,53	60,113
723,71	59,550
723,89	60,473
724,08	58,238
724,26	58,902
724,44	58,365
724,62	60,502
724,80	58,361
724,98	60,355
725,16	60,591
725,35	58,960
725,53	57,662
725,71	58,175
725,89	60,597
726,07	62,827
726,25	63,015
726,43	57,925
726,61	61,377
726,80	60,134
726,98	57,187
727,16	60,307
727,34	59,552
727,52	58,760
727,70	57,625
727,88	60,265
728,06	57,210
728,25	58,847
728,43	59,534
728,61	60,232
728,79	57,620
728,97	59,085
729,15	59,025
729,33	58,581
729,51	61,488
729,69	62,048
729,87	59,721
730,06	59,673
730,24	57,550
730,42	62,255
730,60	57,463
730,78	59,579
730,96	57,538
731,14	60,784
731,32	59,062
731,50	58,451
731,68	58,684
731,86	57,386
732,04	58,249
732,22	58,390
732,41	58,127
732,59	58,662
732,77	60,207
732,95	63,626
733,13	58,347
733,31	61,465
733,49	59,177
733,67	59,753
733,85	58,834
734,03	60,235
734,21	58,260
734,39	59,365
734,57	59,995
734,75	60,061
734,93	61,143
735,11	60,941
735,29	58,089
735,47	61,196
735,65	59,729
735,84	56,376
736,02	59,097
736,20	64,111
736,38	61,160
736,56	59,023
736,74	58,604
736,92	59,408
737,10	56,482
737,28	59,594
737,46	59,992
737,64	56,610
737,82	58,763
738,00	60,526
738,18	61,251
738,36	58,466
738,54	57,431
738,72	56,470
738,90	57,889
739,08	61,654
739,26	56,201
739,44	58,680
739,62	59,738
739,80	61,977
739,98	58,070
740,16	57,713
740,34	58,032
740,52	61,576
740,70	59,658
740,88	57,645
741,06	60,155
741,24	61,444
741,42	62,380
741,60	57,789
741,78	59,988
741,96	58,254
742,14	58,228
742,32	59,009
742,50	59,489
742,68	61,799
742,86	57,721
743,04	58,770
743,21	57,330
743,39	61,240
743,57	58,206
743,75	59,116
743,93	57,322
744,11	56,487
744,29	57,258
744,47	59,845
744,65	57,289
744,83	57,793
745,01	59,518
745,19	59,390
745,37	59,734
745,55	61,497
745,73	59,871
745,91	58,030
746,09	58,759
746,27	58,566
746,45	58,702
746,62	58,268
746,80	59,195
746,98	58,370
747,16	56,093
747,34	59,705
747,52	57,843
747,70	58,677
747,88	58,346
748,06	58,256
748,24	58,565
748,42	60,736
748,60	57,616
748,78	58,010
748,95	60,722
749,13	62,772
749,31	60,514
749,49	60,249
749,67	58,909
749,85	61,507
750,03	59,564
750,21	60,824
750,39	58,014
750,57	58,249
750,74	58,302
750,92	58,044
751,10	58,573
751,28	59,275
751,46	58,118
751,64	59,361
751,82	58,979
752,00	58,523
752,17	59,587
752,35	58,595
752,53	59,903
752,71	59,236
752,89	60,343
753,07	57,744
753,25	60,417
753,43	58,856
753,60	61,400
753,78	58,636
753,96	59,281
754,14	58,620
754,32	59,794
754,50	58,528
754,68	62,494
754,85	60,416
755,03	60,348
755,21	59,314
755,39	63,732
755,57	60,920
755,75	58,913
755,92	58,331
756,10	60,232
756,28	59,499
756,46	58,734
756,64	59,063
756,82	60,064
756,99	59,427
757,17	58,801
757,35	57,826
757,53	62,179
757,71	59,992
757,89	57,923
758,06	58,569
758,24	60,735
758,42	60,018
758,60	59,287
758,78	60,960
758,95	58,198
759,13	60,332
759,31	58,261
759,49	58,643
759,67	58,307
759,84	60,418
760,02	60,422
760,20	59,397
760,38	58,978
760,56	57,514
760,73	60,348
760,91	60,701
761,09	61,793
761,27	59,809
761,45	57,529
761,62	58,228
761,80	60,361
761,98	60,744
762,16	58,997
762,33	58,809
762,51	61,911
762,69	60,463
762,87	60,458
763,05	60,256
763,22	58,443
763,40	58,006
763,58	56,905
763,76	59,803
763,93	59,095
764,11	59,896
764,29	58,683
764,47	60,862
764,64	62,166
764,82	62,479
765,00	58,680
765,18	56,631
765,35	58,639
765,53	60,117
765,71	60,068
765,89	57,795
766,06	57,733
766,24	61,139
766,42	61,787
766,60	57,188
766,77	58,922
766,95	59,586
767,13	59,288
767,30	58,690
767,48	59,007
767,66	57,665
767,84	57,577
768,01	59,517
768,19	60,836
768,37	59,562
768,54	57,152
768,72	60,866
768,90	61,012
769,08	60,680
769,25	61,487
769,43	59,127
769,61	58,681
769,78	59,999
769,96	61,228
770,14	60,673
770,31	58,102
770,49	61,106
770,67	59,102
770,85	57,946
771,02	58,137
771,20	57,655
771,38	59,482
771,55	59,732
771,73	58,782
771,91	60,119
772,08	60,814
772,26	58,683
772,44	58,218
772,61	57,950
772,79	58,953
772,97	58,714
773,14	59,598
773,32	61,901
773,50	58,755
773,67	60,836
773,85	62,018
774,03	58,323
774,20	60,331
774,38	60,802
774,56	60,043
774,73	60,862
774,91	59,333
775,09	59,815
775,26	59,093
775,44	60,049
775,61	60,402
775,79	58,598
775,97	59,701
776,14	59,951
776,32	57,298
776,50	57,989
776,67	58,252
776,85	62,766
777,03	58,632
777,20	60,141
777,38	62,210
777,55	61,403
777,73	56,816
777,91	59,596
778,08	61,799
778,26	58,029
778,43	60,859
778,61	55,583
778,79	58,882
778,96	56,453
779,14	59,401
779,32	59,695
779,49	59,669
779,67	62,597
779,84	59,693
780,02	58,790
780,20	57,583
780,37	61,302
780,55	53,363
780,72	61,846
780,90	60,060
781,07	60,298
781,25	59,598
781,43	60,597
781,60	59,887
781,78	61,382
781,95	60,361
782,13	57,900
782,30	59,440
782,48	59,883
782,66	61,127
782,83	56,995
783,01	64,311
783,18	61,035
783,36	62,182
783,53	61,167
783,71	57,528
783,89	59,667
784,06	60,480
784,24	61,457
784,41	62,242
784,59	61,174
784,76	63,260
784,94	59,077
785,11	60,809
785,29	60,696
785,46	58,059
785,64	61,368
785,82	62,111
785,99	59,385
786,17	57,732
786,34	62,612
786,52	60,129
786,69	65,998
786,87	62,363
787,04	60,714
787,22	58,006
787,39	61,750
787,57	63,093
787,74	61,151
787,92	63,878
788,09	63,577
788,27	61,802
788,44	57,253
788,62	62,862
788,79	61,402
788,97	64,097
789,14	62,573
789,32	58,021
789,49	59,670
789,67	58,444
789,84	64,680
790,02	60,574
790,19	61,226
790,37	61,108
790,54	61,062
790,72	62,525
790,89	63,864
791,07	61,595
791,24	57,964
791,42	61,964
791,59	62,764
791,77	59,451
791,94	59,559
792,12	62,007
792,29	62,850
792,47	62,613
792,64	64,223
792,81	62,886
792,99	61,838
793,16	62,570
793,34	64,885
793,51	65,285
793,69	65,463
793,86	60,717
794,04	57,929
794,21	63,186
794,39	59,195
794,56	59,588
794,73	59,550
794,91	60,390
795,08	62,762
795,26	57,161
795,43	62,433
795,61	61,879
795,78	62,057
795,95	63,434
796,13	62,969
796,30	60,766
796,48	57,619
796,65	59,343
796,83	59,301
797,00	66,547
797,17	61,338
797,35	62,175
797,52	63,187
797,70	66,893
797,87	62,245
798,04	60,528
798,22	61,687
798,39	62,485
798,57	61,529
798,74	61,876
798,91	60,923
799,09	61,647
799,26	62,038
799,44	61,121
799,61	61,281
799,78	63,223
799,96	61,972
800,13	61,146
800,31	63,682
800,48	64,465
800,65	64,070
800,83	59,477
801,00	61,984
801,17	59,586
801,35	61,348
801,52	59,192
801,70	62,470
801,87	63,054
802,04	67,519
802,22	58,490
802,39	59,386
802,56	63,860
802,74	63,657
802,91	62,748
803,08	57,625
803,26	65,599
803,43	68,050
803,61	59,991
803,78	60,010
803,95	63,543
804,13	65,597
804,30	58,734
804,47	62,861
804,65	62,278
804,82	61,181
804,99	58,790
805,17	60,356
805,34	69,746
805,51	64,933
805,69	62,998
805,86	61,137
806,03	68,337
806,21	66,060
806,38	62,855
806,55	64,686
806,72	65,723
806,90	65,167
807,07	65,464
807,24	61,225
807,42	59,579
807,59	61,834
807,76	54,868
807,94	65,546
808,11	59,626
808,28	63,051
808,45	64,595
808,63	60,421
808,80	67,341
808,97	62,487
809,15	58,217
809,32	62,287
809,49	59,390
809,67	59,302
809,84	61,250
810,01	65,935
810,18	69,782
810,36	64,252
810,53	61,724
810,70	62,900
810,87	63,123
811,05	63,505
811,22	65,133
811,39	60,938
811,57	66,697
811,74	64,168
811,91	64,859
812,08	60,528
812,26	64,771
812,43	60,130
812,60	60,173
812,77	64,315
812,95	65,452
813,12	65,209
813,29	59,139
813,46	66,608
813,64	66,491
813,81	64,296
813,98	62,571
814,15	63,462
814,32	68,428
814,50	66,749
814,67	65,145
814,84	67,250
815,01	63,210
815,19	58,979
815,36	60,035
815,53	63,078
815,70	60,400
815,87	64,588
816,05	56,555
816,22	64,352
816,39	69,696
816,56	69,355
816,74	62,934
816,91	63,098
817,08	67,539
817,25	64,614
817,42	66,332
817,60	62,696
817,77	63,690
817,94	65,240
818,11	68,441
818,28	67,084
818,45	63,007
818,63	65,325
818,80	61,076
818,97	64,819
819,14	66,816
819,31	69,946
819,49	67,310
819,66	61,353
819,83	65,883
820,00	65,127
820,17	60,871
820,34	60,657
820,52	67,273
820,69	64,776
820,86	61,376
821,03	68,159
821,20	64,955
821,37	71,718
821,55	61,605
821,72	64,487
821,89	70,118
822,06	73,001
822,23	61,268
822,40	58,907
822,57	67,911
822,75	67,354
822,92	61,984
823,09	65,502
823,26	65,541
823,43	66,241
823,60	64,051
823,77	64,539
823,94	68,946
824,12	71,647
824,29	59,878
824,46	60,694
824,63	65,939
824,80	71,666
824,97	62,921
825,14	69,409
825,31	65,383
825,49	66,959
825,66	65,041
825,83	63,660
826,00	67,880
826,17	69,636
826,34	66,030
826,51	62,068
826,68	63,169
826,85	68,518
827,02	66,226
827,20	63,074
827,37	69,484
827,54	67,490
827,71	70,493
827,88	68,467
828,05	67,436
828,22	68,683
828,39	75,529
828,56	68,266
828,73	67,365
828,90	66,759
829,07	66,056
829,25	66,944
829,42	70,462
829,59	60,469
829,76	61,813
829,93	63,588
830,10	66,461
830,27	64,024
830,44	62,312
830,61	68,648
830,78	74,709
830,95	69,473
831,12	62,610
831,29	63,088
831,46	66,222
831,63	68,732
831,80	63,416
831,97	63,617
832,14	71,736
832,31	72,688
832,48	66,613
832,65	65,062
832,83	73,564
833,00	66,945
833,17	68,730
833,34	68,754
833,51	73,554
833,68	74,810
833,85	67,322
834,02	60,793
834,19	67,654
834,36	78,881
834,53	61,720
834,70	69,405
834,87	81,239
835,04	69,708
835,21	73,122
835,38	71,157
835,55	60,822
835,72	75,986
835,89	68,371
836,06	62,088
836,23	74,875
836,40	67,136
836,57	71,389
836,74	70,821
836,91	67,010
837,08	72,284
837,25	70,415
837,42	62,909
837,59	68,019
837,76	72,464
837,93	67,610
838,09	57,855
838,26	71,418
838,43	71,108
838,60	63,433
838,77	61,236
838,94	76,889
839,11	64,838
839,28	62,280
839,45	65,907
839,62	65,787
839,79	67,933
839,96	72,477
840,13	68,724
840,30	65,501
840,47	64,541
840,64	70,630
840,81	72,796
840,98	68,904
841,15	87,502
841,32	60,392
841,48	71,955
841,65	75,099
841,82	63,837
841,99	68,016
842,16	63,279
842,33	76,436
842,50	73,148
842,67	59,870
842,84	61,067
843,01	72,022
843,18	67,209
843,35	72,109
843,52	62,114
843,68	69,437
843,85	64,843
844,02	68,745
844,19	60,825
844,36	83,693
844,53	64,711
844,70	70,458
844,87	82,674
845,04	76,619
845,21	67,443
845,37	74,485
845,54	71,010
845,71	69,689
845,88	84,113
846,05	63,327
846,22	65,086
846,39	73,906
846,56	79,859
846,72	60,904
846,89	70,912
847,06	78,171
847,23	84,431
847,40	66,441
847,57	68,928
847,74	73,068
847,90	82,052
848,07	77,401
848,24	72,556
848,41	73,167
848,58	85,442
848,75	71,287
848,92	64,194
849,08	72,234
849,25	76,844
849,42	66,736
849,59	84,990
849,76	63,613
849,93	68,964
850,09	85,729
850,26	54,290
850,43	85,084
850,60	67,955
850,77	63,090
850,94	67,912
851,10	70,566
851,27	71,864
851,44	58,923
851,61	58,504
851,78	78,621
851,95	70,285
852,11	64,670
852,28	72,368
852,45	74,184
852,62	74,865
852,79	68,806
852,95	64,973
853,12	75,556
853,29	73,167
853,46	81,524
853,63	78,400
853,79	66,037
853,96	73,116
854,13	70,477
854,30	61,751
854,46	91,413
854,63	74,351
854,80	82,536
854,97	67,349
855,14	86,573
855,30	94,425
855,47	74,756
855,64	74,331
855,81	77,012
855,97	77,243
856,14	77,536
856,31	56,135
856,48	87,347
856,65	91,347
856,81	67,115
856,98	62,210
857,15	87,310
857,32	75,866
857,48	60,981
857,65	82,363
857,82	84,687
857,99	88,096
858,15	70,603
858,32	74,360
858,49	77,104
858,65	101,041
858,82	80,642
858,99	72,156
859,16	89,325
859,32	77,973
859,49	61,659
859,66	63,295
859,83	72,744
859,99	70,719
860,16	73,606
860,33	75,833
860,49	92,771
860,66	78,790
860,83	60,509
861,00	67,530
861,16	84,515
861,33	82,535
861,50	64,926
861,66	71,720
861,83	93,492
862,00	83,891
862,16	84,293
862,33	71,293
862,50	107,499
862,67	79,631
862,83	71,636
863,00	90,812
863,17	107,110
863,33	90,448
863,50	84,666
863,67	69,034
863,83	77,854
864,00	109,018
864,17	72,792
864,33	76,672
864,50	82,646
864,67	88,276
864,83	60,273
865,00	70,004
865,17	62,595
865,33	94,225
865,50	60,473
865,67	60,194
865,83	84,614
866,00	124,330
866,17	89,396
866,33	88,231
866,50	115,804
866,66	84,708
866,83	89,444
867,00	95,802
867,16	96,633
867,33	75,026
867,50	64,183
867,66	58,217
867,83	89,272
868,00	100,029
868,16	60,275
868,33	65,653
868,49	79,002
868,66	120,494
868,83	94,877
868,99	90,009
869,16	108,913
869,32	95,419
869,49	65,099
869,66	82,926
869,82	106,375
869,99	111,187
870,15	60,605
870,32	90,983
870,49	107,708
870,65	130,378
870,82	76,565
870,98	93,134
871,15	112,127
871,32	80,117
871,48	50,760
871,65	63,891
871,81	82,806
871,98	52,731
872,15	78,931
872,31	66,051
872,48	129,111
872,64	82,714
872,81	64,597
872,97	88,508
873,14	115,266
873,31	66,260
873,47	109,370
873,64	72,876
873,80	139,940
873,97	135,582
874,13	79,388
874,30	77,515
874,46	149,905
874,63	82,224
874,80	81,807
874,96	67,610
875,13	107,151
875,29	101,140
875,46	119,192
875,62	54,399
875,79	121,440
875,95	95,332
876,12	72,260
876,28	36,217
876,45	132,797
876,61	77,985
876,78	65,139
876,94	63,835
877,11	110,473
877,27	148,239
877,44	105,843
877,60	87,775
877,77	142,104
877,94	136,970
878,10	86,646
878,27	96,738
878,43	113,113
878,60	70,734
878,76	102,718
878,93	53,940
879,09	134,639
879,26	131,184
879,42	87,757
879,58	98,494
879,75	101,583
879,91	99,676
880,08	93,130
880,24	76,088
880,41	121,726
880,57	112,819
880,74	100,062
880,90	115,447
881,07	85,199
881,23	125,379
881,40	93,625
881,56	126,810
881,73	130,937
881,89	117,887
882,06	119,073
882,22	243,168
882,38	198,320
882,55	138,593
882,71	106,103
882,88	85,984
883,04	227,579
883,21	166,112
883,37	69,003
883,54	76,342
883,70	224,873
883,86	146,443
884,03	131,679
884,19	54,882
884,36	70,596
884,52	179,166
884,69	102,776
884,85	53,888
885,01	243,355
885,18	116,933
885,34	56,910
885,51	26,328
885,67	64,537
>>>>> Data<<<<< Espectral Procesado Extremo
