Fichero De Datos De SpectraSuite
++++++++++++++++++++++++++++++++++++
Fecha: Wed Apr 22 11:19:55 CEST 2009
Usuario: evoflor
Presente Oscuro Del Espectro: Sí
La Referencia de Presente Del Espectro De: Sí
Muestreados de los componentes de Número de espectros: 1
Espectrómetros: USB4F02353
Tiempo de integración (usec): 500000 (USB4F02353)
Promedio de Espectros Hechos un: 5 (USB4F02353)
El Alisar Del Furgón: 0 (USB4F02353)
Párrafo de de Corregir del la del del de Eléctrica del obscuridad: Sí (USB4F02353)
Estrobo/Lámpara Permitido: No (USB4F02353)
Correct for Detector Non-linearity: No (USB4F02353)
Párrafo de de Corregir del la del del de Externa del luz: No (USB4F02353)
Procesado del espectro de Número de pixeles en: 3648
>>>>> Comienza Data<<<<< Espectral Procesado Del EL
177,79	217,429
178,00	217,429
178,22	217,429
178,44	638,242
178,66	-251,936
178,88	107,101
179,09	-243,064
179,31	337,252
179,53	809,350
179,75	85,301
179,96	1322,586
180,18	-239,446
180,40	502,930
180,62	220,743
180,83	-511,488
181,05	-685,610
181,27	-137220,000
181,49	22,565
181,70	254,308
181,92	696,548
182,14	242,530
182,36	-47,266
182,58	328,800
182,79	496,071
183,01	-75,491
183,23	134,154
183,45	-419,446
183,66	-25,752
183,88	-18,706
184,10	-2920,364
184,32	177,030
184,53	223,006
184,75	-148,873
184,97	74,760
185,18	-110,752
185,40	-296,250
185,62	93,184
185,84	162,052
186,05	102,258
186,27	-72,651
186,49	5277,692
186,71	-0,763
186,92	163,748
187,14	-113,429
187,36	81,395
187,58	218,952
187,79	-70,395
188,01	132,798
188,23	-57,443
188,45	-20,932
188,66	166,607
188,88	-2560,364
189,10	-1768,200
189,31	22,321
189,53	-7,445
189,75	350,727
189,97	136,615
190,18	-2,060
190,40	1161,882
190,62	-130,277
190,83	-77,860
191,05	105,119
191,27	122,057
191,49	237,178
191,70	-343,846
191,92	-445,932
192,14	-43,535
192,35	442,759
192,57	2043,429
192,79	-18,373
193,01	125,117
193,22	123,543
193,44	-57,543
193,66	140,541
193,87	0,899
194,09	-216,888
194,31	96,355
194,53	657,483
194,74	135,677
194,96	-37,442
195,18	106,874
195,39	-183,958
195,61	-95,339
195,83	-265,043
196,04	136,897
196,26	196,884
196,48	25,287
196,70	147,555
196,91	162,113
197,13	217,519
197,35	116,054
197,56	611,517
197,78	1547,910
198,00	380,559
198,21	-6,699
198,43	-572,791
198,65	51,760
198,86	360,863
199,08	122,361
199,30	164,818
199,51	-274,007
199,73	240,685
199,95	312,921
200,16	385,846
200,38	368,752
200,60	252,240
200,81	295,760
201,03	123,424
201,25	-1606,200
201,46	125,093
201,68	109,821
201,90	3241,364
202,11	-60,000
202,33	298,061
202,55	1501,500
202,76	14,966
202,98	-39,303
203,20	6,635
203,41	-504,316
203,63	149,158
203,85	-162420,000
204,06	71,972
204,28	64,048
204,50	196,215
204,71	263,110
204,93	82,560
205,15	218,133
205,36	-200,421
205,58	249,559
205,80	-160,143
206,01	81,341
206,23	186,139
206,45	271,352
206,66	222,751
206,88	26,521
207,10	74,591
207,31	306,914
207,53	65,486
207,75	65,096
207,96	1480,746
208,18	-112,833
208,39	56,216
208,61	4126,286
208,83	-244,405
209,04	243,726
209,26	-300,553
209,48	458,887
209,69	109,548
209,91	478,784
210,13	130,408
210,34	129,588
210,56	143,559
210,77	-1477,323
210,99	125,541
211,21	5212,941
211,42	-185,869
211,64	-63,331
211,86	130,311
212,07	174,884
212,29	143,493
212,50	118,874
212,72	119,308
212,94	80,753
213,15	48,970
213,37	148,914
213,58	-94,723
213,80	-2682,857
214,02	9924,706
214,23	278,321
214,45	393,836
214,67	861,951
214,88	-155,436
215,10	-208,310
215,31	83,450
215,53	29,591
215,75	215,165
215,96	1696,398
216,18	-653,239
216,39	150,793
216,61	319,258
216,83	246,964
217,04	722,697
217,26	44,226
217,47	167,376
217,69	288,788
217,91	-40,515
218,12	-35520,000
218,34	101,628
218,55	206,419
218,77	145,447
218,99	67,154
219,20	-106,444
219,42	312,073
219,63	-48,870
219,85	-114,175
220,06	-112,615
220,28	125,938
220,50	14,185
220,71	52,776
220,93	2928,679
221,14	-1012,200
221,36	105,889
221,58	167,782
221,79	269,056
222,01	678,621
222,22	985,658
222,44	-571,685
222,65	137,495
222,87	2,937
223,09	158,785
223,30	48,063
223,52	119,824
223,73	120,244
223,95	18,338
224,16	119,629
224,38	323,033
224,60	53,515
224,81	23,944
225,03	95,617
225,24	131,069
225,46	-9,767
225,67	-22,068
225,89	60,628
226,10	318,434
226,32	730,560
226,54	-2,600
226,75	67,569
226,97	95,907
227,18	96,283
227,40	56,227
227,61	73,231
227,83	-13,033
228,04	68,315
228,26	51,073
228,47	62,672
228,69	120,218
228,91	70,129
229,12	71,966
229,34	43,145
229,55	87,428
229,77	25,762
229,98	1,198
230,20	69,853
230,41	-8,657
230,63	98,724
230,84	43,547
231,06	12,643
231,27	34,377
231,49	59,980
231,71	9,641
231,92	22,866
232,14	-5,607
232,35	87,305
232,57	24,392
232,78	27,313
233,00	55,064
233,21	33,663
233,43	22,725
233,64	9,346
233,86	52,507
234,07	20,458
234,29	20,179
234,50	30,491
234,72	35,559
234,93	19,813
235,15	21,103
235,36	29,056
235,58	28,278
235,79	47,144
236,01	7,627
236,22	26,277
236,44	52,970
236,65	29,262
236,87	29,390
237,08	14,926
237,30	-2,573
237,51	22,972
237,73	7,579
237,94	9,009
238,16	10,444
238,37	12,465
238,59	10,683
238,80	7,841
239,02	14,365
239,23	23,418
239,45	3,354
239,66	22,558
239,88	26,560
240,09	26,770
240,31	7,415
240,52	18,821
240,74	17,025
240,95	10,196
241,17	9,877
241,38	2,456
241,60	10,387
241,81	24,299
242,03	4,770
242,24	9,620
242,46	22,490
242,67	8,986
242,89	9,914
243,10	14,912
243,32	13,440
243,53	17,738
243,75	7,162
243,96	10,734
244,18	12,335
244,39	14,636
244,60	6,966
244,82	6,726
245,03	25,435
245,25	15,320
245,46	24,811
245,68	1,328
245,89	17,748
246,11	9,904
246,32	12,292
246,54	6,268
246,75	13,652
246,97	13,186
247,18	14,548
247,39	3,567
247,61	7,879
247,82	12,854
248,04	9,226
248,25	8,651
248,47	10,972
248,68	12,748
248,90	7,753
249,11	14,915
249,33	17,234
249,54	6,053
249,75	13,176
249,97	7,513
250,18	9,265
250,40	13,550
250,61	-0,602
250,83	2,647
251,04	4,926
251,25	12,022
251,47	5,859
251,68	15,532
251,90	12,023
252,11	13,923
252,33	10,379
252,54	10,411
252,76	8,225
252,97	6,689
253,18	3,376
253,40	9,535
253,61	5,391
253,83	15,289
254,04	11,313
254,25	7,348
254,47	5,352
254,68	11,539
254,90	10,851
255,11	8,696
255,33	10,067
255,54	6,827
255,75	10,849
255,97	5,025
256,18	4,688
256,40	9,548
256,61	12,038
256,82	7,217
257,04	11,027
257,25	2,277
257,47	13,682
257,68	7,127
257,89	11,614
258,11	11,600
258,32	4,577
258,54	9,320
258,75	12,910
258,96	14,094
259,18	9,927
259,39	6,850
259,61	9,039
259,82	7,067
260,03	8,659
260,25	5,523
260,46	6,522
260,68	9,611
260,89	8,459
261,10	5,728
261,32	7,761
261,53	6,342
261,75	7,690
261,96	-0,064
262,17	13,067
262,39	11,717
262,60	5,227
262,81	3,633
263,03	11,688
263,24	8,511
263,46	2,192
263,67	4,762
263,88	9,214
264,10	9,499
264,31	4,043
264,52	7,853
264,74	12,389
264,95	4,608
265,17	13,018
265,38	9,601
265,59	11,291
265,81	12,469
266,02	3,045
266,23	4,084
266,45	11,348
266,66	9,838
266,87	9,737
267,09	5,747
267,30	9,190
267,52	13,087
267,73	5,991
267,94	7,638
268,16	7,070
268,37	6,281
268,58	6,771
268,80	4,227
269,01	5,489
269,22	9,966
269,44	10,708
269,65	3,811
269,86	1,387
270,08	7,137
270,29	4,484
270,50	11,298
270,72	12,010
270,93	7,768
271,14	3,231
271,36	6,144
271,57	10,614
271,78	7,147
272,00	8,492
272,21	11,613
272,42	9,277
272,64	8,625
272,85	5,882
273,06	6,559
273,28	13,267
273,49	9,705
273,70	8,753
273,92	7,363
274,13	11,333
274,34	5,502
274,56	8,901
274,77	2,936
274,98	9,037
275,20	9,714
275,41	7,616
275,62	3,805
275,84	7,104
276,05	16,844
276,26	3,966
276,47	4,083
276,69	11,937
276,90	10,388
277,11	5,025
277,33	7,196
277,54	10,145
277,75	10,288
277,97	4,407
278,18	6,463
278,39	8,696
278,61	4,975
278,82	8,676
279,03	8,304
279,24	7,838
279,46	6,266
279,67	10,153
279,88	8,394
280,10	10,026
280,31	3,739
280,52	8,043
280,73	2,323
280,95	7,858
281,16	6,337
281,37	6,369
281,59	11,069
281,80	13,531
282,01	9,594
282,22	3,317
282,44	2,705
282,65	15,970
282,86	8,736
283,08	7,316
283,29	6,185
283,50	6,338
283,71	8,266
283,93	9,527
284,14	10,600
284,35	7,075
284,56	9,999
284,78	3,378
284,99	6,472
285,20	12,708
285,42	7,702
285,63	3,668
285,84	2,845
286,05	4,912
286,27	8,197
286,48	3,316
286,69	5,480
286,90	6,086
287,12	6,894
287,33	4,852
287,54	7,012
287,75	7,688
287,97	7,225
288,18	9,033
288,39	5,368
288,60	6,799
288,82	7,851
289,03	5,980
289,24	6,001
289,45	10,117
289,67	8,070
289,88	5,296
290,09	9,055
290,30	9,926
290,52	6,649
290,73	7,065
290,94	1,662
291,15	8,335
291,37	8,597
291,58	8,611
291,79	7,539
292,00	6,328
292,21	8,865
292,43	6,795
292,64	4,191
292,85	6,333
293,06	8,714
293,28	6,348
293,49	6,320
293,70	7,151
293,91	5,259
294,12	8,148
294,34	6,778
294,55	5,241
294,76	6,040
294,97	8,903
295,19	5,917
295,40	7,563
295,61	10,010
295,82	5,218
296,03	7,614
296,25	6,367
296,46	5,636
296,67	3,363
296,88	2,340
297,09	9,545
297,31	6,692
297,52	8,747
297,73	5,412
297,94	10,561
298,15	7,368
298,37	6,223
298,58	7,223
298,79	10,051
299,00	5,532
299,21	4,980
299,43	5,531
299,64	10,072
299,85	9,270
300,06	6,544
300,27	4,481
300,49	10,502
300,70	6,484
300,91	5,918
301,12	7,966
301,33	10,537
301,54	5,671
301,76	8,628
301,97	3,256
302,18	5,261
302,39	8,904
302,60	8,819
302,82	6,004
303,03	8,829
303,24	8,000
303,45	8,112
303,66	6,472
303,87	6,885
304,09	7,832
304,30	8,711
304,51	6,758
304,72	5,357
304,93	8,308
305,14	7,161
305,36	3,890
305,57	4,501
305,78	9,194
305,99	6,004
306,20	5,304
306,41	5,772
306,62	4,912
306,84	5,234
307,05	4,441
307,26	8,392
307,47	10,643
307,68	6,353
307,89	6,092
308,11	8,426
308,32	3,660
308,53	7,479
308,74	3,729
308,95	6,979
309,16	8,077
309,37	9,124
309,59	2,889
309,80	8,745
310,01	6,475
310,22	7,576
310,43	6,585
310,64	8,892
310,85	6,995
311,06	5,575
311,28	5,430
311,49	6,475
311,70	8,667
311,91	3,305
312,12	6,503
312,33	8,114
312,54	8,482
312,75	5,973
312,97	6,739
313,18	7,274
313,39	4,929
313,60	4,713
313,81	7,913
314,02	8,008
314,23	7,396
314,44	2,734
314,65	5,402
314,87	4,676
315,08	6,076
315,29	7,559
315,50	8,615
315,71	9,078
315,92	10,403
316,13	5,972
316,34	7,737
316,55	8,443
316,77	5,032
316,98	4,559
317,19	3,056
317,40	6,081
317,61	10,524
317,82	5,834
318,03	5,323
318,24	6,625
318,45	10,445
318,66	7,569
318,87	5,704
319,09	9,768
319,30	6,536
319,51	9,990
319,72	8,457
319,93	7,443
320,14	6,741
320,35	8,497
320,56	5,076
320,77	6,447
320,98	10,747
321,19	7,552
321,40	5,032
321,62	8,255
321,83	5,752
322,04	8,049
322,25	7,744
322,46	10,135
322,67	8,199
322,88	8,843
323,09	8,186
323,30	10,062
323,51	8,495
323,72	10,272
323,93	4,960
324,14	7,719
324,35	2,592
324,56	5,548
324,77	6,324
324,99	6,649
325,20	4,744
325,41	7,605
325,62	7,077
325,83	2,303
326,04	5,172
326,25	9,272
326,46	5,791
326,67	8,333
326,88	7,381
327,09	4,538
327,30	4,438
327,51	6,797
327,72	7,079
327,93	9,749
328,14	-2,586
328,35	6,361
328,56	8,616
328,77	8,824
328,98	8,172
329,19	4,808
329,40	8,450
329,61	6,667
329,82	3,445
330,04	4,968
330,25	7,056
330,46	7,741
330,67	4,462
330,88	6,091
331,09	5,467
331,30	6,379
331,51	6,709
331,72	8,432
331,93	9,195
332,14	6,646
332,35	6,930
332,56	6,773
332,77	6,928
332,98	3,138
333,19	4,533
333,40	8,130
333,61	7,063
333,82	6,660
334,03	7,165
334,24	7,944
334,45	3,498
334,66	8,449
334,87	4,758
335,08	3,007
335,29	5,737
335,50	3,788
335,71	5,151
335,92	6,150
336,13	7,292
336,34	4,254
336,55	9,185
336,76	7,866
336,97	6,262
337,18	3,572
337,39	7,693
337,60	7,829
337,81	6,022
338,02	4,339
338,23	6,266
338,44	5,816
338,65	5,675
338,86	8,831
339,07	3,100
339,28	8,944
339,49	7,869
339,70	7,176
339,91	4,602
340,11	6,889
340,32	2,536
340,53	5,532
340,74	4,959
340,95	6,160
341,16	8,207
341,37	5,745
341,58	4,912
341,79	6,385
342,00	6,500
342,21	4,917
342,42	4,339
342,63	9,523
342,84	4,712
343,05	5,924
343,26	9,671
343,47	5,462
343,68	6,584
343,89	4,673
344,10	6,020
344,31	9,261
344,52	4,219
344,73	6,249
344,94	5,783
345,14	6,189
345,35	6,691
345,56	6,892
345,77	3,380
345,98	7,750
346,19	7,590
346,40	4,282
346,61	6,143
346,82	6,997
347,03	6,883
347,24	9,856
347,45	6,062
347,66	12,087
347,87	7,132
348,08	9,722
348,28	3,663
348,49	8,608
348,70	8,803
348,91	8,511
349,12	3,122
349,33	18,204
349,54	6,557
349,75	10,978
349,96	4,874
350,17	7,732
350,38	3,989
350,59	5,865
350,80	6,200
351,00	8,280
351,21	8,851
351,42	7,428
351,63	1,619
351,84	4,556
352,05	8,411
352,26	6,009
352,47	5,707
352,68	9,555
352,89	7,113
353,09	7,437
353,30	3,565
353,51	7,504
353,72	8,562
353,93	9,920
354,14	4,390
354,35	4,521
354,56	7,192
354,77	4,449
354,98	4,470
355,18	8,271
355,39	10,300
355,60	6,884
355,81	7,054
356,02	7,596
356,23	7,372
356,44	6,941
356,65	6,204
356,85	12,938
357,06	6,893
357,27	7,377
357,48	5,322
357,69	5,879
357,90	5,111
358,11	1,290
358,32	6,816
358,52	8,056
358,73	8,788
358,94	6,118
359,15	9,792
359,36	6,849
359,57	5,718
359,78	5,036
359,98	5,178
360,19	4,050
360,40	8,181
360,61	9,902
360,82	5,584
361,03	12,193
361,24	7,231
361,44	5,277
361,65	5,767
361,86	4,835
362,07	6,532
362,28	5,611
362,49	7,103
362,70	6,175
362,90	8,359
363,11	3,781
363,32	6,147
363,53	9,603
363,74	8,903
363,95	7,944
364,15	6,584
364,36	10,125
364,57	5,795
364,78	7,444
364,99	5,757
365,20	7,273
365,40	9,827
365,61	4,033
365,82	10,014
366,03	6,116
366,24	8,516
366,45	5,439
366,65	4,896
366,86	5,528
367,07	6,697
367,28	7,714
367,49	8,654
367,69	10,373
367,90	4,933
368,11	6,459
368,32	3,224
368,53	11,375
368,73	11,477
368,94	6,915
369,15	4,222
369,36	10,404
369,57	7,391
369,78	9,038
369,98	7,971
370,19	10,796
370,40	7,186
370,61	4,614
370,82	7,978
371,02	9,617
371,23	10,729
371,44	9,074
371,65	8,882
371,85	9,784
372,06	6,765
372,27	7,065
372,48	6,498
372,69	7,428
372,89	8,650
373,10	7,594
373,31	7,135
373,52	11,337
373,73	7,200
373,93	7,712
374,14	6,999
374,35	13,202
374,56	10,967
374,76	8,570
374,97	9,373
375,18	7,180
375,39	6,729
375,60	11,655
375,80	8,068
376,01	10,458
376,22	9,981
376,43	5,942
376,63	8,074
376,84	9,549
377,05	10,621
377,26	8,362
377,46	6,472
377,67	7,777
377,88	9,329
378,09	6,947
378,29	4,828
378,50	11,639
378,71	11,510
378,92	7,649
379,12	8,776
379,33	9,592
379,54	8,732
379,75	11,684
379,95	9,117
380,16	8,527
380,37	11,352
380,58	8,444
380,78	12,036
380,99	9,504
381,20	7,586
381,41	7,646
381,61	10,515
381,82	9,290
382,03	9,725
382,24	11,903
382,44	10,912
382,65	11,806
382,86	9,164
383,06	11,484
383,27	11,174
383,48	8,791
383,69	11,862
383,89	12,327
384,10	10,618
384,31	12,450
384,51	10,622
384,72	11,427
384,93	8,072
385,14	13,299
385,34	11,597
385,55	10,425
385,76	8,296
385,96	13,694
386,17	14,174
386,38	14,182
386,59	14,995
386,79	10,478
387,00	14,936
387,21	16,872
387,41	12,299
387,62	14,480
387,83	12,902
388,03	14,983
388,24	9,709
388,45	16,214
388,66	16,358
388,86	13,842
389,07	11,522
389,28	19,799
389,48	16,969
389,69	14,591
389,90	13,651
390,10	16,024
390,31	16,525
390,52	9,574
390,72	12,251
390,93	16,324
391,14	12,735
391,34	15,422
391,55	17,741
391,76	18,076
391,96	13,354
392,17	14,977
392,38	16,535
392,58	17,090
392,79	16,210
393,00	16,405
393,20	14,523
393,41	16,924
393,62	17,278
393,82	14,752
394,03	17,072
394,24	15,250
394,44	20,515
394,65	18,951
394,86	16,451
395,06	18,219
395,27	13,080
395,48	17,386
395,68	17,111
395,89	20,105
396,10	19,353
396,30	18,191
396,51	18,813
396,72	23,188
396,92	19,247
397,13	20,925
397,34	15,672
397,54	22,048
397,75	19,198
397,95	13,934
398,16	18,433
398,37	19,382
398,57	21,038
398,78	22,524
398,99	22,518
399,19	22,697
399,40	19,600
399,60	18,056
399,81	21,492
400,02	22,523
400,22	20,843
400,43	18,376
400,64	23,419
400,84	22,736
401,05	22,155
401,25	22,665
401,46	20,600
401,67	19,518
401,87	20,395
402,08	18,135
402,29	20,691
402,49	27,363
402,70	24,791
402,90	17,793
403,11	24,465
403,32	25,501
403,52	19,803
403,73	22,297
403,93	22,252
404,14	27,871
404,35	27,220
404,55	23,347
404,76	21,744
404,96	26,045
405,17	26,294
405,38	30,167
405,58	22,783
405,79	27,558
405,99	27,094
406,20	23,383
406,40	22,391
406,61	28,544
406,82	26,452
407,02	28,405
407,23	25,631
407,43	26,450
407,64	25,307
407,85	27,324
408,05	21,654
408,26	30,259
408,46	27,678
408,67	22,883
408,87	26,675
409,08	29,711
409,29	28,585
409,49	30,902
409,70	24,687
409,90	26,837
410,11	29,133
410,31	32,977
410,52	27,782
410,72	25,925
410,93	28,259
411,14	28,444
411,34	28,630
411,55	30,606
411,75	31,202
411,96	27,926
412,16	33,119
412,37	27,963
412,57	31,078
412,78	29,831
412,99	27,644
413,19	32,622
413,40	24,694
413,60	28,415
413,81	29,850
414,01	29,630
414,22	30,299
414,42	32,499
414,63	30,106
414,83	29,863
415,04	35,007
415,24	34,658
415,45	29,653
415,65	33,217
415,86	30,609
416,07	31,098
416,27	28,408
416,48	32,770
416,68	36,847
416,89	29,454
417,09	29,347
417,30	35,273
417,50	34,305
417,71	30,639
417,91	35,367
418,12	29,833
418,32	30,913
418,53	29,599
418,73	34,666
418,94	31,160
419,14	33,092
419,35	31,780
419,55	33,935
419,76	31,531
419,96	32,467
420,17	30,487
420,37	32,382
420,58	36,753
420,78	36,468
420,99	32,286
421,19	38,217
421,40	39,181
421,60	36,349
421,81	33,149
422,01	36,897
422,22	32,670
422,42	37,302
422,63	33,606
422,83	30,840
423,04	36,776
423,24	35,491
423,45	30,707
423,65	34,650
423,86	32,361
424,06	36,705
424,27	31,525
424,47	28,057
424,67	34,445
424,88	37,460
425,08	34,257
425,29	41,505
425,49	34,659
425,70	32,671
425,90	34,406
426,11	35,374
426,31	31,694
426,52	37,299
426,72	33,426
426,93	34,600
427,13	37,928
427,33	35,912
427,54	35,205
427,74	35,428
427,95	38,439
428,15	34,773
428,36	36,824
428,56	35,867
428,77	37,856
428,97	33,542
429,18	36,466
429,38	33,789
429,58	39,202
429,79	38,673
429,99	33,685
430,20	32,407
430,40	37,385
430,61	32,358
430,81	31,815
431,01	33,087
431,22	36,697
431,42	37,769
431,63	32,953
431,83	34,604
432,04	39,241
432,24	39,870
432,44	36,002
432,65	33,247
432,85	34,213
433,06	39,054
433,26	33,122
433,47	31,019
433,67	32,405
433,87	33,883
434,08	30,622
434,28	32,896
434,49	32,347
434,69	35,410
434,89	31,214
435,10	31,475
435,30	39,082
435,51	30,758
435,71	30,444
435,91	31,126
436,12	33,606
436,32	31,360
436,53	35,027
436,73	31,388
436,93	34,690
437,14	35,922
437,34	38,797
437,55	33,636
437,75	34,166
437,95	36,260
438,16	35,951
438,36	37,798
438,57	33,072
438,77	35,353
438,97	36,874
439,18	40,525
439,38	36,114
439,58	33,278
439,79	33,668
439,99	32,488
440,20	38,393
440,40	39,633
440,60	34,144
440,81	41,254
441,01	37,360
441,21	35,873
441,42	38,408
441,62	41,322
441,83	38,144
442,03	37,515
442,23	35,490
442,44	36,179
442,64	38,124
442,84	36,708
443,05	36,208
443,25	35,568
443,45	38,645
443,66	34,457
443,86	31,818
444,06	33,730
444,27	35,514
444,47	35,687
444,67	33,705
444,88	39,529
445,08	39,216
445,28	36,659
445,49	33,664
445,69	33,735
445,90	34,105
446,10	39,880
446,30	37,077
446,51	30,932
446,71	41,430
446,91	39,735
447,12	42,208
447,32	33,364
447,52	37,818
447,72	38,937
447,93	38,718
448,13	35,100
448,33	39,006
448,54	39,068
448,74	36,771
448,94	41,300
449,15	39,990
449,35	39,107
449,55	35,456
449,76	40,491
449,96	38,117
450,16	37,620
450,37	35,862
450,57	35,572
450,77	35,936
450,98	37,337
451,18	39,418
451,38	37,124
451,58	38,159
451,79	36,774
451,99	39,285
452,19	38,349
452,40	40,165
452,60	32,236
452,80	35,457
453,00	33,603
453,21	34,648
453,41	41,241
453,61	38,493
453,82	39,418
454,02	36,465
454,22	38,968
454,42	37,510
454,63	33,792
454,83	34,556
455,03	35,706
455,24	36,874
455,44	36,021
455,64	35,417
455,84	39,067
456,05	31,560
456,25	31,980
456,45	35,204
456,65	37,146
456,86	41,200
457,06	39,620
457,26	39,516
457,47	39,899
457,67	36,886
457,87	29,640
458,07	35,529
458,28	40,220
458,48	41,272
458,68	36,754
458,88	40,582
459,09	36,782
459,29	38,752
459,49	37,335
459,69	36,419
459,90	41,199
460,10	38,223
460,30	37,443
460,50	35,999
460,71	36,255
460,91	33,004
461,11	37,558
461,31	36,240
461,52	43,513
461,72	35,793
461,92	36,699
462,12	44,347
462,32	35,409
462,53	34,062
462,73	35,182
462,93	37,893
463,13	35,759
463,34	35,706
463,54	36,580
463,74	38,098
463,94	37,430
464,14	37,743
464,35	34,780
464,55	39,042
464,75	41,998
464,95	36,214
465,16	34,226
465,36	37,569
465,56	38,641
465,76	36,869
465,96	35,242
466,17	35,172
466,37	33,577
466,57	37,656
466,77	37,791
466,97	35,319
467,18	37,886
467,38	39,227
467,58	39,273
467,78	36,372
467,98	37,146
468,19	36,667
468,39	38,982
468,59	38,950
468,79	41,528
468,99	36,668
469,19	35,538
469,40	35,796
469,60	29,945
469,80	34,623
470,00	40,124
470,20	36,338
470,41	38,548
470,61	36,457
470,81	36,494
471,01	37,299
471,21	37,289
471,41	32,793
471,62	34,617
471,82	34,526
472,02	35,330
472,22	37,067
472,42	40,004
472,62	35,780
472,83	37,789
473,03	39,003
473,23	36,897
473,43	39,612
473,63	36,849
473,83	35,226
474,03	34,138
474,24	39,365
474,44	35,309
474,64	35,162
474,84	37,142
475,04	34,270
475,24	34,310
475,45	35,148
475,65	35,710
475,85	38,328
476,05	32,498
476,25	36,067
476,45	36,081
476,65	39,555
476,85	34,375
477,06	33,653
477,26	34,560
477,46	36,472
477,66	36,056
477,86	37,272
478,06	30,990
478,26	41,484
478,46	32,636
478,67	37,599
478,87	34,805
479,07	35,121
479,27	38,236
479,47	36,042
479,67	31,704
479,87	31,364
480,07	38,091
480,28	34,490
480,48	32,570
480,68	34,942
480,88	43,102
481,08	36,355
481,28	36,601
481,48	35,269
481,68	37,081
481,88	33,885
482,08	33,455
482,29	35,988
482,49	32,536
482,69	33,556
482,89	34,601
483,09	35,823
483,29	35,013
483,49	31,175
483,69	33,025
483,89	31,078
484,09	32,084
484,29	31,009
484,50	33,050
484,70	33,501
484,90	34,737
485,10	31,297
485,30	34,794
485,50	36,193
485,70	35,516
485,90	29,067
486,10	29,307
486,30	32,234
486,50	33,555
486,70	31,620
486,90	31,626
487,10	35,550
487,30	32,163
487,51	32,146
487,71	27,802
487,91	32,739
488,11	34,786
488,31	31,410
488,51	32,263
488,71	31,010
488,91	33,739
489,11	31,084
489,31	31,062
489,51	32,645
489,71	34,307
489,91	31,165
490,11	32,401
490,31	30,860
490,51	31,866
490,71	32,564
490,91	32,661
491,11	32,602
491,31	35,721
491,51	30,626
491,72	32,506
491,92	32,929
492,12	38,673
492,32	35,603
492,52	37,203
492,72	34,141
492,92	33,054
493,12	34,292
493,32	30,230
493,52	27,736
493,72	30,885
493,92	34,823
494,12	33,124
494,32	35,681
494,52	31,296
494,72	33,818
494,92	31,600
495,12	32,840
495,32	35,681
495,52	29,450
495,72	33,186
495,92	34,469
496,12	36,269
496,32	30,781
496,52	31,021
496,72	33,637
496,92	34,917
497,12	34,719
497,32	36,770
497,52	35,517
497,72	33,943
497,92	34,396
498,12	31,485
498,32	34,182
498,52	35,015
498,72	32,612
498,92	30,550
499,12	35,339
499,32	31,249
499,52	32,070
499,72	33,426
499,92	34,870
500,12	35,545
500,32	33,925
500,52	33,191
500,72	37,936
500,91	33,984
501,11	33,869
501,31	29,411
501,51	37,643
501,71	34,772
501,91	35,628
502,11	33,678
502,31	32,818
502,51	34,691
502,71	33,958
502,91	34,433
503,11	35,992
503,31	36,002
503,51	31,408
503,71	32,244
503,91	37,627
504,11	33,615
504,31	32,772
504,51	30,730
504,71	36,431
504,91	33,745
505,10	34,960
505,30	33,547
505,50	34,369
505,70	32,621
505,90	32,568
506,10	30,834
506,30	32,944
506,50	33,805
506,70	34,691
506,90	31,753
507,10	32,947
507,30	34,362
507,50	34,749
507,70	35,225
507,89	32,297
508,09	33,121
508,29	36,426
508,49	33,222
508,69	32,134
508,89	31,804
509,09	29,182
509,29	31,328
509,49	36,424
509,69	37,107
509,89	32,512
510,09	30,957
510,28	30,140
510,48	34,432
510,68	30,888
510,88	32,291
511,08	30,022
511,28	32,400
511,48	31,297
511,68	30,931
511,88	31,653
512,07	32,347
512,27	33,490
512,47	32,527
512,67	29,718
512,87	30,187
513,07	31,559
513,27	29,054
513,47	30,940
513,67	31,104
513,86	31,359
514,06	32,605
514,26	29,181
514,46	35,942
514,66	31,288
514,86	34,400
515,06	35,302
515,26	33,882
515,45	30,012
515,65	30,827
515,85	32,297
516,05	31,065
516,25	32,987
516,45	32,137
516,65	32,110
516,84	28,525
517,04	34,135
517,24	29,876
517,44	32,145
517,64	34,290
517,84	32,588
518,04	32,295
518,23	34,370
518,43	33,666
518,63	29,998
518,83	28,675
519,03	31,854
519,23	32,862
519,42	30,382
519,62	31,372
519,82	30,596
520,02	31,808
520,22	30,724
520,42	29,187
520,61	32,243
520,81	33,585
521,01	31,984
521,21	26,547
521,41	32,950
521,61	32,966
521,80	29,359
522,00	30,235
522,20	32,934
522,40	33,848
522,60	31,338
522,79	28,936
522,99	31,643
523,19	28,302
523,39	28,956
523,59	33,172
523,78	32,072
523,98	29,648
524,18	32,105
524,38	29,821
524,58	30,216
524,77	34,129
524,97	32,002
525,17	30,984
525,37	29,993
525,57	31,604
525,76	29,277
525,96	31,548
526,16	29,057
526,36	28,951
526,56	32,504
526,75	28,598
526,95	31,543
527,15	33,593
527,35	30,665
527,55	29,288
527,74	30,410
527,94	29,055
528,14	28,865
528,34	29,794
528,53	28,971
528,73	30,533
528,93	29,903
529,13	28,123
529,32	30,020
529,52	31,029
529,72	25,925
529,92	28,978
530,12	28,552
530,31	28,972
530,51	30,484
530,71	32,474
530,91	29,590
531,10	27,009
531,30	27,306
531,50	28,591
531,70	29,280
531,89	27,834
532,09	28,352
532,29	27,852
532,49	28,982
532,68	27,622
532,88	27,467
533,08	28,915
533,28	27,700
533,47	27,828
533,67	29,083
533,87	28,250
534,06	34,144
534,26	30,490
534,46	27,786
534,66	27,532
534,85	28,793
535,05	24,647
535,25	27,539
535,45	26,175
535,64	29,899
535,84	29,589
536,04	29,691
536,23	29,537
536,43	30,150
536,63	26,831
536,83	28,014
537,02	26,931
537,22	28,040
537,42	29,034
537,61	27,984
537,81	27,036
538,01	27,084
538,20	27,747
538,40	25,069
538,60	27,220
538,80	23,681
538,99	26,280
539,19	25,589
539,39	24,059
539,58	26,276
539,78	20,782
539,98	23,669
540,17	21,610
540,37	23,563
540,57	20,865
540,76	21,780
540,96	19,680
541,16	22,985
541,36	20,974
541,55	16,405
541,75	19,107
541,95	18,684
542,14	18,453
542,34	18,967
542,54	17,994
542,73	20,311
542,93	18,980
543,13	17,861
543,32	18,536
543,52	19,928
543,72	18,055
543,91	18,927
544,11	17,362
544,31	18,686
544,50	17,816
544,70	18,859
544,89	18,431
545,09	20,342
545,29	19,910
545,48	20,333
545,68	19,264
545,88	19,688
546,07	18,575
546,27	19,072
546,47	19,298
546,66	22,580
546,86	20,655
547,06	19,700
547,25	21,781
547,45	23,337
547,64	22,543
547,84	24,592
548,04	24,506
548,23	24,510
548,43	25,366
548,63	27,540
548,82	24,274
549,02	22,425
549,21	23,005
549,41	25,166
549,61	24,803
549,80	24,638
550,00	24,420
550,20	23,859
550,39	23,840
550,59	24,546
550,78	25,621
550,98	22,021
551,18	26,039
551,37	26,211
551,57	24,551
551,76	24,485
551,96	25,825
552,16	24,717
552,35	24,970
552,55	26,498
552,74	25,688
552,94	25,972
553,14	23,869
553,33	24,248
553,53	24,350
553,72	27,764
553,92	28,120
554,12	23,250
554,31	25,634
554,51	27,406
554,70	24,536
554,90	25,678
555,09	28,276
555,29	26,895
555,49	27,363
555,68	26,621
555,88	26,013
556,07	26,457
556,27	26,308
556,46	26,475
556,66	26,943
556,86	27,431
557,05	26,298
557,25	24,774
557,44	24,356
557,64	24,158
557,83	25,951
558,03	25,666
558,22	26,341
558,42	27,881
558,62	28,555
558,81	27,329
559,01	25,303
559,20	28,864
559,40	25,529
559,59	25,181
559,79	25,243
559,98	28,200
560,18	25,659
560,37	26,045
560,57	27,292
560,76	25,638
560,96	23,612
561,16	27,774
561,35	24,870
561,55	28,325
561,74	25,367
561,94	27,235
562,13	25,905
562,33	27,330
562,52	28,853
562,72	24,666
562,91	26,209
563,11	25,930
563,30	29,576
563,50	23,300
563,69	25,079
563,89	26,242
564,08	26,357
564,28	25,186
564,47	24,418
564,67	24,777
564,86	26,630
565,06	25,458
565,25	25,920
565,45	24,805
565,64	30,466
565,84	25,220
566,03	24,685
566,23	27,843
566,42	26,442
566,62	26,404
566,81	26,081
567,01	27,112
567,20	29,504
567,40	26,326
567,59	25,073
567,79	27,772
567,98	28,794
568,18	28,480
568,37	27,893
568,57	24,832
568,76	28,505
568,96	26,182
569,15	26,778
569,35	28,039
569,54	29,801
569,73	28,138
569,93	27,588
570,12	26,216
570,32	28,222
570,51	28,659
570,71	28,120
570,90	29,710
571,10	27,485
571,29	26,407
571,49	26,567
571,68	29,119
571,87	28,347
572,07	26,606
572,26	26,131
572,46	28,660
572,65	27,185
572,85	26,676
573,04	28,686
573,24	28,035
573,43	28,692
573,62	28,338
573,82	26,609
574,01	26,035
574,21	26,646
574,40	25,242
574,60	26,384
574,79	29,738
574,98	26,031
575,18	27,976
575,37	26,607
575,57	27,709
575,76	28,066
575,96	28,439
576,15	26,144
576,34	27,936
576,54	27,159
576,73	28,611
576,93	26,783
577,12	28,911
577,31	26,353
577,51	26,103
577,70	27,962
577,90	27,014
578,09	26,116
578,28	26,086
578,48	27,516
578,67	29,163
578,87	29,298
579,06	26,778
579,25	28,467
579,45	27,874
579,64	26,677
579,84	27,219
580,03	25,256
580,22	28,141
580,42	25,839
580,61	26,417
580,81	26,655
581,00	27,619
581,19	28,360
581,39	26,856
581,58	26,944
581,77	27,480
581,97	28,899
582,16	28,162
582,35	25,904
582,55	27,588
582,74	28,892
582,94	27,737
583,13	25,993
583,32	28,678
583,52	28,975
583,71	30,045
583,90	27,265
584,10	27,871
584,29	28,712
584,48	26,562
584,68	28,323
584,87	28,631
585,06	28,325
585,26	26,793
585,45	26,621
585,65	29,600
585,84	27,866
586,03	28,499
586,23	27,025
586,42	28,420
586,61	30,345
586,81	28,193
587,00	29,758
587,19	27,878
587,39	29,533
587,58	29,769
587,77	29,000
587,97	28,749
588,16	27,925
588,35	29,879
588,54	29,686
588,74	28,250
588,93	31,689
589,12	30,554
589,32	29,979
589,51	30,567
589,70	27,660
589,90	27,976
590,09	29,956
590,28	32,351
590,48	29,230
590,67	31,938
590,86	31,148
591,06	30,758
591,25	30,986
591,44	31,981
591,63	30,688
591,83	31,726
592,02	31,837
592,21	29,690
592,41	29,057
592,60	30,021
592,79	30,593
592,98	31,153
593,18	31,269
593,37	32,158
593,56	32,409
593,76	31,676
593,95	30,602
594,14	30,515
594,33	32,769
594,53	31,825
594,72	32,040
594,91	33,133
595,10	33,418
595,30	32,455
595,49	31,878
595,68	34,414
595,88	34,072
596,07	32,197
596,26	33,481
596,45	32,574
596,65	30,381
596,84	31,819
597,03	32,551
597,22	32,675
597,42	34,789
597,61	33,492
597,80	33,214
597,99	32,464
598,19	34,961
598,38	34,646
598,57	34,025
598,76	33,928
598,95	34,631
599,15	34,766
599,34	34,448
599,53	33,713
599,72	34,507
599,92	35,556
600,11	35,392
600,30	32,762
600,49	35,190
600,69	35,106
600,88	34,600
601,07	34,935
601,26	34,449
601,45	34,470
601,65	34,137
601,84	35,604
602,03	36,295
602,22	34,725
602,42	36,684
602,61	34,961
602,80	36,961
602,99	36,780
603,18	34,122
603,38	36,485
603,57	35,338
603,76	34,409
603,95	35,999
604,14	37,386
604,34	36,619
604,53	35,452
604,72	36,113
604,91	36,057
605,10	35,989
605,29	35,893
605,49	33,703
605,68	36,815
605,87	36,256
606,06	35,246
606,25	34,497
606,45	35,311
606,64	36,736
606,83	36,773
607,02	35,185
607,21	36,091
607,40	36,472
607,60	32,726
607,79	34,041
607,98	33,434
608,17	31,782
608,36	33,689
608,55	34,526
608,75	33,528
608,94	32,110
609,13	30,107
609,32	28,505
609,51	30,783
609,70	29,139
609,89	30,835
610,09	28,252
610,28	31,470
610,47	28,558
610,66	28,970
610,85	27,703
611,04	30,447
611,23	29,162
611,43	28,961
611,62	28,524
611,81	29,350
612,00	29,410
612,19	29,022
612,38	30,591
612,57	31,653
612,77	32,173
612,96	31,604
613,15	31,037
613,34	33,620
613,53	34,212
613,72	34,824
613,91	33,238
614,10	34,468
614,29	36,421
614,49	33,673
614,68	33,522
614,87	36,170
615,06	38,005
615,25	33,435
615,44	37,992
615,63	35,376
615,82	35,627
616,01	34,568
616,21	34,361
616,40	38,034
616,59	37,801
616,78	36,713
616,97	36,653
617,16	37,026
617,35	36,974
617,54	38,201
617,73	38,654
617,92	36,719
618,11	38,709
618,31	35,466
618,50	38,186
618,69	37,102
618,88	35,977
619,07	36,131
619,26	36,284
619,45	37,521
619,64	37,737
619,83	36,201
620,02	36,544
620,21	37,518
620,40	36,406
620,59	35,431
620,78	35,120
620,97	37,658
621,17	40,060
621,36	38,493
621,55	37,166
621,74	37,425
621,93	38,780
622,12	36,904
622,31	37,544
622,50	36,501
622,69	37,659
622,88	38,286
623,07	39,460
623,26	38,804
623,45	39,829
623,64	38,638
623,83	37,311
624,02	38,884
624,21	38,633
624,40	40,328
624,59	36,815
624,78	39,745
624,97	39,939
625,16	37,808
625,35	36,959
625,54	38,581
625,73	39,104
625,92	37,210
626,12	41,654
626,31	41,033
626,50	39,665
626,69	39,458
626,88	38,594
627,07	40,608
627,26	39,576
627,45	37,868
627,64	38,105
627,83	38,801
628,02	38,174
628,21	38,510
628,40	37,744
628,59	39,708
628,78	39,292
628,97	36,244
629,16	38,773
629,35	38,183
629,54	40,986
629,73	38,607
629,92	38,146
630,10	40,078
630,29	39,877
630,48	38,052
630,67	38,222
630,86	40,676
631,05	38,782
631,24	40,873
631,43	38,430
631,62	38,657
631,81	38,967
632,00	39,698
632,19	38,189
632,38	39,648
632,57	42,096
632,76	39,792
632,95	41,761
633,14	42,663
633,33	39,872
633,52	39,229
633,71	40,630
633,90	39,738
634,09	40,326
634,28	40,585
634,47	39,558
634,66	40,490
634,85	40,728
635,04	41,848
635,22	40,555
635,41	41,093
635,60	40,794
635,79	41,730
635,98	38,734
636,17	41,307
636,36	40,729
636,55	40,691
636,74	39,333
636,93	39,709
637,12	43,109
637,31	39,599
637,50	38,705
637,69	41,799
637,87	39,550
638,06	40,405
638,25	42,058
638,44	39,877
638,63	39,571
638,82	41,022
639,01	39,692
639,20	40,893
639,39	43,951
639,58	38,859
639,77	41,886
639,95	41,521
640,14	42,943
640,33	39,923
640,52	40,856
640,71	42,617
640,90	41,236
641,09	42,509
641,28	40,142
641,47	42,449
641,66	41,132
641,84	40,253
642,03	39,577
642,22	41,887
642,41	45,054
642,60	40,607
642,79	42,760
642,98	41,064
643,17	40,056
643,35	41,614
643,54	41,515
643,73	42,047
643,92	43,434
644,11	40,353
644,30	40,990
644,49	43,867
644,67	39,943
644,86	40,187
645,05	44,119
645,24	39,411
645,43	39,575
645,62	41,138
645,81	41,835
645,99	42,697
646,18	41,457
646,37	40,408
646,56	39,810
646,75	43,225
646,94	42,506
647,13	41,220
647,31	40,202
647,50	41,015
647,69	43,175
647,88	42,840
648,07	41,140
648,26	43,283
648,44	40,595
648,63	39,278
648,82	41,723
649,01	42,533
649,20	40,298
649,38	41,303
649,57	42,273
649,76	40,111
649,95	41,677
650,14	40,046
650,33	39,041
650,51	40,934
650,70	41,438
650,89	41,013
651,08	40,451
651,27	41,606
651,45	38,659
651,64	40,483
651,83	42,582
652,02	40,710
652,21	42,599
652,39	41,209
652,58	42,158
652,77	42,685
652,96	42,509
653,15	41,020
653,33	41,191
653,52	41,905
653,71	42,775
653,90	42,523
654,09	41,649
654,27	40,759
654,46	43,017
654,65	42,153
654,84	41,738
655,02	43,193
655,21	42,866
655,40	43,238
655,59	41,376
655,77	42,113
655,96	41,870
656,15	42,221
656,34	42,721
656,53	39,990
656,71	42,788
656,90	41,931
657,09	42,010
657,28	41,514
657,46	41,760
657,65	41,695
657,84	40,238
658,03	43,273
658,21	42,328
658,40	42,338
658,59	40,592
658,78	42,938
658,96	41,391
659,15	43,240
659,34	40,587
659,52	42,029
659,71	41,572
659,90	39,491
660,09	40,817
660,27	41,392
660,46	43,220
660,65	42,337
660,84	39,641
661,02	40,891
661,21	42,979
661,40	40,394
661,58	37,933
661,77	42,076
661,96	39,899
662,15	42,041
662,33	40,269
662,52	39,477
662,71	42,292
662,89	40,177
663,08	41,180
663,27	41,229
663,45	39,259
663,64	38,907
663,83	38,759
664,02	39,379
664,20	41,049
664,39	39,819
664,58	40,227
664,76	40,924
664,95	40,958
665,14	40,835
665,32	39,938
665,51	41,408
665,70	40,978
665,88	41,691
666,07	39,536
666,26	41,881
666,44	40,210
666,63	40,775
666,82	39,252
667,00	41,294
667,19	39,745
667,38	40,719
667,56	42,048
667,75	41,270
667,94	40,434
668,12	39,895
668,31	40,554
668,50	40,500
668,68	40,942
668,87	39,763
669,06	39,807
669,24	40,875
669,43	39,904
669,62	38,994
669,80	38,760
669,99	40,295
670,18	39,630
670,36	38,624
670,55	40,233
670,74	41,069
670,92	38,622
671,11	40,142
671,29	40,530
671,48	40,055
671,67	40,819
671,85	40,284
672,04	39,709
672,23	39,226
672,41	38,579
672,60	40,621
672,78	38,166
672,97	39,209
673,16	40,199
673,34	39,466
673,53	38,957
673,71	41,275
673,90	41,280
674,09	40,750
674,27	38,251
674,46	40,168
674,64	40,941
674,83	41,021
675,02	38,424
675,20	39,194
675,39	38,309
675,57	40,662
675,76	38,948
675,95	40,745
676,13	40,386
676,32	40,210
676,50	41,179
676,69	38,335
676,88	38,969
677,06	39,759
677,25	39,751
677,43	42,810
677,62	39,875
677,80	39,762
677,99	39,332
678,18	41,671
678,36	42,021
678,55	37,928
678,73	38,719
678,92	40,385
679,10	39,401
679,29	40,915
679,48	38,433
679,66	37,292
679,85	39,341
680,03	39,851
680,22	40,277
680,40	38,734
680,59	39,809
680,77	38,784
680,96	38,878
681,15	39,157
681,33	41,426
681,52	39,222
681,70	38,278
681,89	41,739
682,07	40,135
682,26	40,746
682,44	40,910
682,63	39,953
682,81	39,589
683,00	40,691
683,18	38,928
683,37	41,265
683,55	38,454
683,74	40,536
683,92	44,033
684,11	41,601
684,29	40,796
684,48	37,986
684,67	39,389
684,85	41,462
685,04	40,666
685,22	41,493
685,41	39,978
685,59	40,710
685,78	39,802
685,96	39,384
686,15	40,001
686,33	39,296
686,52	40,565
686,70	40,691
686,89	41,250
687,07	41,510
687,26	43,400
687,44	41,804
687,62	38,820
687,81	40,321
687,99	41,064
688,18	41,080
688,36	40,574
688,55	39,963
688,73	43,344
688,92	39,262
689,10	41,433
689,29	41,528
689,47	42,259
689,66	40,535
689,84	40,925
690,03	42,835
690,21	40,489
690,40	40,961
690,58	42,102
690,76	40,119
690,95	41,375
691,13	40,790
691,32	41,429
691,50	41,703
691,69	43,008
691,87	40,556
692,06	42,487
692,24	40,652
692,43	42,008
692,61	38,976
692,79	41,984
692,98	41,555
693,16	43,447
693,35	40,757
693,53	41,668
693,72	41,777
693,90	43,984
694,08	40,814
694,27	40,670
694,45	44,834
694,64	43,786
694,82	40,888
695,01	40,719
695,19	42,313
695,37	41,517
695,56	40,522
695,74	41,030
695,93	42,436
696,11	40,644
696,29	41,900
696,48	42,533
696,66	43,133
696,85	43,233
697,03	41,188
697,21	43,546
697,40	42,718
697,58	42,490
697,77	41,539
697,95	43,089
698,13	42,778
698,32	41,854
698,50	40,802
698,69	39,392
698,87	43,895
699,05	41,772
699,24	40,073
699,42	41,353
699,60	39,169
699,79	40,482
699,97	41,105
700,16	39,485
700,34	42,733
700,52	41,787
700,71	41,490
700,89	41,348
701,07	42,898
701,26	41,716
701,44	41,805
701,63	40,113
701,81	41,666
701,99	41,919
702,18	41,262
702,36	40,601
702,54	40,097
702,73	41,378
702,91	40,463
703,09	40,741
703,28	41,375
703,46	42,592
703,64	39,505
703,83	41,854
704,01	43,339
704,19	41,470
704,38	41,349
704,56	39,450
704,74	41,413
704,93	41,408
705,11	39,492
705,29	42,041
705,48	43,537
705,66	43,083
705,84	40,967
706,03	38,889
706,21	42,893
706,39	40,679
706,58	40,295
706,76	40,077
706,94	42,270
707,12	41,382
707,31	39,649
707,49	40,394
707,67	40,712
707,86	42,429
708,04	40,952
708,22	39,465
708,41	41,661
708,59	41,122
708,77	38,814
708,95	41,185
709,14	43,600
709,32	40,257
709,50	38,758
709,69	39,848
709,87	41,064
710,05	41,265
710,23	42,225
710,42	39,875
710,60	42,272
710,78	42,683
710,97	40,677
711,15	41,494
711,33	41,618
711,51	40,469
711,70	40,374
711,88	39,416
712,06	42,133
712,24	42,443
712,43	42,481
712,61	40,972
712,79	42,889
712,97	39,834
713,16	40,684
713,34	41,698
713,52	43,441
713,70	41,450
713,89	40,861
714,07	40,184
714,25	40,971
714,43	42,719
714,62	39,745
714,80	42,368
714,98	39,375
715,16	41,184
715,35	39,525
715,53	41,219
715,71	43,360
715,89	42,831
716,07	40,530
716,26	44,933
716,44	42,567
716,62	41,962
716,80	41,080
716,99	41,501
717,17	43,242
717,35	41,933
717,53	41,195
717,71	40,895
717,90	43,943
718,08	41,276
718,26	38,751
718,44	39,746
718,62	42,140
718,81	43,390
718,99	40,556
719,17	39,435
719,35	41,165
719,53	41,336
719,72	42,048
719,90	42,143
720,08	40,711
720,26	42,874
720,44	40,193
720,62	40,530
720,81	44,616
720,99	44,995
721,17	42,409
721,35	41,743
721,53	43,727
721,72	42,445
721,90	41,781
722,08	41,797
722,26	42,893
722,44	42,050
722,62	40,135
722,81	40,575
722,99	41,780
723,17	42,768
723,35	41,560
723,53	41,251
723,71	43,924
723,89	45,914
724,08	40,494
724,26	43,077
724,44	41,304
724,62	39,782
724,80	40,578
724,98	43,027
725,16	43,775
725,35	41,743
725,53	41,391
725,71	40,374
725,89	41,128
726,07	42,622
726,25	44,095
726,43	40,767
726,61	42,016
726,80	43,093
726,98	40,633
727,16	42,673
727,34	43,047
727,52	41,722
727,70	39,891
727,88	42,923
728,06	40,336
728,25	40,532
728,43	42,360
728,61	40,690
728,79	41,275
728,97	41,970
729,15	41,933
729,33	42,260
729,51	40,994
729,69	43,647
729,87	41,989
730,06	40,480
730,24	40,193
730,42	45,341
730,60	40,687
730,78	41,814
730,96	40,762
731,14	40,815
731,32	41,933
731,50	40,681
731,68	40,350
731,86	41,840
732,04	40,919
732,22	40,028
732,41	44,818
732,59	42,004
732,77	43,458
732,95	42,609
733,13	42,770
733,31	41,625
733,49	39,865
733,67	43,601
733,85	40,799
734,03	41,494
734,21	41,207
734,39	41,148
734,57	43,633
734,75	41,898
734,93	41,327
735,11	39,822
735,29	40,243
735,47	42,834
735,65	41,763
735,84	39,513
736,02	42,255
736,20	45,222
736,38	41,488
736,56	41,377
736,74	41,472
736,92	40,850
737,10	42,160
737,28	41,345
737,46	41,037
737,64	41,443
737,82	40,573
738,00	41,561
738,18	41,299
738,36	43,010
738,54	40,212
738,72	40,257
738,90	41,037
739,08	43,852
739,26	40,566
739,44	41,177
739,62	41,792
739,80	42,531
739,98	43,060
740,16	42,961
740,34	40,409
740,52	45,690
740,70	42,193
740,88	40,089
741,06	41,298
741,24	42,749
741,42	43,266
741,60	39,822
741,78	42,401
741,96	42,717
742,14	40,290
742,32	40,831
742,50	42,438
742,68	42,798
742,86	41,937
743,04	40,036
743,21	43,371
743,39	41,721
743,57	41,259
743,75	38,671
743,93	38,987
744,11	39,325
744,29	38,676
744,47	41,517
744,65	40,371
744,83	40,893
745,01	41,498
745,19	43,279
745,37	45,520
745,55	41,456
745,73	41,810
745,91	39,665
746,09	41,452
746,27	39,495
746,45	39,518
746,62	40,402
746,80	41,694
746,98	42,305
747,16	41,617
747,34	41,271
747,52	39,294
747,70	41,576
747,88	40,988
748,06	42,408
748,24	42,016
748,42	44,645
748,60	42,082
748,78	41,472
748,95	43,394
749,13	44,578
749,31	42,446
749,49	41,858
749,67	40,955
749,85	42,941
750,03	40,686
750,21	42,866
750,39	42,595
750,57	43,230
750,74	43,058
750,92	39,283
751,10	43,114
751,28	41,426
751,46	42,485
751,64	41,356
751,82	41,129
752,00	41,471
752,17	41,802
752,35	38,937
752,53	41,849
752,71	42,673
752,89	42,083
753,07	41,621
753,25	41,748
753,43	39,738
753,60	42,301
753,78	40,448
753,96	43,550
754,14	41,359
754,32	42,600
754,50	41,938
754,68	42,468
754,85	42,502
755,03	42,667
755,21	41,287
755,39	43,156
755,57	42,349
755,75	40,569
755,92	41,094
756,10	41,715
756,28	41,919
756,46	40,832
756,64	40,388
756,82	43,135
756,99	43,457
757,17	40,771
757,35	40,562
757,53	44,621
757,71	42,639
757,89	40,725
758,06	41,113
758,24	41,693
758,42	42,496
758,60	39,558
758,78	38,843
758,95	42,993
759,13	40,899
759,31	40,422
759,49	40,076
759,67	41,987
759,84	42,438
760,02	42,884
760,20	39,374
760,38	41,356
760,56	42,464
760,73	39,246
760,91	42,194
761,09	42,921
761,27	42,047
761,45	42,005
761,62	40,105
761,80	41,073
761,98	43,158
762,16	40,851
762,33	40,229
762,51	43,469
762,69	40,864
762,87	41,518
763,05	42,021
763,22	42,668
763,40	42,104
763,58	39,633
763,76	40,325
763,93	43,655
764,11	42,868
764,29	42,118
764,47	40,588
764,64	42,169
764,82	43,647
765,00	39,869
765,18	38,250
765,35	38,502
765,53	39,391
765,71	44,357
765,89	39,573
766,06	39,264
766,24	42,238
766,42	42,234
766,60	39,886
766,77	41,345
766,95	40,230
767,13	41,879
767,30	42,116
767,48	40,951
767,66	41,401
767,84	38,237
768,01	40,330
768,19	42,298
768,37	41,128
768,54	39,586
768,72	42,211
768,90	41,561
769,08	41,484
769,25	41,649
769,43	40,337
769,61	41,039
769,78	42,228
769,96	41,758
770,14	43,734
770,31	41,640
770,49	42,822
770,67	43,024
770,85	39,664
771,02	41,471
771,20	41,018
771,38	44,330
771,55	41,817
771,73	40,668
771,91	40,383
772,08	42,437
772,26	39,846
772,44	41,978
772,61	40,513
772,79	40,379
772,97	41,013
773,14	39,840
773,32	44,162
773,50	39,542
773,67	40,697
773,85	43,093
774,03	42,569
774,20	41,926
774,38	40,452
774,56	41,868
774,73	41,790
774,91	39,096
775,09	41,232
775,26	39,544
775,44	41,612
775,61	42,570
775,79	40,323
775,97	43,145
776,14	40,081
776,32	40,715
776,50	40,475
776,67	45,291
776,85	41,149
777,03	40,547
777,20	41,379
777,38	43,871
777,55	44,571
777,73	41,015
777,91	40,376
778,08	40,957
778,26	40,447
778,43	42,530
778,61	38,483
778,79	40,992
778,96	38,879
779,14	42,568
779,32	43,805
779,49	42,138
779,67	45,645
779,84	41,113
780,02	43,899
780,20	37,249
780,37	43,724
780,55	38,579
780,72	43,230
780,90	42,833
781,07	41,258
781,25	42,964
781,43	42,431
781,60	41,994
781,78	42,714
781,95	42,350
782,13	41,343
782,30	42,955
782,48	44,538
782,66	39,100
782,83	40,351
783,01	45,456
783,18	44,206
783,36	42,618
783,53	42,677
783,71	40,341
783,89	43,147
784,06	42,363
784,24	41,452
784,41	41,682
784,59	40,533
784,76	42,296
784,94	43,239
785,11	41,265
785,29	41,087
785,46	43,594
785,64	40,502
785,82	42,810
785,99	43,017
786,17	40,577
786,34	41,083
786,52	43,020
786,69	45,305
786,87	42,127
787,04	41,686
787,22	42,495
787,39	43,029
787,57	45,344
787,74	42,644
787,92	44,536
788,09	45,741
788,27	41,760
788,44	41,916
788,62	42,482
788,79	42,146
788,97	43,007
789,14	40,355
789,32	42,222
789,49	42,233
789,67	41,709
789,84	43,932
790,02	42,200
790,19	43,028
790,37	41,987
790,54	43,160
790,72	43,607
790,89	46,157
791,07	43,008
791,24	40,295
791,42	44,763
791,59	41,667
791,77	39,744
791,94	40,999
792,12	42,371
792,29	43,755
792,47	41,671
792,64	44,099
792,81	43,926
792,99	41,758
793,16	42,084
793,34	44,697
793,51	43,543
793,69	43,444
793,86	42,896
794,04	42,164
794,21	41,508
794,39	41,746
794,56	41,232
794,73	43,868
794,91	46,245
795,08	42,342
795,26	41,139
795,43	40,212
795,61	44,558
795,78	44,258
795,95	44,350
796,13	40,858
796,30	43,740
796,48	41,059
796,65	40,568
796,83	42,554
797,00	46,632
797,17	41,349
797,35	41,564
797,52	42,082
797,70	46,684
797,87	41,624
798,04	39,546
798,22	42,326
798,39	41,938
798,57	44,189
798,74	44,037
798,91	41,159
799,09	39,405
799,26	43,940
799,44	43,316
799,61	41,467
799,78	42,810
799,96	45,876
800,13	42,958
800,31	45,121
800,48	44,807
800,65	46,013
800,83	41,743
801,00	42,430
801,17	42,516
801,35	46,214
801,52	42,617
801,70	43,685
801,87	41,190
802,04	47,710
802,22	43,700
802,39	42,563
802,56	46,947
802,74	44,029
802,91	42,026
803,08	43,115
803,26	42,140
803,43	47,037
803,61	42,185
803,78	41,603
803,95	43,373
804,13	46,477
804,30	42,220
804,47	44,010
804,65	41,838
804,82	46,962
804,99	43,914
805,17	42,653
805,34	46,823
805,51	50,435
805,69	40,912
805,86	42,562
806,03	49,241
806,21	48,022
806,38	44,817
806,55	47,703
806,72	45,768
806,90	42,814
807,07	44,423
807,24	43,581
807,42	40,852
807,59	44,385
807,76	37,324
807,94	38,274
808,11	43,162
808,28	47,693
808,45	39,600
808,63	47,093
808,80	45,733
808,97	43,725
809,15	41,502
809,32	48,939
809,49	42,643
809,67	43,050
809,84	47,385
810,01	43,604
810,18	51,132
810,36	47,558
810,53	45,563
810,70	45,020
810,87	44,785
811,05	46,603
811,22	45,220
811,39	39,721
811,57	46,962
811,74	48,006
811,91	45,226
812,08	42,767
812,26	47,095
812,43	41,963
812,60	43,655
812,77	43,161
812,95	47,863
813,12	48,818
813,29	39,263
813,46	46,531
813,64	46,761
813,81	47,013
813,98	42,556
814,15	45,048
814,32	49,046
814,50	49,440
814,67	47,370
814,84	47,188
815,01	47,122
815,19	38,843
815,36	40,259
815,53	44,356
815,70	45,515
815,87	47,216
816,05	40,211
816,22	48,730
816,39	51,687
816,56	51,273
816,74	43,795
816,91	45,302
817,08	51,943
817,25	50,001
817,42	47,654
817,60	45,529
817,77	42,734
817,94	46,253
818,11	43,231
818,28	43,861
818,45	43,870
818,63	46,735
818,80	43,966
818,97	45,756
819,14	53,792
819,31	48,589
819,49	45,066
819,66	47,196
819,83	45,154
820,00	43,480
820,17	44,438
820,34	49,493
820,52	45,196
820,69	48,070
820,86	41,545
821,03	43,530
821,20	49,150
821,37	50,093
821,55	43,240
821,72	44,664
821,89	48,761
822,06	48,959
822,23	44,074
822,40	43,008
822,57	46,484
822,75	47,214
822,92	46,625
823,09	45,164
823,26	49,606
823,43	51,597
823,60	44,219
823,77	47,236
823,94	49,117
824,12	56,551
824,29	42,732
824,46	41,373
824,63	50,312
824,80	53,770
824,97	47,836
825,14	49,758
825,31	46,989
825,49	45,631
825,66	42,637
825,83	43,210
826,00	45,146
826,17	53,932
826,34	47,751
826,51	43,770
826,68	43,258
826,85	47,826
827,02	46,126
827,20	42,673
827,37	45,834
827,54	50,971
827,71	47,704
827,88	47,763
828,05	49,629
828,22	47,191
828,39	48,827
828,56	49,274
828,73	45,953
828,90	52,591
829,07	44,715
829,25	45,266
829,42	47,645
829,59	42,330
829,76	44,696
829,93	40,716
830,10	48,994
830,27	45,374
830,44	49,751
830,61	44,811
830,78	60,670
830,95	47,887
831,12	41,948
831,29	43,614
831,46	43,805
831,63	46,099
831,80	47,391
831,97	38,741
832,14	55,554
832,31	56,674
832,48	43,036
832,65	48,883
832,83	50,062
833,00	48,665
833,17	45,281
833,34	42,114
833,51	55,005
833,68	48,906
833,85	48,558
834,02	41,645
834,19	47,619
834,36	52,573
834,53	45,121
834,70	51,815
834,87	56,776
835,04	47,741
835,21	52,891
835,38	46,813
835,55	47,832
835,72	59,561
835,89	45,403
836,06	49,870
836,23	59,512
836,40	49,969
836,57	47,193
836,74	55,283
836,91	50,069
837,08	56,256
837,25	48,694
837,42	40,275
837,59	43,785
837,76	46,980
837,93	44,426
838,09	43,082
838,26	56,055
838,43	58,923
838,60	48,456
838,77	48,647
838,94	58,194
839,11	48,676
839,28	44,075
839,45	47,631
839,62	53,031
839,79	44,341
839,96	46,367
840,13	51,379
840,30	45,464
840,47	44,568
840,64	35,759
840,81	47,280
840,98	50,655
841,15	60,968
841,32	40,465
841,48	52,878
841,65	50,720
841,82	45,948
841,99	49,168
842,16	39,583
842,33	58,215
842,50	57,728
842,67	47,960
842,84	57,094
843,01	53,343
843,18	52,247
843,35	47,286
843,52	43,197
843,68	50,478
843,85	52,558
844,02	43,167
844,19	46,075
844,36	58,001
844,53	50,270
844,70	47,642
844,87	57,227
845,04	52,011
845,21	43,105
845,37	49,474
845,54	42,963
845,71	41,614
845,88	76,243
846,05	52,494
846,22	53,185
846,39	49,359
846,56	58,971
846,72	38,241
846,89	43,413
847,06	69,964
847,23	59,536
847,40	47,167
847,57	38,233
847,74	51,437
847,90	54,176
848,07	44,413
848,24	53,400
848,41	50,961
848,58	57,479
848,75	55,176
848,92	48,259
849,08	50,776
849,25	55,543
849,42	36,455
849,59	55,553
849,76	53,020
849,93	48,043
850,09	52,958
850,26	35,526
850,43	68,877
850,60	49,871
850,77	45,847
850,94	58,976
851,10	55,685
851,27	46,042
851,44	40,580
851,61	42,062
851,78	59,655
851,95	71,458
852,11	38,826
852,28	48,256
852,45	58,665
852,62	57,676
852,79	47,609
852,95	42,714
853,12	70,128
853,29	53,853
853,46	40,932
853,63	60,113
853,79	44,981
853,96	47,779
854,13	58,459
854,30	53,818
854,46	72,971
854,63	57,214
854,80	49,435
854,97	52,344
855,14	61,151
855,30	67,384
855,47	47,234
855,64	59,044
855,81	56,213
855,97	64,636
856,14	57,420
856,31	38,244
856,48	68,613
856,65	79,486
856,81	44,085
856,98	45,725
857,15	43,712
857,32	63,172
857,48	52,288
857,65	47,705
857,82	59,910
857,99	65,394
858,15	50,398
858,32	50,128
858,49	49,585
858,65	75,225
858,82	50,817
858,99	48,624
859,16	64,377
859,32	65,410
859,49	40,524
859,66	59,796
859,83	51,834
859,99	51,654
860,16	60,611
860,33	39,472
860,49	55,020
860,66	61,856
860,83	58,082
861,00	43,578
861,16	65,961
861,33	73,715
861,50	35,669
861,66	63,862
861,83	92,157
862,00	64,451
862,16	72,640
862,33	58,002
862,50	99,589
862,67	60,050
862,83	53,267
863,00	73,764
863,17	63,305
863,33	61,479
863,50	30,973
863,67	59,864
863,83	64,327
864,00	79,898
864,17	47,216
864,33	42,660
864,50	63,367
864,67	51,395
864,83	43,438
865,00	38,383
865,17	43,944
865,33	66,856
865,50	45,038
865,67	40,089
865,83	66,482
866,00	80,679
866,17	63,700
866,33	54,851
866,50	82,415
866,66	77,562
866,83	69,650
867,00	54,318
867,16	84,634
867,33	87,413
867,50	50,576
867,66	53,682
867,83	78,598
868,00	74,027
868,16	45,124
868,33	57,318
868,49	58,284
868,66	81,368
868,83	67,852
868,99	70,773
869,16	72,113
869,32	70,889
869,49	51,353
869,66	40,779
869,82	77,715
869,99	81,453
870,15	62,148
870,32	72,085
870,49	84,740
870,65	125,973
870,82	56,914
870,98	65,611
871,15	96,034
871,32	66,784
871,48	33,383
871,65	49,059
871,81	63,655
871,98	43,232
872,15	22,360
872,31	44,629
872,48	113,637
872,64	81,774
872,81	57,233
872,97	67,805
873,14	80,042
873,31	80,886
873,47	68,797
873,64	59,526
873,80	106,008
873,97	99,874
874,13	57,346
874,30	78,827
874,46	80,322
874,63	46,237
874,80	53,460
874,96	73,496
875,13	104,314
875,29	66,449
875,46	100,796
875,62	27,684
875,79	65,705
875,95	54,254
876,12	50,445
876,28	39,279
876,45	101,958
876,61	79,557
876,78	28,592
876,94	74,327
877,11	90,917
877,27	85,872
877,44	96,882
877,60	53,842
877,77	102,384
877,94	121,929
878,10	63,807
878,27	72,603
878,43	132,042
878,60	41,242
878,76	65,920
878,93	47,702
879,09	153,937
879,26	109,107
879,42	65,293
879,58	44,124
879,75	113,153
879,91	146,961
880,08	6,671
880,24	51,354
880,41	63,204
880,57	56,785
880,74	24,234
880,90	108,950
881,07	68,491
881,23	77,776
881,40	70,197
881,56	114,503
881,73	106,083
881,89	40,288
882,06	0,305
882,22	207,851
882,38	157,947
882,55	153,351
882,71	36,889
882,88	69,739
883,04	225,978
883,21	215,729
883,37	124,841
883,54	87,239
883,70	190,936
883,86	97,672
884,03	77,821
884,19	26,817
884,36	8,976
884,52	188,312
884,69	54,351
884,85	34,810
885,01	99,545
885,18	155,937
885,34	-39,970
885,51	19,478
885,67	112,896
>>>>> Data<<<<< Espectral Procesado Extremo
