Fichero De Datos De SpectraSuite
++++++++++++++++++++++++++++++++++++
Fecha: Wed Apr 22 11:21:28 CEST 2009
Usuario: evoflor
Presente Oscuro Del Espectro: Sí
La Referencia de Presente Del Espectro De: Sí
Muestreados de los componentes de Número de espectros: 1
Espectrómetros: USB4F02353
Tiempo de integración (usec): 500000 (USB4F02353)
Promedio de Espectros Hechos un: 5 (USB4F02353)
El Alisar Del Furgón: 0 (USB4F02353)
Párrafo de de Corregir del la del del de Eléctrica del obscuridad: Sí (USB4F02353)
Estrobo/Lámpara Permitido: No (USB4F02353)
Correct for Detector Non-linearity: No (USB4F02353)
Párrafo de de Corregir del la del del de Externa del luz: No (USB4F02353)
Procesado del espectro de Número de pixeles en: 3648
>>>>> Comienza Data<<<<< Espectral Procesado Del EL
177,79	212,219
178,00	212,219
178,22	212,219
178,44	1584,945
178,66	-108,037
178,88	264,593
179,09	-106,255
179,31	271,948
179,53	629,009
179,75	199,910
179,96	533,362
180,18	-245,754
180,40	437,803
180,62	646,340
180,83	-123,678
181,05	-1248,415
181,27	-153670,000
181,49	72,891
181,70	244,885
181,92	519,645
182,14	555,030
182,36	144,990
182,58	-69,700
182,79	585,580
183,01	11,816
183,23	98,472
183,45	-123,908
183,66	16,947
183,88	14,529
184,10	-1763,091
184,32	197,698
184,53	168,743
184,75	-23,739
184,97	77,735
185,18	-270,244
185,40	-483,510
185,62	112,724
185,84	107,576
186,05	172,766
186,27	-216,116
186,49	3625,769
186,71	23,959
186,92	108,549
187,14	-133,242
187,36	106,240
187,58	67,134
187,79	23,602
188,01	275,070
188,23	-178,324
188,45	-54,614
188,66	227,991
188,88	-519,455
189,10	-1059,700
189,31	20,358
189,53	112,901
189,75	398,341
189,97	44,115
190,18	33,777
190,40	612,765
190,62	-126,373
190,83	-134,377
191,05	155,596
191,27	351,629
191,49	242,252
191,70	-68,125
191,92	-509,068
192,14	-90,915
192,35	345,544
192,57	5522,000
192,79	24,561
193,01	193,288
193,22	125,561
193,44	21,894
193,66	126,240
193,87	122,848
194,09	-54,592
194,31	231,917
194,53	539,650
194,74	51,887
194,96	25,026
195,18	125,899
195,39	-165,620
195,61	-107,128
195,83	-263,630
196,04	147,850
196,26	114,221
196,48	79,963
196,70	291,193
196,91	98,057
197,13	168,025
197,35	-18,600
197,56	436,749
197,78	1590,075
198,00	608,881
198,21	261,019
198,43	-333,547
198,65	90,300
198,86	80,108
199,08	261,869
199,30	292,854
199,51	-395,016
199,73	178,131
199,95	500,668
200,16	393,731
200,38	266,271
200,60	93,395
200,81	275,096
201,03	77,636
201,25	-1518,700
201,46	166,605
201,68	25,231
201,90	4147,045
202,11	-119,351
202,33	227,415
202,55	-295,375
202,76	-10,034
202,98	-69,791
203,20	-310,433
203,41	-567,211
203,63	164,006
203,85	-159970,000
204,06	11,995
204,28	-305,229
204,50	192,068
204,71	204,717
204,93	156,560
205,15	26,416
205,36	-223,270
205,58	284,587
205,80	-51,109
206,01	56,341
206,23	122,304
206,45	215,503
206,66	124,357
206,88	14,000
207,10	230,614
207,31	307,245
207,53	220,486
207,75	74,007
207,96	1019,179
208,18	-179,300
208,39	80,241
208,61	7656,286
208,83	-243,344
209,04	332,912
209,26	-243,641
209,48	260,775
209,69	108,500
209,91	272,872
210,13	-9,511
210,34	21,235
210,56	203,054
210,77	-1302,126
210,99	130,258
211,21	5545,294
211,42	-232,219
211,64	7,885
211,86	174,910
212,07	307,905
212,29	132,969
212,50	107,733
212,72	179,115
212,94	203,126
213,15	179,941
213,37	137,220
213,58	-191,064
213,80	-1309,643
214,02	9780,588
214,23	406,880
214,45	105,475
214,67	-227,683
214,88	-62,651
215,10	-118,433
215,31	-242,205
215,53	46,523
215,75	135,774
215,96	1463,168
216,18	351,690
216,39	127,357
216,61	437,707
216,83	211,920
217,04	1615,393
217,26	62,048
217,47	90,536
217,69	239,010
217,91	213,995
218,12	-114970,000
218,34	75,080
218,55	319,284
218,77	99,865
218,99	106,182
219,20	-128,436
219,42	300,107
219,63	-101,215
219,85	-144,480
220,06	64,885
220,28	205,061
220,50	-43,527
220,71	30,192
220,93	1608,868
221,14	-1887,700
221,36	-44,302
221,58	211,509
221,79	234,794
222,01	1029,914
222,22	608,355
222,44	513,146
222,65	107,635
222,87	193,497
223,09	109,855
223,30	63,136
223,52	135,873
223,73	212,171
223,95	-83,986
224,16	134,990
224,38	210,592
224,60	85,202
224,81	41,230
225,03	47,324
225,24	105,081
225,46	211,910
225,67	5,420
225,89	-45,065
226,10	354,428
226,32	-109,840
226,54	16,002
226,75	29,667
226,97	110,744
227,18	93,046
227,40	15,008
227,61	9,810
227,83	25,880
228,04	203,710
228,26	78,755
228,47	65,005
228,69	143,374
228,91	56,077
229,12	49,548
229,34	68,238
229,55	53,412
229,77	14,794
229,98	-24,895
230,20	63,687
230,41	-13,852
230,63	68,327
230,84	-31,285
231,06	37,263
231,27	16,089
231,49	45,643
231,71	42,734
231,92	11,565
232,14	-9,270
232,35	24,452
232,57	27,258
232,78	16,347
233,00	6,770
233,21	52,339
233,43	-1,046
233,64	15,651
233,86	55,739
234,07	14,840
234,29	21,214
234,50	14,897
234,72	44,204
234,93	10,217
235,15	26,046
235,36	18,670
235,58	24,809
235,79	57,529
236,01	19,433
236,22	7,468
236,44	37,930
236,65	24,225
236,87	22,882
237,08	5,822
237,30	1,017
237,51	19,041
237,73	0,512
237,94	5,708
238,16	13,798
238,37	4,014
238,59	8,838
238,80	6,091
239,02	11,282
239,23	11,284
239,45	-2,718
239,66	17,550
239,88	27,029
240,09	15,653
240,31	-2,375
240,52	2,083
240,74	9,703
240,95	-2,014
241,17	8,488
241,38	1,808
241,60	14,968
241,81	19,156
242,03	6,835
242,24	7,549
242,46	18,124
242,67	6,731
242,89	14,760
243,10	14,714
243,32	17,330
243,53	17,223
243,75	7,329
243,96	1,987
244,18	16,722
244,39	6,071
244,60	4,534
244,82	9,000
245,03	15,363
245,25	10,725
245,46	20,176
245,68	0,324
245,89	19,885
246,11	10,796
246,32	11,912
246,54	9,532
246,75	5,310
246,97	5,366
247,18	12,690
247,39	5,291
247,61	4,816
247,82	10,085
248,04	7,210
248,25	5,397
248,47	12,947
248,68	8,836
248,90	-1,382
249,11	7,432
249,33	11,925
249,54	3,948
249,75	8,136
249,97	0,199
250,18	9,596
250,40	13,762
250,61	0,728
250,83	1,501
251,04	0,158
251,25	6,693
251,47	1,748
251,68	7,476
251,90	8,086
252,11	9,054
252,33	4,130
252,54	7,944
252,76	6,532
252,97	-0,488
253,18	-1,956
253,40	3,890
253,61	0,653
253,83	9,316
254,04	5,951
254,25	2,205
254,47	5,547
254,68	4,976
254,90	6,025
255,11	6,571
255,33	8,893
255,54	5,619
255,75	5,045
255,97	6,499
256,18	5,317
256,40	3,164
256,61	6,899
256,82	-0,608
257,04	5,793
257,25	2,243
257,47	4,887
257,68	1,924
257,89	9,976
258,11	7,873
258,32	3,083
258,54	5,268
258,75	12,037
258,96	9,331
259,18	3,757
259,39	3,168
259,61	4,165
259,82	3,659
260,03	6,015
260,25	5,332
260,46	4,272
260,68	2,283
260,89	3,790
261,10	6,427
261,32	5,958
261,53	4,986
261,75	6,542
261,96	-4,377
262,17	9,971
262,39	10,616
262,60	3,692
262,81	-3,291
263,03	9,190
263,24	5,193
263,46	2,696
263,67	1,138
263,88	4,975
264,10	4,807
264,31	1,358
264,52	5,138
264,74	7,322
264,95	2,380
265,17	6,351
265,38	4,483
265,59	6,010
265,81	8,223
266,02	-0,010
266,23	3,749
266,45	6,541
266,66	9,706
266,87	4,241
267,09	1,342
267,30	8,343
267,52	8,596
267,73	3,771
267,94	7,314
268,16	9,170
268,37	6,365
268,58	3,664
268,80	4,992
269,01	5,231
269,22	8,148
269,44	5,591
269,65	3,669
269,86	5,656
270,08	6,787
270,29	2,981
270,50	3,038
270,72	5,093
270,93	3,544
271,14	1,525
271,36	5,824
271,57	7,306
271,78	6,102
272,00	9,211
272,21	5,771
272,42	2,968
272,64	6,863
272,85	1,017
273,06	3,053
273,28	4,605
273,49	7,454
273,70	7,510
273,92	5,826
274,13	7,930
274,34	0,356
274,56	4,052
274,77	4,868
274,98	7,538
275,20	7,977
275,41	8,795
275,62	2,181
275,84	4,974
276,05	6,358
276,26	1,014
276,47	-3,581
276,69	4,924
276,90	3,982
277,11	1,730
277,33	2,766
277,54	6,326
277,75	2,190
277,97	4,657
278,18	2,271
278,39	6,562
278,61	1,981
278,82	4,799
279,03	3,388
279,24	6,706
279,46	6,607
279,67	6,521
279,88	2,818
280,10	5,971
280,31	1,546
280,52	3,469
280,73	1,211
280,95	5,689
281,16	4,185
281,37	6,952
281,59	6,327
281,80	9,460
282,01	1,833
282,22	1,986
282,44	0,087
282,65	11,483
282,86	8,590
283,08	3,339
283,29	7,031
283,50	5,460
283,71	6,135
283,93	7,083
284,14	6,083
284,35	2,955
284,56	4,471
284,78	-0,130
284,99	6,178
285,20	5,416
285,42	4,003
285,63	5,922
285,84	0,731
286,05	2,852
286,27	5,258
286,48	1,599
286,69	1,922
286,90	3,188
287,12	3,978
287,33	3,304
287,54	3,550
287,75	6,929
287,97	3,734
288,18	2,888
288,39	2,511
288,60	4,402
288,82	3,263
289,03	2,907
289,24	3,102
289,45	6,006
289,67	5,556
289,88	4,139
290,09	5,435
290,30	4,977
290,52	4,219
290,73	3,466
290,94	-1,958
291,15	4,275
291,37	3,653
291,58	2,426
291,79	2,288
292,00	8,200
292,21	3,660
292,43	5,586
292,64	3,594
292,85	-0,060
293,06	6,209
293,28	2,123
293,49	2,474
293,70	6,334
293,91	9,298
294,12	2,524
294,34	2,162
294,55	2,170
294,76	3,810
294,97	6,910
295,19	1,174
295,40	5,267
295,61	5,005
295,82	-0,677
296,03	4,050
296,25	5,787
296,46	2,499
296,67	0,372
296,88	-1,753
297,09	7,070
297,31	3,169
297,52	5,169
297,73	2,301
297,94	6,520
298,15	4,169
298,37	1,534
298,58	4,751
298,79	6,629
299,00	1,355
299,21	4,786
299,43	1,793
299,64	8,038
299,85	4,770
300,06	2,636
300,27	1,653
300,49	6,337
300,70	4,368
300,91	3,793
301,12	2,703
301,33	2,729
301,54	2,625
301,76	6,218
301,97	3,386
302,18	3,800
302,39	7,670
302,60	5,308
302,82	3,481
303,03	7,944
303,24	5,196
303,45	4,970
303,66	3,810
303,87	2,325
304,09	7,026
304,30	4,101
304,51	3,619
304,72	2,821
304,93	6,586
305,14	3,688
305,36	1,653
305,57	1,256
305,78	2,534
305,99	1,639
306,20	1,286
306,41	0,799
306,62	0,864
306,84	3,390
307,05	0,679
307,26	2,646
307,47	5,935
307,68	2,739
307,89	1,947
308,11	6,259
308,32	1,842
308,53	2,872
308,74	2,800
308,95	1,797
309,16	6,928
309,37	5,746
309,59	2,424
309,80	3,556
310,01	3,419
310,22	5,371
310,43	3,387
310,64	5,198
310,85	3,935
311,06	2,467
311,28	3,184
311,49	4,424
311,70	6,933
311,91	1,917
312,12	3,074
312,33	4,344
312,54	6,413
312,75	2,673
312,97	2,096
313,18	6,118
313,39	2,915
313,60	2,465
313,81	1,763
314,02	5,654
314,23	5,687
314,44	0,018
314,65	3,305
314,87	1,147
315,08	4,020
315,29	5,835
315,50	4,295
315,71	7,982
315,92	8,001
316,13	3,332
316,34	4,533
316,55	5,126
316,77	1,028
316,98	1,037
317,19	4,271
317,40	7,189
317,61	6,793
317,82	3,948
318,03	3,381
318,24	4,002
318,45	5,562
318,66	3,542
318,87	1,582
319,09	6,466
319,30	5,228
319,51	4,614
319,72	5,541
319,93	6,328
320,14	5,768
320,35	5,146
320,56	1,235
320,77	1,913
320,98	9,661
321,19	4,960
321,40	4,185
321,62	7,070
321,83	1,369
322,04	4,171
322,25	4,369
322,46	8,393
322,67	4,943
322,88	5,412
323,09	4,038
323,30	5,320
323,51	7,106
323,72	3,750
323,93	1,626
324,14	3,485
324,35	1,398
324,56	-0,436
324,77	2,954
324,99	2,835
325,20	0,601
325,41	3,198
325,62	7,132
325,83	2,286
326,04	3,870
326,25	3,871
326,46	1,709
326,67	5,057
326,88	4,908
327,09	2,916
327,30	3,344
327,51	3,387
327,72	4,953
327,93	6,859
328,14	1,434
328,35	2,110
328,56	6,847
328,77	2,029
328,98	6,304
329,19	3,981
329,40	6,431
329,61	2,741
329,82	1,955
330,04	4,263
330,25	1,596
330,46	4,111
330,67	3,978
330,88	2,289
331,09	5,580
331,30	2,221
331,51	4,546
331,72	5,099
331,93	5,851
332,14	2,513
332,35	5,843
332,56	2,868
332,77	5,437
332,98	1,727
333,19	2,858
333,40	4,197
333,61	2,808
333,82	5,198
334,03	5,144
334,24	5,465
334,45	4,363
334,66	4,471
334,87	2,989
335,08	0,099
335,29	4,420
335,50	2,831
335,71	2,274
335,92	4,676
336,13	7,325
336,34	2,168
336,55	5,428
336,76	5,671
336,97	2,389
337,18	1,760
337,39	3,781
337,60	4,218
337,81	5,588
338,02	4,100
338,23	3,323
338,44	3,827
338,65	3,285
338,86	5,809
339,07	2,229
339,28	4,839
339,49	2,844
339,70	3,854
339,91	5,770
340,11	4,022
340,32	1,106
340,53	0,824
340,74	0,581
340,95	2,288
341,16	5,007
341,37	5,617
341,58	0,823
341,79	5,788
342,00	5,151
342,21	3,586
342,42	1,599
342,63	2,609
342,84	0,304
343,05	5,633
343,26	4,582
343,47	4,567
343,68	3,208
343,89	1,473
344,10	3,292
344,31	6,177
344,52	3,531
344,73	3,541
344,94	4,209
345,14	4,101
345,35	9,791
345,56	4,109
345,77	2,743
345,98	2,078
346,19	6,031
346,40	2,800
346,61	2,027
346,82	4,358
347,03	3,062
347,24	5,489
347,45	1,505
347,66	4,681
347,87	0,748
348,08	5,795
348,28	1,333
348,49	1,915
348,70	5,410
348,91	3,483
349,12	1,504
349,33	16,844
349,54	4,683
349,75	7,580
349,96	4,554
350,17	4,510
350,38	0,928
350,59	4,338
350,80	2,812
351,00	6,070
351,21	6,945
351,42	4,368
351,63	0,359
351,84	2,263
352,05	7,048
352,26	3,299
352,47	3,234
352,68	4,949
352,89	8,518
353,09	4,825
353,30	2,520
353,51	3,408
353,72	9,646
353,93	8,175
354,14	1,656
354,35	-0,458
354,56	10,469
354,77	3,651
354,98	3,043
355,18	4,371
355,39	6,114
355,60	5,305
355,81	4,745
356,02	2,279
356,23	5,149
356,44	2,811
356,65	4,448
356,85	7,712
357,06	5,740
357,27	5,158
357,48	2,001
357,69	6,624
357,90	6,242
358,11	2,198
358,32	5,183
358,52	7,859
358,73	4,926
358,94	3,074
359,15	5,047
359,36	5,338
359,57	5,787
359,78	3,949
359,98	1,824
360,19	2,854
360,40	5,251
360,61	4,649
360,82	4,735
361,03	9,807
361,24	5,494
361,44	1,384
361,65	5,048
361,86	3,615
362,07	7,432
362,28	4,905
362,49	2,913
362,70	3,577
362,90	8,821
363,11	1,268
363,32	0,947
363,53	6,474
363,74	7,127
363,95	5,814
364,15	4,884
364,36	6,831
364,57	6,729
364,78	0,646
364,99	4,593
365,20	7,193
365,40	8,205
365,61	3,983
365,82	6,432
366,03	4,351
366,24	4,996
366,45	1,820
366,65	3,640
366,86	1,728
367,07	4,056
367,28	2,185
367,49	6,020
367,69	7,262
367,90	2,345
368,11	1,540
368,32	3,202
368,53	6,886
368,73	4,068
368,94	3,563
369,15	2,614
369,36	5,981
369,57	5,753
369,78	4,894
369,98	6,774
370,19	10,160
370,40	0,912
370,61	4,964
370,82	1,512
371,02	6,394
371,23	10,506
371,44	5,800
371,65	7,797
371,85	9,013
372,06	2,961
372,27	4,179
372,48	4,132
372,69	3,902
372,89	3,837
373,10	2,668
373,31	5,008
373,52	5,065
373,73	8,943
373,93	3,108
374,14	3,938
374,35	10,859
374,56	9,606
374,76	3,985
374,97	7,066
375,18	3,700
375,39	4,231
375,60	4,529
375,80	5,620
376,01	4,490
376,22	4,666
376,43	3,835
376,63	5,741
376,84	1,149
377,05	4,563
377,26	5,844
377,46	0,874
377,67	4,674
377,88	6,575
378,09	4,379
378,29	0,089
378,50	5,212
378,71	7,484
378,92	2,859
379,12	3,932
379,33	5,428
379,54	5,908
379,75	4,603
379,95	3,751
380,16	5,841
380,37	8,108
380,58	4,301
380,78	6,439
380,99	4,276
381,20	4,309
381,41	3,362
381,61	6,632
381,82	5,544
382,03	5,255
382,24	6,913
382,44	5,345
382,65	5,720
382,86	5,991
383,06	5,361
383,27	6,687
383,48	5,918
383,69	6,267
383,89	7,963
384,10	6,881
384,31	4,202
384,51	9,215
384,72	6,878
384,93	4,859
385,14	6,975
385,34	7,820
385,55	4,967
385,76	5,768
385,96	7,380
386,17	7,649
386,38	10,689
386,59	7,449
386,79	5,305
387,00	9,427
387,21	8,403
387,41	7,135
387,62	7,523
387,83	8,113
388,03	7,083
388,24	3,922
388,45	8,061
388,66	5,775
388,86	10,327
389,07	5,914
389,28	10,649
389,48	5,878
389,69	8,423
389,90	8,743
390,10	9,795
390,31	9,678
390,52	7,194
390,72	7,431
390,93	9,770
391,14	11,770
391,34	7,199
391,55	10,591
391,76	9,692
391,96	11,093
392,17	5,683
392,38	11,236
392,58	11,300
392,79	8,266
393,00	7,869
393,20	9,814
393,41	9,038
393,62	7,820
393,82	11,011
394,03	7,335
394,24	9,276
394,44	14,924
394,65	14,489
394,86	8,693
395,06	16,083
395,27	9,588
395,48	8,086
395,68	12,107
395,89	14,119
396,10	13,869
396,30	11,329
396,51	9,205
396,72	12,262
396,92	10,957
397,13	13,823
397,34	11,051
397,54	16,709
397,75	13,671
397,95	10,194
398,16	12,529
398,37	13,186
398,57	11,682
398,78	15,516
398,99	16,122
399,19	15,168
399,40	16,418
399,60	12,163
399,81	16,355
400,02	15,390
400,22	17,336
400,43	14,999
400,64	16,104
400,84	15,247
401,05	15,440
401,25	19,014
401,46	17,320
401,67	18,431
401,87	15,757
402,08	9,366
402,29	17,465
402,49	22,511
402,70	19,517
402,90	13,551
403,11	18,155
403,32	18,830
403,52	18,843
403,73	21,021
403,93	20,908
404,14	19,857
404,35	20,824
404,55	18,372
404,76	18,361
404,96	18,536
405,17	25,484
405,38	22,697
405,58	19,091
405,79	23,614
405,99	22,110
406,20	21,751
406,40	19,940
406,61	23,436
406,82	23,485
407,02	24,795
407,23	22,553
407,43	23,718
407,64	23,798
407,85	21,318
408,05	18,748
408,26	28,647
408,46	25,488
408,67	21,982
408,87	25,402
409,08	25,987
409,29	28,484
409,49	25,106
409,70	27,607
409,90	24,513
410,11	25,303
410,31	27,459
410,52	24,757
410,72	26,697
410,93	29,544
411,14	27,652
411,34	26,238
411,55	33,065
411,75	29,063
411,96	26,580
412,16	30,724
412,37	26,991
412,57	27,413
412,78	30,686
412,99	30,719
413,19	31,072
413,40	31,287
413,60	25,658
413,81	27,103
414,01	29,288
414,22	28,704
414,42	29,135
414,63	27,474
414,83	31,628
415,04	34,236
415,24	29,973
415,45	32,766
415,65	31,907
415,86	36,862
416,07	30,500
416,27	33,640
416,48	32,531
416,68	37,716
416,89	28,511
417,09	33,362
417,30	36,648
417,50	29,401
417,71	36,197
417,91	34,937
418,12	32,743
418,32	32,553
418,53	35,525
418,73	32,814
418,94	33,757
419,14	33,202
419,35	31,174
419,55	33,302
419,76	34,342
419,96	29,352
420,17	33,291
420,37	33,385
420,58	36,662
420,78	34,805
420,99	36,800
421,19	38,226
421,40	39,588
421,60	38,769
421,81	35,072
422,01	38,214
422,22	36,157
422,42	39,005
422,63	38,639
422,83	36,569
423,04	38,682
423,24	43,036
423,45	33,180
423,65	37,592
423,86	39,384
424,06	36,925
424,27	37,539
424,47	32,169
424,67	37,167
424,88	36,418
425,08	33,208
425,29	44,825
425,49	35,826
425,70	34,766
425,90	39,687
426,11	36,035
426,31	37,218
426,52	37,309
426,72	37,538
426,93	35,447
427,13	43,127
427,33	37,143
427,54	42,945
427,74	39,943
427,95	42,983
428,15	36,159
428,36	37,942
428,56	39,849
428,77	39,986
428,97	39,466
429,18	37,653
429,38	39,164
429,58	41,440
429,79	40,662
429,99	36,218
430,20	34,903
430,40	41,988
430,61	40,363
430,81	36,259
431,01	39,938
431,22	38,425
431,42	42,501
431,63	36,028
431,83	35,796
432,04	42,042
432,24	43,743
432,44	38,275
432,65	35,129
432,85	37,731
433,06	37,942
433,26	37,842
433,47	33,507
433,67	37,791
433,87	35,591
434,08	34,035
434,28	35,064
434,49	33,894
434,69	38,737
434,89	34,091
435,10	36,645
435,30	41,265
435,51	36,389
435,71	35,053
435,91	38,074
436,12	38,845
436,32	36,663
436,53	40,794
436,73	36,969
436,93	40,878
437,14	39,739
437,34	39,167
437,55	39,049
437,75	38,634
437,95	40,232
438,16	41,552
438,36	37,026
438,57	34,905
438,77	38,750
438,97	42,186
439,18	44,853
439,38	39,985
439,58	36,165
439,79	37,625
439,99	35,869
440,20	43,823
440,40	42,808
440,60	38,593
440,81	39,647
441,01	41,740
441,21	41,555
441,42	42,354
441,62	45,218
441,83	40,028
442,03	42,121
442,23	40,187
442,44	41,879
442,64	38,612
442,84	37,867
443,05	40,715
443,25	42,502
443,45	41,684
443,66	39,741
443,86	37,008
444,06	41,857
444,27	39,354
444,47	40,014
444,67	38,177
444,88	42,250
445,08	45,007
445,28	42,103
445,49	41,450
445,69	36,013
445,90	39,714
446,10	41,747
446,30	41,278
446,51	42,895
446,71	44,664
446,91	45,533
447,12	46,271
447,32	36,510
447,52	40,806
447,72	41,023
447,93	42,357
448,13	38,129
448,33	43,934
448,54	43,568
448,74	39,064
448,94	40,845
449,15	43,794
449,35	44,449
449,55	41,404
449,76	42,860
449,96	43,685
450,16	47,069
450,37	39,437
450,57	41,412
450,77	37,338
450,98	44,381
451,18	45,857
451,38	38,316
451,58	43,102
451,79	43,369
451,99	39,447
452,19	38,474
452,40	43,027
452,60	39,424
452,80	39,752
453,00	47,032
453,21	38,832
453,41	45,387
453,61	44,924
453,82	43,593
454,02	36,840
454,22	44,890
454,42	42,782
454,63	36,401
454,83	36,450
455,03	43,240
455,24	41,209
455,44	41,616
455,64	40,529
455,84	42,915
456,05	39,874
456,25	37,828
456,45	41,681
456,65	39,293
456,86	39,217
457,06	44,706
457,26	48,404
457,47	44,287
457,67	42,081
457,87	35,430
458,07	43,737
458,28	42,168
458,48	43,032
458,68	36,725
458,88	43,604
459,09	41,974
459,29	45,784
459,49	39,916
459,69	36,784
459,90	42,814
460,10	41,814
460,30	41,429
460,50	40,743
460,71	44,094
460,91	40,465
461,11	42,484
461,31	37,796
461,52	43,716
461,72	45,368
461,92	42,742
462,12	49,836
462,32	39,079
462,53	41,443
462,73	39,367
462,93	43,541
463,13	39,633
463,34	40,929
463,54	42,444
463,74	40,831
463,94	40,543
464,14	42,985
464,35	36,916
464,55	45,056
464,75	43,401
464,95	41,138
465,16	37,497
465,36	44,941
465,56	40,706
465,76	38,198
465,96	43,794
466,17	35,788
466,37	38,943
466,57	41,613
466,77	42,023
466,97	37,089
467,18	42,938
467,38	39,723
467,58	41,074
467,78	45,661
467,98	41,601
468,19	45,745
468,39	42,741
468,59	41,728
468,79	42,224
468,99	40,612
469,19	33,669
469,40	45,337
469,60	33,000
469,80	39,112
470,00	41,369
470,20	42,623
470,41	40,644
470,61	44,287
470,81	39,658
471,01	35,953
471,21	42,737
471,41	38,987
471,62	42,476
471,82	39,440
472,02	37,566
472,22	40,932
472,42	39,053
472,62	44,167
472,83	38,765
473,03	43,638
473,23	38,104
473,43	43,642
473,63	41,765
473,83	41,711
474,03	35,579
474,24	46,767
474,44	40,210
474,64	40,543
474,84	39,920
475,04	40,850
475,24	40,755
475,45	39,505
475,65	41,094
475,85	40,740
476,05	38,548
476,25	37,564
476,45	39,711
476,65	41,198
476,85	37,678
477,06	39,780
477,26	37,429
477,46	40,733
477,66	42,217
477,86	43,124
478,06	39,565
478,26	41,878
478,46	37,043
478,67	40,275
478,87	39,720
479,07	35,422
479,27	40,903
479,47	37,928
479,67	33,183
479,87	37,952
480,07	40,123
480,28	39,336
480,48	38,851
480,68	37,858
480,88	41,330
481,08	39,863
481,28	39,863
481,48	40,293
481,68	37,322
481,88	35,766
482,08	39,229
482,29	39,525
482,49	36,381
482,69	39,813
482,89	38,399
483,09	40,673
483,29	38,482
483,49	34,222
483,69	38,302
483,89	38,510
484,09	35,897
484,29	32,260
484,50	38,132
484,70	39,063
484,90	34,408
485,10	35,603
485,30	37,912
485,50	39,954
485,70	37,018
485,90	34,362
486,10	33,631
486,30	37,007
486,50	38,630
486,70	36,249
486,90	35,680
487,10	37,098
487,30	37,487
487,51	34,334
487,71	35,105
487,91	34,154
488,11	35,731
488,31	33,729
488,51	36,670
488,71	32,715
488,91	38,803
489,11	31,591
489,31	35,596
489,51	33,222
489,71	36,982
489,91	34,695
490,11	33,344
490,31	35,583
490,51	36,286
490,71	35,970
490,91	36,817
491,11	36,154
491,31	38,896
491,51	33,249
491,72	35,144
491,92	36,538
492,12	37,452
492,32	37,728
492,52	36,757
492,72	36,513
492,92	36,072
493,12	34,139
493,32	34,087
493,52	33,972
493,72	35,895
493,92	36,622
494,12	35,576
494,32	35,532
494,52	34,019
494,72	35,474
494,92	32,047
495,12	37,802
495,32	38,808
495,52	36,201
495,72	35,432
495,92	38,916
496,12	36,985
496,32	33,413
496,52	35,576
496,72	34,002
496,92	38,877
497,12	34,359
497,32	37,641
497,52	36,150
497,72	37,610
497,92	36,132
498,12	32,319
498,32	38,152
498,52	35,190
498,72	32,870
498,92	34,633
499,12	38,633
499,32	32,448
499,52	35,808
499,72	36,968
499,92	35,760
500,12	35,668
500,32	37,689
500,52	37,097
500,72	42,479
500,91	34,178
501,11	34,491
501,31	32,213
501,51	36,001
501,71	36,907
501,91	36,127
502,11	34,893
502,31	35,247
502,51	36,993
502,71	33,137
502,91	34,190
503,11	34,614
503,31	37,840
503,51	32,360
503,71	32,523
503,91	37,498
504,11	35,001
504,31	36,192
504,51	35,722
504,71	37,433
504,91	35,115
505,10	36,820
505,30	34,862
505,50	35,235
505,70	36,611
505,90	34,647
506,10	33,374
506,30	34,478
506,50	36,382
506,70	37,028
506,90	31,712
507,10	33,957
507,30	33,577
507,50	32,531
507,70	36,112
507,89	35,424
508,09	34,078
508,29	32,035
508,49	31,987
508,69	32,930
508,89	33,993
509,09	32,924
509,29	33,936
509,49	33,250
509,69	36,998
509,89	33,406
510,09	32,701
510,28	32,598
510,48	31,441
510,68	31,240
510,88	32,346
511,08	32,923
511,28	32,453
511,48	32,406
511,68	30,890
511,88	28,141
512,07	33,368
512,27	33,617
512,47	32,290
512,67	31,857
512,87	30,865
513,07	32,455
513,27	29,133
513,47	31,142
513,67	30,105
513,86	30,296
514,06	32,779
514,26	31,121
514,46	33,600
514,66	32,288
514,86	32,053
515,06	36,337
515,26	34,108
515,45	33,022
515,65	28,837
515,85	31,288
516,05	28,720
516,25	31,367
516,45	32,319
516,65	29,385
516,84	32,189
517,04	34,521
517,24	31,609
517,44	29,250
517,64	32,091
517,84	32,718
518,04	30,811
518,23	32,011
518,43	31,112
518,63	28,793
518,83	29,419
519,03	33,475
519,23	32,194
519,42	31,298
519,62	31,604
519,82	30,251
520,02	27,226
520,22	29,111
520,42	29,392
520,61	29,409
520,81	31,439
521,01	33,396
521,21	26,960
521,41	28,827
521,61	33,118
521,80	28,108
522,00	28,919
522,20	29,431
522,40	31,112
522,60	28,699
522,79	27,102
522,99	32,430
523,19	26,767
523,39	27,936
523,59	28,402
523,78	33,255
523,98	30,737
524,18	28,856
524,38	28,715
524,58	29,950
524,77	30,168
524,97	29,237
525,17	31,626
525,37	27,863
525,57	31,636
525,76	27,907
525,96	29,791
526,16	27,836
526,36	26,291
526,56	29,572
526,75	28,384
526,95	31,575
527,15	28,710
527,35	27,172
527,55	26,339
527,74	28,900
527,94	24,060
528,14	27,348
528,34	28,096
528,53	27,154
528,73	28,050
528,93	28,694
529,13	27,597
529,32	29,430
529,52	28,949
529,72	26,619
529,92	26,593
530,12	26,807
530,31	25,966
530,51	26,372
530,71	28,232
530,91	27,644
531,10	23,697
531,30	26,534
531,50	24,452
531,70	25,805
531,89	27,003
532,09	26,249
532,29	26,943
532,49	26,588
532,68	25,928
532,88	25,813
533,08	25,921
533,28	24,533
533,47	25,463
533,67	25,846
533,87	21,340
534,06	30,180
534,26	25,946
534,46	25,071
534,66	24,460
534,85	25,116
535,05	21,568
535,25	25,533
535,45	23,071
535,64	24,156
535,84	24,215
536,04	22,028
536,23	24,335
536,43	26,431
536,63	24,071
536,83	26,131
537,02	24,828
537,22	23,722
537,42	23,480
537,61	24,935
537,81	25,133
538,01	25,251
538,20	24,312
538,40	20,891
538,60	23,079
538,80	21,290
538,99	24,018
539,19	22,039
539,39	22,707
539,58	23,293
539,78	20,325
539,98	20,940
540,17	20,869
540,37	20,909
540,57	19,191
540,76	18,444
540,96	17,516
541,16	19,335
541,36	15,757
541,55	14,811
541,75	15,870
541,95	17,157
542,14	18,025
542,34	17,791
542,54	15,972
542,73	18,796
542,93	17,268
543,13	16,698
543,32	15,717
543,52	16,792
543,72	15,783
543,91	16,325
544,11	15,894
544,31	13,862
544,50	15,727
544,70	16,609
544,89	16,227
545,09	16,703
545,29	16,960
545,48	17,006
545,68	16,239
545,88	17,141
546,07	16,634
546,27	17,381
546,47	18,899
546,66	18,624
546,86	19,146
547,06	19,104
547,25	20,083
547,45	19,733
547,64	21,401
547,84	22,856
548,04	20,770
548,23	21,971
548,43	21,540
548,63	22,194
548,82	21,687
549,02	18,784
549,21	19,658
549,41	20,091
549,61	20,680
549,80	19,841
550,00	23,737
550,20	20,183
550,39	21,956
550,59	20,209
550,78	21,021
550,98	19,619
551,18	22,614
551,37	21,631
551,57	20,674
551,76	22,297
551,96	20,644
552,16	21,049
552,35	21,880
552,55	22,776
552,74	23,328
552,94	23,277
553,14	22,049
553,33	22,018
553,53	21,636
553,72	21,774
553,92	22,389
554,12	21,399
554,31	22,347
554,51	23,408
554,70	20,040
554,90	23,747
555,09	24,259
555,29	23,492
555,49	23,143
555,68	25,583
555,88	21,122
556,07	22,097
556,27	23,409
556,46	22,372
556,66	20,689
556,86	27,415
557,05	22,342
557,25	22,175
557,44	21,394
557,64	21,171
557,83	22,931
558,03	20,449
558,22	21,361
558,42	23,728
558,62	23,828
558,81	23,449
559,01	21,975
559,20	24,390
559,40	21,072
559,59	21,349
559,79	21,133
559,98	25,189
560,18	23,152
560,37	23,202
560,57	23,249
560,76	23,051
560,96	19,885
561,16	22,897
561,35	23,754
561,55	23,762
561,74	22,492
561,94	24,666
562,13	22,055
562,33	22,772
562,52	22,579
562,72	22,377
562,91	21,338
563,11	22,825
563,30	25,358
563,50	21,201
563,69	22,538
563,89	20,842
564,08	23,599
564,28	21,693
564,47	23,716
564,67	22,937
564,86	21,399
565,06	21,324
565,25	23,796
565,45	22,803
565,64	25,731
565,84	22,303
566,03	20,598
566,23	24,417
566,42	26,045
566,62	23,048
566,81	23,234
567,01	22,506
567,20	24,421
567,40	20,784
567,59	21,101
567,79	25,482
567,98	23,475
568,18	23,833
568,37	22,414
568,57	22,446
568,76	23,198
568,96	24,491
569,15	22,605
569,35	24,158
569,54	25,912
569,73	24,026
569,93	22,949
570,12	23,853
570,32	22,855
570,51	24,257
570,71	24,663
570,90	26,021
571,10	24,364
571,29	24,608
571,49	22,843
571,68	24,215
571,87	25,112
572,07	23,857
572,26	21,475
572,46	24,112
572,65	21,871
572,85	20,777
573,04	24,679
573,24	23,500
573,43	26,048
573,62	25,194
573,82	24,782
574,01	23,661
574,21	23,539
574,40	22,083
574,60	21,788
574,79	25,791
574,98	23,096
575,18	25,163
575,37	23,322
575,57	24,312
575,76	24,320
575,96	23,559
576,15	24,858
576,34	23,381
576,54	24,918
576,73	25,292
576,93	23,174
577,12	24,292
577,31	25,601
577,51	22,429
577,70	23,485
577,90	25,243
578,09	23,143
578,28	23,714
578,48	24,510
578,67	26,248
578,87	27,106
579,06	23,325
579,25	24,785
579,45	25,897
579,64	23,925
579,84	24,666
580,03	21,920
580,22	26,787
580,42	24,599
580,61	26,144
580,81	24,756
581,00	25,641
581,19	26,710
581,39	24,313
581,58	25,128
581,77	25,858
581,97	26,282
582,16	25,145
582,35	23,634
582,55	25,571
582,74	27,481
582,94	25,507
583,13	23,502
583,32	27,076
583,52	26,001
583,71	25,854
583,90	25,754
584,10	25,904
584,29	27,058
584,48	25,759
584,68	26,007
584,87	26,250
585,06	26,586
585,26	25,220
585,45	25,813
585,65	27,741
585,84	26,949
586,03	26,477
586,23	24,469
586,42	28,385
586,61	28,552
586,81	27,985
587,00	26,790
587,19	25,919
587,39	27,991
587,58	27,298
587,77	27,889
587,97	27,271
588,16	27,695
588,35	28,112
588,54	27,590
588,74	27,062
588,93	29,726
589,12	29,095
589,32	27,920
589,51	29,097
589,70	27,085
589,90	28,730
590,09	29,147
590,28	32,682
590,48	27,570
590,67	28,246
590,86	28,822
591,06	29,218
591,25	31,359
591,44	30,616
591,63	29,508
591,83	30,106
592,02	29,888
592,21	29,845
592,41	28,436
592,60	32,113
592,79	32,234
592,98	31,304
593,18	31,871
593,37	29,722
593,56	30,879
593,76	31,006
593,95	28,698
594,14	29,987
594,33	33,209
594,53	30,480
594,72	30,005
594,91	34,283
595,10	31,759
595,30	32,618
595,49	31,131
595,68	34,403
595,88	34,560
596,07	33,287
596,26	33,232
596,45	33,090
596,65	29,151
596,84	32,984
597,03	32,528
597,22	34,213
597,42	35,171
597,61	34,812
597,80	32,725
597,99	32,231
598,19	34,741
598,38	34,165
598,57	35,337
598,76	36,101
598,95	35,982
599,15	34,743
599,34	33,895
599,53	35,043
599,72	34,388
599,92	35,573
600,11	36,100
600,30	35,654
600,49	38,278
600,69	34,903
600,88	36,908
601,07	36,928
601,26	34,562
601,45	36,510
601,65	35,862
601,84	35,945
602,03	35,496
602,22	36,100
602,42	36,433
602,61	36,049
602,80	37,135
602,99	37,035
603,18	34,812
603,38	37,688
603,57	36,327
603,76	36,969
603,95	37,129
604,14	38,996
604,34	38,282
604,53	36,481
604,72	39,095
604,91	37,374
605,10	36,932
605,29	39,138
605,49	36,307
605,68	38,317
605,87	38,172
606,06	37,156
606,25	35,836
606,45	38,135
606,64	37,380
606,83	39,045
607,02	36,212
607,21	37,263
607,40	38,034
607,60	34,687
607,79	36,694
607,98	34,546
608,17	35,620
608,36	33,792
608,55	35,621
608,75	34,748
608,94	34,837
609,13	31,899
609,32	32,073
609,51	31,726
609,70	31,206
609,89	31,647
610,09	29,881
610,28	32,020
610,47	32,189
610,66	30,040
610,85	30,792
611,04	31,764
611,23	31,265
611,43	31,200
611,62	29,861
611,81	31,559
612,00	31,704
612,19	30,169
612,38	32,282
612,57	31,532
612,77	32,131
612,96	33,648
613,15	34,627
613,34	35,928
613,53	36,400
613,72	35,932
613,91	36,671
614,10	36,415
614,29	37,957
614,49	36,027
614,68	36,978
614,87	37,478
615,06	39,959
615,25	36,404
615,44	39,910
615,63	38,493
615,82	38,184
616,01	37,392
616,21	37,956
616,40	39,770
616,59	40,545
616,78	39,728
616,97	38,131
617,16	38,802
617,35	41,500
617,54	39,190
617,73	40,450
617,92	38,657
618,11	42,180
618,31	37,937
618,50	40,053
618,69	40,120
618,88	38,412
619,07	39,187
619,26	37,525
619,45	37,796
619,64	38,793
619,83	38,159
620,02	37,014
620,21	40,501
620,40	38,897
620,59	39,882
620,78	39,643
620,97	39,940
621,17	39,994
621,36	38,582
621,55	39,355
621,74	40,173
621,93	39,521
622,12	39,739
622,31	39,664
622,50	40,005
622,69	41,831
622,88	39,525
623,07	40,663
623,26	41,220
623,45	42,538
623,64	40,332
623,83	37,995
624,02	41,852
624,21	42,932
624,40	40,206
624,59	40,714
624,78	42,651
624,97	42,217
625,16	38,954
625,35	38,625
625,54	40,385
625,73	38,099
625,92	42,794
626,12	41,528
626,31	41,667
626,50	42,510
626,69	41,059
626,88	39,043
627,07	40,066
627,26	42,907
627,45	39,525
627,64	41,194
627,83	41,583
628,02	40,199
628,21	40,625
628,40	40,641
628,59	42,840
628,78	39,073
628,97	39,184
629,16	40,708
629,35	40,560
629,54	42,969
629,73	38,932
629,92	37,474
630,10	41,207
630,29	40,703
630,48	40,479
630,67	40,312
630,86	40,794
631,05	41,364
631,24	42,086
631,43	38,449
631,62	41,980
631,81	39,552
632,00	40,490
632,19	38,804
632,38	41,249
632,57	42,948
632,76	41,734
632,95	43,028
633,14	44,458
633,33	42,419
633,52	41,374
633,71	42,197
633,90	40,542
634,09	40,750
634,28	42,629
634,47	41,295
634,66	41,737
634,85	39,893
635,04	42,167
635,22	42,633
635,41	41,883
635,60	46,193
635,79	43,761
635,98	40,515
636,17	42,212
636,36	43,171
636,55	43,928
636,74	40,821
636,93	43,084
637,12	41,874
637,31	40,949
637,50	40,780
637,69	43,079
637,87	43,954
638,06	42,203
638,25	42,105
638,44	44,266
638,63	39,763
638,82	42,247
639,01	42,356
639,20	41,620
639,39	44,199
639,58	41,918
639,77	43,308
639,95	42,098
640,14	43,876
640,33	41,911
640,52	41,348
640,71	45,205
640,90	41,947
641,09	44,810
641,28	41,888
641,47	44,167
641,66	40,595
641,84	41,586
642,03	41,092
642,22	44,289
642,41	44,480
642,60	41,771
642,79	43,144
642,98	42,030
643,17	41,591
643,35	42,455
643,54	43,373
643,73	43,435
643,92	42,384
644,11	42,446
644,30	43,145
644,49	44,047
644,67	41,603
644,86	40,191
645,05	43,994
645,24	43,241
645,43	45,285
645,62	42,024
645,81	44,102
645,99	44,991
646,18	44,745
646,37	43,095
646,56	44,145
646,75	45,100
646,94	44,026
647,13	42,984
647,31	41,777
647,50	44,196
647,69	44,053
647,88	44,791
648,07	41,891
648,26	45,566
648,44	42,187
648,63	43,619
648,82	41,475
649,01	44,662
649,20	42,086
649,38	42,819
649,57	42,519
649,76	41,241
649,95	42,862
650,14	40,508
650,33	41,967
650,51	42,829
650,70	44,338
650,89	43,053
651,08	43,878
651,27	43,682
651,45	42,027
651,64	41,399
651,83	43,790
652,02	43,161
652,21	44,406
652,39	43,855
652,58	46,438
652,77	43,115
652,96	44,840
653,15	44,505
653,33	44,210
653,52	45,151
653,71	46,673
653,90	45,805
654,09	45,607
654,27	46,156
654,46	47,779
654,65	45,519
654,84	46,244
655,02	46,773
655,21	46,486
655,40	48,022
655,59	45,516
655,77	45,264
655,96	46,440
656,15	46,029
656,34	46,749
656,53	45,136
656,71	45,997
656,90	46,608
657,09	46,542
657,28	46,460
657,46	44,539
657,65	43,794
657,84	44,121
658,03	42,927
658,21	45,530
658,40	43,324
658,59	44,043
658,78	44,523
658,96	42,976
659,15	43,938
659,34	43,599
659,52	43,850
659,71	43,933
659,90	41,452
660,09	43,304
660,27	42,404
660,46	44,656
660,65	42,838
660,84	43,431
661,02	42,571
661,21	42,208
661,40	42,072
661,58	42,358
661,77	44,284
661,96	40,417
662,15	43,220
662,33	41,998
662,52	43,215
662,71	43,005
662,89	42,480
663,08	41,909
663,27	42,237
663,45	43,848
663,64	42,526
663,83	42,241
664,02	41,866
664,20	41,827
664,39	42,518
664,58	44,190
664,76	42,837
664,95	43,583
665,14	42,039
665,32	40,906
665,51	42,441
665,70	40,729
665,88	43,775
666,07	43,082
666,26	43,571
666,44	44,817
666,63	41,598
666,82	41,137
667,00	43,228
667,19	40,878
667,38	42,238
667,56	42,270
667,75	41,260
667,94	42,150
668,12	41,386
668,31	41,605
668,50	42,007
668,68	41,885
668,87	42,427
669,06	42,448
669,24	42,503
669,43	41,501
669,62	41,727
669,80	40,102
669,99	42,277
670,18	43,224
670,36	42,717
670,55	42,508
670,74	42,158
670,92	40,591
671,11	41,651
671,29	41,092
671,48	42,090
671,67	41,800
671,85	41,278
672,04	40,719
672,23	41,410
672,41	41,601
672,60	41,563
672,78	42,506
672,97	41,234
673,16	42,398
673,34	40,605
673,53	40,027
673,71	41,467
673,90	43,924
674,09	41,009
674,27	40,476
674,46	42,660
674,64	42,852
674,83	41,203
675,02	40,570
675,20	42,270
675,39	40,643
675,57	43,243
675,76	39,914
675,95	43,979
676,13	41,466
676,32	42,411
676,50	42,227
676,69	39,602
676,88	41,945
677,06	41,247
677,25	42,341
677,43	44,095
677,62	43,666
677,80	42,050
677,99	41,218
678,18	42,741
678,36	43,065
678,55	40,674
678,73	40,936
678,92	42,373
679,10	42,960
679,29	40,511
679,48	38,667
679,66	42,110
679,85	41,399
680,03	42,230
680,22	42,255
680,40	41,549
680,59	40,240
680,77	41,485
680,96	42,519
681,15	40,982
681,33	43,495
681,52	41,221
681,70	41,513
681,89	44,454
682,07	42,696
682,26	42,054
682,44	42,036
682,63	42,650
682,81	41,145
683,00	42,056
683,18	40,576
683,37	43,436
683,55	41,476
683,74	41,748
683,92	47,708
684,11	43,417
684,29	43,562
684,48	40,509
684,67	42,109
684,85	44,040
685,04	42,303
685,22	43,489
685,41	42,606
685,59	43,751
685,78	42,890
685,96	42,096
686,15	42,024
686,33	40,921
686,52	41,951
686,70	41,127
686,89	43,766
687,07	41,909
687,26	43,066
687,44	42,879
687,62	41,245
687,81	43,993
687,99	43,136
688,18	41,379
688,36	41,603
688,55	43,023
688,73	43,134
688,92	40,859
689,10	42,145
689,29	42,429
689,47	44,254
689,66	42,465
689,84	41,687
690,03	43,844
690,21	43,847
690,40	42,094
690,58	41,233
690,76	41,654
690,95	44,154
691,13	43,391
691,32	42,873
691,50	44,385
691,69	44,193
691,87	41,602
692,06	41,975
692,24	41,116
692,43	44,005
692,61	40,791
692,79	41,427
692,98	39,835
693,16	46,918
693,35	42,669
693,53	43,114
693,72	45,491
693,90	44,762
694,08	42,396
694,27	42,963
694,45	46,312
694,64	45,343
694,82	43,188
695,01	41,041
695,19	43,485
695,37	41,655
695,56	42,575
695,74	43,699
695,93	42,414
696,11	43,874
696,29	43,937
696,48	44,866
696,66	44,384
696,85	44,153
697,03	42,354
697,21	44,110
697,40	43,159
697,58	43,390
697,77	41,595
697,95	43,628
698,13	45,233
698,32	45,251
698,50	43,834
698,69	43,941
698,87	44,442
699,05	44,265
699,24	41,317
699,42	42,909
699,60	41,233
699,79	43,711
699,97	42,797
700,16	41,117
700,34	45,089
700,52	44,017
700,71	43,412
700,89	42,180
701,07	44,648
701,26	43,347
701,44	42,096
701,63	42,910
701,81	42,518
701,99	43,784
702,18	41,868
702,36	42,424
702,54	43,078
702,73	43,393
702,91	42,981
703,09	41,217
703,28	43,659
703,46	42,610
703,64	42,821
703,83	42,622
704,01	43,769
704,19	41,938
704,38	42,352
704,56	41,008
704,74	43,674
704,93	44,873
705,11	42,420
705,29	42,687
705,48	44,142
705,66	43,427
705,84	41,459
706,03	39,793
706,21	42,925
706,39	41,758
706,58	43,158
706,76	42,197
706,94	42,947
707,12	43,724
707,31	43,318
707,49	41,400
707,67	42,733
707,86	42,958
708,04	43,180
708,22	41,535
708,41	42,288
708,59	43,058
708,77	42,099
708,95	42,868
709,14	44,747
709,32	42,548
709,50	42,495
709,69	40,888
709,87	42,581
710,05	45,089
710,23	42,257
710,42	41,988
710,60	43,411
710,78	43,605
710,97	43,758
711,15	42,896
711,33	45,878
711,51	42,061
711,70	42,171
711,88	42,460
712,06	44,682
712,24	43,300
712,43	42,141
712,61	42,769
712,79	43,624
712,97	43,051
713,16	44,160
713,34	43,523
713,52	44,861
713,70	42,998
713,89	43,157
714,07	42,931
714,25	43,279
714,43	42,971
714,62	42,329
714,80	43,111
714,98	42,425
715,16	42,161
715,35	41,531
715,53	41,323
715,71	44,645
715,89	45,670
716,07	42,477
716,26	46,185
716,44	44,657
716,62	43,631
716,80	44,485
716,99	43,899
717,17	45,004
717,35	42,132
717,53	43,635
717,71	42,553
717,90	43,858
718,08	44,329
718,26	42,094
718,44	44,843
718,62	45,160
718,81	43,624
718,99	40,913
719,17	42,630
719,35	41,365
719,53	42,841
719,72	41,283
719,90	44,620
720,08	40,997
720,26	44,941
720,44	40,756
720,62	41,848
720,81	44,357
720,99	44,582
721,17	43,540
721,35	44,181
721,53	44,416
721,72	45,123
721,90	42,555
722,08	43,844
722,26	44,686
722,44	43,167
722,62	42,005
722,81	43,175
722,99	43,644
723,17	42,947
723,35	43,742
723,53	43,196
723,71	44,169
723,89	44,106
724,08	43,219
724,26	41,373
724,44	43,712
724,62	44,646
724,80	42,856
724,98	44,063
725,16	44,888
725,35	42,619
725,53	42,532
725,71	42,402
725,89	43,817
726,07	45,263
726,25	46,782
726,43	41,398
726,61	43,854
726,80	42,534
726,98	41,983
727,16	43,310
727,34	41,830
727,52	42,372
727,70	42,752
727,88	42,678
728,06	40,794
728,25	41,216
728,43	42,414
728,61	43,638
728,79	42,474
728,97	43,325
729,15	43,850
729,33	43,676
729,51	44,937
729,69	44,010
729,87	42,736
730,06	42,797
730,24	43,388
730,42	46,545
730,60	43,036
730,78	42,693
730,96	43,204
731,14	42,965
731,32	42,954
731,50	42,158
731,68	43,121
731,86	45,228
732,04	43,988
732,22	42,879
732,41	45,683
732,59	46,285
732,77	45,453
732,95	43,973
733,13	44,696
733,31	43,972
733,49	42,274
733,67	44,359
733,85	44,166
734,03	44,758
734,21	41,837
734,39	43,557
734,57	45,104
734,75	45,322
734,93	45,179
735,11	43,246
735,29	42,849
735,47	46,469
735,65	43,182
735,84	43,722
736,02	42,494
736,20	46,361
736,38	43,737
736,56	44,177
736,74	42,426
736,92	43,280
737,10	43,517
737,28	45,031
737,46	44,047
737,64	43,507
737,82	41,944
738,00	44,679
738,18	45,434
738,36	43,520
738,54	43,235
738,72	40,546
738,90	43,229
739,08	43,033
739,26	40,757
739,44	44,616
739,62	44,246
739,80	46,085
739,98	44,217
740,16	42,512
740,34	44,354
740,52	44,619
740,70	41,974
740,88	42,588
741,06	43,321
741,24	43,230
741,42	42,343
741,60	41,640
741,78	43,991
741,96	43,081
742,14	41,719
742,32	41,262
742,50	44,684
742,68	43,280
742,86	43,605
743,04	42,247
743,21	43,672
743,39	44,693
743,57	44,473
743,75	44,141
743,93	41,571
744,11	41,310
744,29	40,964
744,47	42,240
744,65	43,902
744,83	43,613
745,01	42,832
745,19	44,411
745,37	43,966
745,55	43,496
745,73	45,174
745,91	41,338
746,09	41,706
746,27	40,250
746,45	40,567
746,62	42,790
746,80	42,931
746,98	43,185
747,16	43,658
747,34	44,258
747,52	41,230
747,70	43,253
747,88	42,972
748,06	42,086
748,24	43,080
748,42	44,375
748,60	43,861
748,78	41,941
748,95	45,142
749,13	44,932
749,31	42,840
749,49	43,228
749,67	43,520
749,85	44,522
750,03	43,025
750,21	42,970
750,39	43,085
750,57	44,945
750,74	44,943
750,92	42,231
751,10	43,566
751,28	43,321
751,46	43,675
751,64	42,084
751,82	43,617
752,00	44,161
752,17	42,297
752,35	42,603
752,53	43,036
752,71	43,765
752,89	42,700
753,07	41,787
753,25	46,093
753,43	42,311
753,60	45,588
753,78	42,124
753,96	46,086
754,14	44,763
754,32	43,341
754,50	45,454
754,68	44,246
754,85	43,360
755,03	45,410
755,21	42,730
755,39	46,203
755,57	42,691
755,75	43,692
755,92	42,252
756,10	44,492
756,28	44,627
756,46	41,835
756,64	42,293
756,82	42,921
756,99	43,779
757,17	42,369
757,35	41,695
757,53	44,099
757,71	42,518
757,89	43,328
758,06	44,387
758,24	44,148
758,42	45,178
758,60	41,830
758,78	43,349
758,95	43,125
759,13	43,821
759,31	42,546
759,49	42,291
759,67	43,509
759,84	44,553
760,02	43,774
760,20	43,497
760,38	43,370
760,56	43,057
760,73	43,279
760,91	43,716
761,09	44,472
761,27	42,394
761,45	44,866
761,62	41,626
761,80	42,454
761,98	42,770
762,16	42,590
762,33	41,643
762,51	45,421
762,69	40,918
762,87	43,158
763,05	42,448
763,22	42,262
763,40	42,688
763,58	42,507
763,76	44,166
763,93	45,797
764,11	43,802
764,29	41,921
764,47	43,741
764,64	45,999
764,82	45,923
765,00	43,818
765,18	42,180
765,35	42,453
765,53	43,876
765,71	44,224
765,89	42,220
766,06	42,300
766,24	43,273
766,42	42,622
766,60	43,690
766,77	42,683
766,95	43,830
767,13	44,496
767,30	42,634
767,48	42,213
767,66	42,815
767,84	42,439
768,01	43,164
768,19	45,373
768,37	44,158
768,54	43,024
768,72	42,198
768,90	43,796
769,08	43,069
769,25	43,785
769,43	43,516
769,61	42,632
769,78	44,306
769,96	44,702
770,14	43,429
770,31	44,644
770,49	46,507
770,67	42,758
770,85	42,471
771,02	43,533
771,20	40,911
771,38	45,209
771,55	43,858
771,73	43,791
771,91	43,409
772,08	44,557
772,26	43,465
772,44	42,983
772,61	41,487
772,79	43,403
772,97	42,420
773,14	40,975
773,32	42,621
773,50	41,965
773,67	42,429
773,85	45,058
774,03	44,273
774,20	43,414
774,38	43,748
774,56	43,792
774,73	42,456
774,91	42,941
775,09	42,605
775,26	43,975
775,44	44,565
775,61	44,575
775,79	42,748
775,97	42,556
776,14	43,514
776,32	41,077
776,50	42,803
776,67	41,868
776,85	43,166
777,03	40,004
777,20	42,687
777,38	45,514
777,55	42,311
777,73	40,486
777,91	42,974
778,08	44,601
778,26	41,379
778,43	44,717
778,61	40,036
778,79	42,205
778,96	41,610
779,14	42,805
779,32	43,134
779,49	42,862
779,67	44,685
779,84	40,854
780,02	42,424
780,20	41,548
780,37	46,174
780,55	38,232
780,72	44,142
780,90	44,717
781,07	42,681
781,25	44,971
781,43	42,545
781,60	43,052
781,78	44,285
781,95	41,387
782,13	43,117
782,30	44,822
782,48	43,884
782,66	43,236
782,83	39,884
783,01	48,779
783,18	46,247
783,36	42,346
783,53	45,539
783,71	44,700
783,89	43,512
784,06	44,580
784,24	43,410
784,41	45,087
784,59	43,769
784,76	44,555
784,94	44,653
785,11	44,691
785,29	44,401
785,46	43,054
785,64	43,854
785,82	42,794
785,99	44,668
786,17	43,500
786,34	43,213
786,52	42,553
786,69	45,522
786,87	42,846
787,04	44,651
787,22	40,672
787,39	43,199
787,57	44,232
787,74	42,962
787,92	43,243
788,09	47,527
788,27	41,349
788,44	43,144
788,62	43,832
788,79	45,233
788,97	46,221
789,14	41,113
789,32	44,058
789,49	44,126
789,67	45,083
789,84	45,895
790,02	45,417
790,19	43,950
790,37	45,628
790,54	44,379
790,72	48,044
790,89	45,408
791,07	44,229
791,24	41,692
791,42	44,819
791,59	47,448
791,77	43,431
791,94	44,089
792,12	42,553
792,29	47,819
792,47	46,364
792,64	46,635
792,81	45,178
792,99	45,544
793,16	43,736
793,34	47,554
793,51	44,436
793,69	46,823
793,86	43,905
794,04	46,121
794,21	47,745
794,39	42,678
794,56	46,687
794,73	45,550
794,91	47,653
795,08	47,202
795,26	46,006
795,43	44,805
795,61	46,520
795,78	46,118
795,95	44,978
796,13	45,581
796,30	47,209
796,48	41,695
796,65	41,710
796,83	46,648
797,00	47,464
797,17	46,531
797,35	47,756
797,52	43,217
797,70	48,787
797,87	45,569
798,04	42,601
798,22	43,817
798,39	44,221
798,57	45,398
798,74	44,945
798,91	43,554
799,09	41,230
799,26	45,180
799,44	46,409
799,61	43,875
799,78	46,304
799,96	47,198
800,13	44,108
800,31	44,154
800,48	47,145
800,65	46,485
800,83	41,322
801,00	41,866
801,17	43,364
801,35	47,348
801,52	46,086
801,70	44,415
801,87	43,236
802,04	44,485
802,22	45,426
802,39	43,759
802,56	49,157
802,74	47,703
802,91	43,659
803,08	42,372
803,26	45,709
803,43	44,637
803,61	43,906
803,78	40,662
803,95	46,939
804,13	46,805
804,30	43,162
804,47	47,859
804,65	46,432
804,82	44,452
804,99	44,946
805,17	44,172
805,34	52,768
805,51	49,028
805,69	44,845
805,86	44,622
806,03	48,554
806,21	48,097
806,38	44,794
806,55	51,351
806,72	48,103
806,90	48,173
807,07	46,836
807,24	46,264
807,42	45,483
807,59	44,719
807,76	41,199
807,94	43,417
808,11	47,372
808,28	50,587
808,45	47,958
808,63	47,136
808,80	45,954
808,97	46,211
809,15	43,728
809,32	47,766
809,49	45,300
809,67	41,734
809,84	48,747
810,01	50,029
810,18	52,874
810,36	47,922
810,53	47,971
810,70	49,690
810,87	47,588
811,05	47,198
811,22	49,516
811,39	45,853
811,57	48,492
811,74	46,202
811,91	46,045
812,08	48,193
812,26	46,776
812,43	41,271
812,60	47,505
812,77	45,044
812,95	46,756
813,12	48,714
813,29	44,797
813,46	49,264
813,64	50,706
813,81	46,837
813,98	49,992
814,15	47,743
814,32	47,377
814,50	49,915
814,67	46,016
814,84	50,243
815,01	46,433
815,19	41,177
815,36	43,896
815,53	51,070
815,70	42,759
815,87	48,510
816,05	39,926
816,22	47,646
816,39	53,505
816,56	53,036
816,74	46,082
816,91	44,588
817,08	47,390
817,25	54,942
817,42	47,992
817,60	48,066
817,77	47,371
817,94	49,263
818,11	44,971
818,28	48,364
818,45	48,406
818,63	51,087
818,80	47,463
818,97	50,495
819,14	53,111
819,31	48,980
819,49	47,556
819,66	45,295
819,83	49,421
820,00	51,855
820,17	47,221
820,34	49,547
820,52	53,831
820,69	50,798
820,86	46,141
821,03	45,927
821,20	51,417
821,37	53,844
821,55	44,224
821,72	50,080
821,89	46,763
822,06	51,690
822,23	41,952
822,40	42,720
822,57	48,677
822,75	53,312
822,92	39,184
823,09	50,327
823,26	52,316
823,43	54,524
823,60	43,249
823,77	47,066
823,94	49,889
824,12	56,997
824,29	46,096
824,46	46,005
824,63	56,019
824,80	51,287
824,97	51,409
825,14	47,052
825,31	50,137
825,49	52,713
825,66	46,831
825,83	47,132
826,00	50,957
826,17	54,273
826,34	48,061
826,51	41,381
826,68	49,618
826,85	48,037
827,02	48,375
827,20	45,911
827,37	48,511
827,54	49,352
827,71	44,962
827,88	51,499
828,05	52,145
828,22	52,877
828,39	48,998
828,56	51,730
828,73	52,559
828,90	53,278
829,07	54,104
829,25	53,398
829,42	54,036
829,59	48,720
829,76	49,227
829,93	47,439
830,10	47,631
830,27	47,240
830,44	50,880
830,61	41,673
830,78	63,236
830,95	54,657
831,12	50,072
831,29	45,311
831,46	46,288
831,63	45,882
831,80	51,738
831,97	48,915
832,14	54,790
832,31	61,215
832,48	46,764
832,65	53,192
832,83	47,526
833,00	54,782
833,17	47,250
833,34	49,017
833,51	47,830
833,68	50,383
833,85	53,875
834,02	48,056
834,19	44,223
834,36	56,989
834,53	46,020
834,70	44,634
834,87	62,636
835,04	54,539
835,21	50,292
835,38	46,262
835,55	54,360
835,72	59,765
835,89	45,849
836,06	48,110
836,23	60,673
836,40	48,472
836,57	47,212
836,74	48,487
836,91	51,026
837,08	58,402
837,25	55,183
837,42	41,898
837,59	52,204
837,76	52,150
837,93	49,004
838,09	48,738
838,26	58,947
838,43	60,028
838,60	52,144
838,77	50,581
838,94	55,305
839,11	51,138
839,28	43,955
839,45	50,415
839,62	48,988
839,79	50,301
839,96	57,475
840,13	52,528
840,30	45,913
840,47	44,520
840,64	49,021
840,81	58,694
840,98	49,447
841,15	57,514
841,32	41,884
841,48	63,410
841,65	58,565
841,82	51,281
841,99	54,572
842,16	44,851
842,33	55,955
842,50	50,380
842,67	56,996
842,84	48,622
843,01	50,097
843,18	44,962
843,35	53,235
843,52	48,255
843,68	62,596
843,85	58,312
844,02	45,546
844,19	54,257
844,36	63,249
844,53	50,750
844,70	44,188
844,87	67,585
845,04	54,536
845,21	47,954
845,37	53,628
845,54	55,062
845,71	51,410
845,88	59,758
846,05	52,026
846,22	44,544
846,39	55,647
846,56	59,866
846,72	36,717
846,89	47,357
847,06	67,746
847,23	68,728
847,40	44,180
847,57	46,341
847,74	57,482
847,90	64,656
848,07	56,895
848,24	52,599
848,41	48,207
848,58	71,793
848,75	51,187
848,92	46,737
849,08	47,158
849,25	61,247
849,42	53,380
849,59	58,738
849,76	44,808
849,93	59,433
850,09	58,799
850,26	48,967
850,43	62,518
850,60	41,707
850,77	45,023
850,94	53,913
851,10	52,945
851,27	43,110
851,44	49,126
851,61	48,020
851,78	66,251
851,95	60,452
852,11	45,197
852,28	47,784
852,45	59,524
852,62	68,497
852,79	54,218
852,95	50,656
853,12	52,921
853,29	55,755
853,46	49,093
853,63	61,336
853,79	52,515
853,96	59,632
854,13	61,986
854,30	45,516
854,46	69,282
854,63	58,835
854,80	51,964
854,97	43,790
855,14	68,614
855,30	71,033
855,47	48,650
855,64	43,615
855,81	60,239
855,97	55,314
856,14	62,087
856,31	45,672
856,48	70,342
856,65	77,321
856,81	53,823
856,98	49,803
857,15	50,039
857,32	65,148
857,48	54,935
857,65	70,958
857,82	57,776
857,99	57,398
858,15	51,901
858,32	59,801
858,49	59,763
858,65	78,464
858,82	68,317
858,99	49,076
859,16	78,988
859,32	57,876
859,49	54,448
859,66	49,057
859,83	63,739
859,99	59,259
860,16	57,216
860,33	49,565
860,49	58,150
860,66	67,196
860,83	54,576
861,00	49,673
861,16	58,244
861,33	61,300
861,50	45,603
861,66	59,063
861,83	75,868
862,00	62,246
862,16	58,075
862,33	53,230
862,50	74,334
862,67	59,792
862,83	42,870
863,00	59,037
863,17	69,745
863,33	64,562
863,50	34,263
863,67	51,143
863,83	58,545
864,00	69,215
864,17	46,624
864,33	56,359
864,50	62,920
864,67	59,940
864,83	50,144
865,00	55,713
865,17	51,043
865,33	66,429
865,50	63,382
865,67	56,488
865,83	69,807
866,00	84,785
866,17	59,966
866,33	67,338
866,50	92,471
866,66	72,328
866,83	61,192
867,00	56,832
867,16	85,064
867,33	95,407
867,50	51,325
867,66	47,436
867,83	84,354
868,00	70,683
868,16	63,532
868,33	57,918
868,49	75,129
868,66	62,488
868,83	72,104
868,99	56,067
869,16	87,614
869,32	74,248
869,49	65,685
869,66	71,878
869,82	84,485
869,99	69,773
870,15	38,651
870,32	83,849
870,49	76,235
870,65	108,736
870,82	62,020
870,98	75,915
871,15	125,677
871,32	75,720
871,48	47,463
871,65	51,429
871,81	53,200
871,98	25,994
872,15	54,084
872,31	49,290
872,48	120,452
872,64	62,156
872,81	33,282
872,97	41,301
873,14	88,816
873,31	84,918
873,47	75,658
873,64	51,980
873,80	112,537
873,97	124,741
874,13	31,786
874,30	73,323
874,46	106,351
874,63	53,837
874,80	51,326
874,96	54,326
875,13	138,135
875,29	48,438
875,46	101,808
875,62	49,933
875,79	112,464
875,95	87,686
876,12	51,696
876,28	24,336
876,45	101,148
876,61	40,850
876,78	59,475
876,94	30,613
877,11	51,227
877,27	96,037
877,44	132,696
877,60	50,859
877,77	122,783
877,94	124,761
878,10	73,880
878,27	96,929
878,43	113,972
878,60	66,713
878,76	64,389
878,93	63,410
879,09	94,768
879,26	117,732
879,42	72,550
879,58	48,941
879,75	121,627
879,91	122,348
880,08	22,872
880,24	46,047
880,41	68,039
880,57	123,060
880,74	33,123
880,90	45,273
881,07	81,862
881,23	119,163
881,40	69,364
881,56	74,662
881,73	110,954
881,89	123,029
882,06	33,190
882,22	186,545
882,38	157,171
882,55	160,057
882,71	88,439
882,88	60,005
883,04	140,303
883,21	171,692
883,37	66,862
883,54	96,210
883,70	214,546
883,86	77,610
884,03	72,330
884,19	51,152
884,36	3,416
884,52	241,239
884,69	105,908
884,85	18,371
885,01	78,313
885,18	132,899
885,34	144,466
885,51	-11,394
885,67	91,611
>>>>> Data<<<<< Espectral Procesado Extremo
