Fichero De Datos De SpectraSuite
++++++++++++++++++++++++++++++++++++
Fecha: Wed Apr 22 11:25:33 CEST 2009
Usuario: evoflor
Presente Oscuro Del Espectro: Sí
La Referencia de Presente Del Espectro De: Sí
Muestreados de los componentes de Número de espectros: 1
Espectrómetros: USB4F02353
Tiempo de integración (usec): 500000 (USB4F02353)
Promedio de Espectros Hechos un: 5 (USB4F02353)
El Alisar Del Furgón: 0 (USB4F02353)
Párrafo de de Corregir del la del del de Eléctrica del obscuridad: Sí (USB4F02353)
Estrobo/Lámpara Permitido: No (USB4F02353)
Correct for Detector Non-linearity: No (USB4F02353)
Párrafo de de Corregir del la del del de Externa del luz: No (USB4F02353)
Procesado del espectro de Número de pixeles en: 3648
>>>>> Comienza Data<<<<< Espectral Procesado Del EL
177,79	252,402
178,00	252,402
178,22	252,402
178,44	1337,637
178,66	-179,642
178,88	85,749
179,09	288,191
179,31	278,217
179,53	567,724
179,75	151,130
179,96	719,612
180,18	-301,154
180,40	360,430
180,62	455,371
180,83	-201,756
181,05	-1446,037
181,27	-134775,000
181,49	-165,815
181,70	324,519
181,92	670,431
182,14	750,226
182,36	132,935
182,58	1433,250
182,79	794,531
183,01	-26,140
183,23	153,227
183,45	-49,154
183,66	-34,845
183,88	649,853
184,10	-2646,818
184,32	110,829
184,53	212,970
184,75	-130,009
184,97	27,376
185,18	-35,103
185,40	-669,591
185,62	30,995
185,84	97,762
186,05	36,844
186,27	-143,989
186,49	1618,269
186,71	-6,081
186,92	102,025
187,14	-253,854
187,36	192,829
187,58	111,417
187,79	53,685
188,01	300,116
188,23	-260,156
188,45	71,262
188,66	244,085
188,88	-2385,000
189,10	-1581,750
189,31	49,531
189,53	135,903
189,75	271,534
189,97	359,135
190,18	138,090
190,40	549,265
190,62	-85,579
190,83	-302,481
191,05	66,892
191,27	225,643
191,49	168,750
191,70	-288,822
191,92	-486,229
192,14	-56,550
192,35	350,332
192,57	4287,857
192,79	-150,803
193,01	227,781
193,22	130,881
193,44	-50,299
193,66	81,474
193,87	13,009
194,09	-3,672
194,31	45,533
194,53	407,517
194,74	91,089
194,96	113,651
195,18	95,361
195,39	-300,989
195,61	-93,922
195,83	29,837
196,04	214,963
196,26	-206,910
196,48	17,113
196,70	359,195
196,91	84,481
197,13	190,823
197,35	-9,486
197,56	626,238
197,78	1529,664
198,00	269,056
198,21	470,752
198,43	-1306,831
198,65	124,250
198,86	588,399
199,08	-24,344
199,30	250,962
199,51	-456,596
199,73	187,126
199,95	340,285
200,16	639,519
200,38	237,857
200,60	112,660
200,81	375,321
201,03	155,910
201,25	-1356,750
201,46	207,000
201,68	23,539
201,90	3553,977
202,11	-387,309
202,33	107,855
202,55	-351,563
202,76	5,406
202,98	-29,007
203,20	-20,553
203,41	-410,921
203,63	64,876
203,85	-70875,000
204,06	204,118
204,28	-60,181
204,50	105,146
204,71	281,051
204,93	-117,000
205,15	311,069
205,36	-68,403
205,58	155,038
205,80	-157,379
206,01	66,278
206,23	175,956
206,45	221,548
206,66	156,981
206,88	54,832
207,10	85,398
207,31	238,113
207,53	81,643
207,75	41,717
207,96	925,187
208,18	-248,422
208,39	103,985
208,61	3310,714
208,83	-285,930
209,04	267,398
209,26	92,281
209,48	90,805
209,69	249,315
209,91	479,645
210,13	73,888
210,34	151,998
210,56	188,430
210,77	-1082,480
210,99	91,832
211,21	5863,235
211,42	-6,241
211,64	-59,931
211,86	180,810
212,07	268,895
212,29	253,745
212,50	130,691
212,72	127,212
212,94	131,414
213,15	244,233
213,37	161,849
213,58	-99,279
213,80	40,179
214,02	10839,706
214,23	370,757
214,45	179,262
214,67	847,866
214,88	-434,144
215,10	-234,111
215,31	-124,290
215,53	-102,784
215,75	203,087
215,96	1580,590
216,18	-446,831
216,39	139,882
216,61	459,334
216,83	288,281
217,04	968,258
217,26	28,669
217,47	111,420
217,69	237,013
217,91	-34,214
218,12	-70875,000
218,34	79,214
218,55	207,095
218,77	117,646
218,99	114,304
219,20	-86,330
219,42	271,303
219,63	4,318
219,85	-54,612
220,06	-215,481
220,28	177,074
220,50	20,196
220,71	52,972
220,93	2746,698
221,14	-1518,750
221,36	127,772
221,58	80,591
221,79	101,877
222,01	323,922
222,22	99,178
222,44	867,135
222,65	8,504
222,87	180,944
223,09	144,044
223,30	63,141
223,52	114,805
223,73	156,004
223,95	40,246
224,16	198,093
224,38	434,538
224,60	121,598
224,81	60,035
225,03	84,003
225,24	196,010
225,46	111,752
225,67	-1,575
225,89	9,130
226,10	568,599
226,32	1063,800
226,54	40,290
226,75	19,352
226,97	101,824
227,18	113,614
227,40	54,352
227,61	33,584
227,83	12,580
228,04	102,137
228,26	128,798
228,47	49,617
228,69	116,173
228,91	96,301
229,12	99,265
229,34	42,926
229,55	81,721
229,77	18,233
229,98	-17,607
230,20	84,968
230,41	-7,892
230,63	74,122
230,84	23,082
231,06	-5,324
231,27	31,906
231,49	23,858
231,71	29,748
231,92	18,287
232,14	21,337
232,35	76,266
232,57	60,490
232,78	24,710
233,00	22,663
233,21	23,035
233,43	3,871
233,64	29,622
233,86	13,359
234,07	23,517
234,29	23,522
234,50	14,198
234,72	27,199
234,93	13,709
235,15	38,368
235,36	22,976
235,58	21,874
235,79	43,690
236,01	34,700
236,22	9,866
236,44	45,220
236,65	14,880
236,87	16,335
237,08	4,822
237,30	0,487
237,51	15,861
237,73	-10,282
237,94	11,183
238,16	19,708
238,37	6,887
238,59	9,242
238,80	5,581
239,02	12,216
239,23	9,703
239,45	-4,549
239,66	24,438
239,88	14,104
240,09	22,642
240,31	1,147
240,52	3,616
240,74	13,164
240,95	6,878
241,17	3,357
241,38	1,326
241,60	13,071
241,81	21,609
242,03	2,201
242,24	6,422
242,46	10,317
242,67	6,653
242,89	14,530
243,10	13,118
243,32	15,602
243,53	13,392
243,75	9,755
243,96	6,371
244,18	14,321
244,39	11,501
244,60	2,784
244,82	4,287
245,03	22,462
245,25	9,211
245,46	28,322
245,68	-0,222
245,89	17,274
246,11	12,006
246,32	6,810
246,54	1,894
246,75	7,044
246,97	9,811
247,18	18,135
247,39	4,343
247,61	7,051
247,82	11,505
248,04	0,663
248,25	6,920
248,47	9,606
248,68	14,202
248,90	2,065
249,11	6,904
249,33	14,975
249,54	11,036
249,75	5,918
249,97	1,686
250,18	12,554
250,40	12,569
250,61	-10,352
250,83	5,790
251,04	-0,014
251,25	11,110
251,47	3,056
251,68	10,167
251,90	9,793
252,11	7,660
252,33	7,021
252,54	5,183
252,76	1,095
252,97	3,083
253,18	-0,207
253,40	8,086
253,61	-3,480
253,83	6,996
254,04	11,055
254,25	6,547
254,47	6,094
254,68	9,875
254,90	5,315
255,11	8,708
255,33	5,605
255,54	4,963
255,75	6,298
255,97	4,861
256,18	1,927
256,40	8,503
256,61	8,402
256,82	-2,578
257,04	8,373
257,25	1,303
257,47	7,768
257,68	4,573
257,89	8,934
258,11	4,866
258,32	2,289
258,54	7,698
258,75	13,301
258,96	11,677
259,18	5,790
259,39	3,941
259,61	8,549
259,82	2,951
260,03	3,914
260,25	8,003
260,46	2,290
260,68	5,745
260,89	4,870
261,10	8,249
261,32	1,280
261,53	3,894
261,75	4,145
261,96	-0,343
262,17	10,515
262,39	10,040
262,60	0,681
262,81	2,897
263,03	11,341
263,24	7,183
263,46	2,737
263,67	4,696
263,88	3,218
264,10	5,679
264,31	4,055
264,52	3,132
264,74	7,513
264,95	1,812
265,17	6,549
265,38	-0,288
265,59	11,302
265,81	9,227
266,02	1,583
266,23	2,599
266,45	10,704
266,66	10,099
266,87	4,832
267,09	1,024
267,30	9,723
267,52	9,871
267,73	4,263
267,94	3,894
268,16	4,618
268,37	5,193
268,58	2,959
268,80	3,722
269,01	4,237
269,22	6,319
269,44	10,028
269,65	5,125
269,86	3,337
270,08	5,025
270,29	3,397
270,50	5,867
270,72	7,254
270,93	6,947
271,14	-0,995
271,36	3,366
271,57	6,967
271,78	3,574
272,00	8,999
272,21	6,534
272,42	5,656
272,64	8,346
272,85	6,883
273,06	1,730
273,28	11,369
273,49	5,804
273,70	8,763
273,92	5,510
274,13	8,487
274,34	5,183
274,56	7,025
274,77	4,406
274,98	5,802
275,20	3,948
275,41	5,459
275,62	4,267
275,84	7,149
276,05	11,623
276,26	2,988
276,47	1,335
276,69	9,138
276,90	6,406
277,11	3,296
277,33	4,397
277,54	7,579
277,75	6,278
277,97	3,765
278,18	3,574
278,39	8,249
278,61	5,264
278,82	3,094
279,03	7,567
279,24	3,936
279,46	2,718
279,67	9,408
279,88	3,491
280,10	8,185
280,31	2,680
280,52	5,207
280,73	1,673
280,95	6,359
281,16	7,997
281,37	6,027
281,59	9,979
281,80	10,675
282,01	1,733
282,22	4,915
282,44	2,714
282,65	7,020
282,86	8,375
283,08	4,313
283,29	5,171
283,50	5,519
283,71	7,083
283,93	6,433
284,14	8,143
284,35	4,625
284,56	6,711
284,78	3,693
284,99	4,881
285,20	8,872
285,42	5,189
285,63	2,119
285,84	-1,085
286,05	3,735
286,27	5,086
286,48	0,855
286,69	4,524
286,90	2,898
287,12	2,258
287,33	3,360
287,54	2,191
287,75	6,575
287,97	8,443
288,18	2,666
288,39	3,032
288,60	6,664
288,82	7,182
289,03	4,101
289,24	6,930
289,45	8,588
289,67	6,077
289,88	4,083
290,09	5,577
290,30	7,388
290,52	3,623
290,73	2,335
290,94	2,934
291,15	3,845
291,37	6,183
291,58	4,638
291,79	5,491
292,00	6,815
292,21	6,830
292,43	3,182
292,64	2,055
292,85	4,734
293,06	7,849
293,28	3,122
293,49	2,817
293,70	4,556
293,91	3,741
294,12	5,211
294,34	5,427
294,55	3,948
294,76	5,126
294,97	6,572
295,19	2,194
295,40	5,664
295,61	3,708
295,82	3,112
296,03	3,131
296,25	2,265
296,46	3,368
296,67	0,750
296,88	-1,322
297,09	5,940
297,31	4,464
297,52	3,705
297,73	2,252
297,94	6,741
298,15	3,796
298,37	4,590
298,58	5,402
298,79	7,690
299,00	3,069
299,21	1,885
299,43	0,383
299,64	9,302
299,85	4,549
300,06	3,390
300,27	2,190
300,49	8,094
300,70	5,378
300,91	5,141
301,12	1,386
301,33	6,685
301,54	4,437
301,76	5,486
301,97	3,386
302,18	5,317
302,39	6,594
302,60	4,805
302,82	3,800
303,03	8,595
303,24	6,306
303,45	4,153
303,66	3,611
303,87	2,960
304,09	6,954
304,30	4,222
304,51	2,179
304,72	2,204
304,93	5,673
305,14	4,284
305,36	1,897
305,57	2,057
305,78	8,175
305,99	3,049
306,20	3,384
306,41	1,971
306,62	1,785
306,84	3,718
307,05	3,469
307,26	3,640
307,47	8,072
307,68	5,145
307,89	3,877
308,11	5,581
308,32	2,385
308,53	5,821
308,74	1,077
308,95	3,429
309,16	6,979
309,37	4,349
309,59	1,680
309,80	4,967
310,01	4,722
310,22	4,813
310,43	4,306
310,64	3,432
310,85	5,639
311,06	3,110
311,28	3,161
311,49	4,593
311,70	7,949
311,91	2,014
312,12	3,856
312,33	4,774
312,54	6,747
312,75	2,818
312,97	2,913
313,18	7,402
313,39	1,528
313,60	4,959
313,81	4,841
314,02	3,799
314,23	3,251
314,44	1,271
314,65	1,372
314,87	2,852
315,08	1,705
315,29	5,739
315,50	5,383
315,71	4,911
315,92	7,879
316,13	4,834
316,34	3,785
316,55	4,515
316,77	0,498
316,98	2,901
317,19	1,734
317,40	4,473
317,61	7,219
317,82	3,037
318,03	0,408
318,24	4,102
318,45	8,225
318,66	2,910
318,87	3,219
319,09	8,156
319,30	6,121
319,51	6,384
319,72	5,789
319,93	7,425
320,14	4,943
320,35	5,351
320,56	3,072
320,77	2,237
320,98	9,712
321,19	5,012
321,40	5,505
321,62	6,940
321,83	3,696
322,04	4,916
322,25	3,832
322,46	7,863
322,67	4,018
322,88	4,370
323,09	1,081
323,30	7,524
323,51	6,632
323,72	7,077
323,93	2,519
324,14	2,554
324,35	1,143
324,56	4,468
324,77	3,224
324,99	6,166
325,20	-0,209
325,41	5,595
325,62	3,793
325,83	1,351
326,04	0,731
326,25	4,254
326,46	1,991
326,67	5,339
326,88	5,516
327,09	3,826
327,30	3,201
327,51	7,024
327,72	4,977
327,93	4,887
328,14	0,585
328,35	4,277
328,56	4,646
328,77	3,060
328,98	5,214
329,19	3,408
329,40	5,559
329,61	4,960
329,82	2,833
330,04	3,525
330,25	3,489
330,46	6,637
330,67	3,435
330,88	4,507
331,09	5,924
331,30	3,521
331,51	3,699
331,72	7,978
331,93	7,513
332,14	3,156
332,35	6,225
332,56	2,655
332,77	6,567
332,98	0,493
333,19	1,597
333,40	3,775
333,61	1,940
333,82	8,600
334,03	3,409
334,24	6,224
334,45	3,237
334,66	5,170
334,87	4,315
335,08	1,822
335,29	2,697
335,50	2,724
335,71	0,780
335,92	3,882
336,13	4,969
336,34	2,893
336,55	2,830
336,76	8,776
336,97	2,858
337,18	0,916
337,39	3,390
337,60	3,162
337,81	6,112
338,02	4,046
338,23	6,680
338,44	2,803
338,65	2,680
338,86	5,327
339,07	2,389
339,28	8,192
339,49	4,746
339,70	2,371
339,91	3,713
340,11	6,198
340,32	2,001
340,53	3,396
340,74	2,854
340,95	3,409
341,16	5,950
341,37	5,155
341,58	0,879
341,79	3,674
342,00	3,115
342,21	3,246
342,42	3,612
342,63	6,342
342,84	2,597
343,05	5,579
343,26	6,557
343,47	4,397
343,68	3,377
343,89	2,460
344,10	4,418
344,31	4,207
344,52	2,695
344,73	3,873
344,94	4,376
345,14	3,798
345,35	7,842
345,56	6,402
345,77	2,967
345,98	4,493
346,19	4,863
346,40	1,683
346,61	3,922
346,82	5,287
347,03	6,806
347,24	7,228
347,45	2,653
347,66	6,644
347,87	5,339
348,08	5,541
348,28	3,301
348,49	6,157
348,70	8,866
348,91	4,600
349,12	3,302
349,33	18,299
349,54	2,891
349,75	5,833
349,96	3,489
350,17	4,310
350,38	4,261
350,59	8,278
350,80	6,239
351,00	6,329
351,21	8,803
351,42	4,538
351,63	1,655
351,84	5,896
352,05	8,419
352,26	7,082
352,47	5,482
352,68	4,408
352,89	5,463
353,09	4,534
353,30	3,092
353,51	2,928
353,72	5,522
353,93	7,503
354,14	1,718
354,35	2,517
354,56	5,741
354,77	6,560
354,98	2,295
355,18	4,871
355,39	8,409
355,60	2,129
355,81	5,185
356,02	6,070
356,23	5,062
356,44	3,261
356,65	6,183
356,85	8,765
357,06	10,416
357,27	7,870
357,48	0,592
357,69	6,860
357,90	6,425
358,11	0,167
358,32	4,736
358,52	3,838
358,73	5,990
358,94	1,459
359,15	3,904
359,36	5,928
359,57	3,724
359,78	5,927
359,98	2,034
360,19	2,523
360,40	3,371
360,61	4,391
360,82	4,613
361,03	6,466
361,24	6,411
361,44	3,169
361,65	4,443
361,86	3,370
362,07	6,663
362,28	4,994
362,49	2,974
362,70	6,095
362,90	6,522
363,11	0,764
363,32	3,629
363,53	4,890
363,74	8,677
363,95	6,586
364,15	4,353
364,36	7,299
364,57	5,943
364,78	4,153
364,99	3,304
365,20	4,911
365,40	6,663
365,61	0,774
365,82	5,453
366,03	5,613
366,24	4,736
366,45	2,459
366,65	4,993
366,86	4,318
367,07	4,719
367,28	3,169
367,49	1,596
367,69	8,174
367,90	2,712
368,11	6,123
368,32	2,793
368,53	7,123
368,73	7,351
368,94	3,953
369,15	3,560
369,36	7,418
369,57	5,405
369,78	5,612
369,98	5,327
370,19	7,435
370,40	3,915
370,61	0,117
370,82	2,211
371,02	6,580
371,23	10,129
371,44	4,096
371,65	6,955
371,85	6,016
372,06	5,117
372,27	5,288
372,48	5,381
372,69	4,590
372,89	1,784
373,10	3,249
373,31	3,487
373,52	4,854
373,73	4,421
373,93	7,018
374,14	0,399
374,35	6,006
374,56	8,176
374,76	4,015
374,97	2,277
375,18	5,586
375,39	6,119
375,60	7,283
375,80	3,444
376,01	2,549
376,22	6,121
376,43	3,865
376,63	4,372
376,84	3,994
377,05	3,743
377,26	4,469
377,46	2,669
377,67	5,316
377,88	5,018
378,09	3,520
378,29	0,837
378,50	5,568
378,71	5,391
378,92	2,678
379,12	4,310
379,33	3,785
379,54	6,655
379,75	9,842
379,95	2,881
380,16	6,177
380,37	7,883
380,58	6,049
380,78	5,536
380,99	3,039
381,20	1,377
381,41	5,493
381,61	6,509
381,82	5,737
382,03	5,124
382,24	4,862
382,44	6,391
382,65	5,015
382,86	1,815
383,06	4,367
383,27	2,388
383,48	3,392
383,69	5,562
383,89	5,710
384,10	7,183
384,31	0,617
384,51	8,852
384,72	4,901
384,93	3,116
385,14	4,669
385,34	6,280
385,55	3,363
385,76	3,130
385,96	6,212
386,17	4,216
386,38	9,501
386,59	7,612
386,79	0,779
387,00	5,575
387,21	4,298
387,41	6,734
387,62	1,759
387,83	7,978
388,03	5,515
388,24	-0,275
388,45	5,164
388,66	7,591
388,86	2,408
389,07	3,342
389,28	12,590
389,48	4,196
389,69	2,704
389,90	4,253
390,10	6,326
390,31	6,407
390,52	0,556
390,72	1,949
390,93	3,340
391,14	5,897
391,34	2,843
391,55	7,089
391,76	9,405
391,96	2,446
392,17	2,933
392,38	8,127
392,58	6,210
392,79	7,075
393,00	3,096
393,20	1,349
393,41	4,860
393,62	5,134
393,82	5,667
394,03	3,330
394,24	4,373
394,44	7,423
394,65	4,759
394,86	4,117
395,06	9,781
395,27	1,507
395,48	3,061
395,68	6,933
395,89	6,338
396,10	4,932
396,30	5,280
396,51	0,664
396,72	3,648
396,92	0,464
397,13	5,219
397,34	2,190
397,54	4,432
397,75	4,337
397,95	1,328
398,16	4,063
398,37	6,197
398,57	2,284
398,78	6,754
398,99	7,001
399,19	6,875
399,40	9,868
399,60	2,192
399,81	3,182
400,02	6,124
400,22	3,747
400,43	4,906
400,64	5,485
400,84	0,868
401,05	4,233
401,25	2,763
401,46	3,993
401,67	7,234
401,87	4,240
402,08	-0,340
402,29	1,592
402,49	7,926
402,70	6,110
402,90	0,378
403,11	3,721
403,32	5,703
403,52	3,704
403,73	6,815
403,93	5,535
404,14	7,563
404,35	6,133
404,55	-0,320
404,76	2,596
404,96	4,948
405,17	8,511
405,38	6,169
405,58	2,750
405,79	10,889
405,99	7,096
406,20	4,781
406,40	1,166
406,61	5,386
406,82	2,242
407,02	5,354
407,23	1,640
407,43	6,670
407,64	2,451
407,85	1,290
408,05	-1,695
408,26	11,095
408,46	9,656
408,67	2,049
408,87	2,415
409,08	3,936
409,29	6,380
409,49	5,483
409,70	4,831
409,90	8,072
410,11	4,044
410,31	7,622
410,52	3,968
410,72	2,204
410,93	6,578
411,14	2,724
411,34	2,142
411,55	4,211
411,75	8,988
411,96	3,310
412,16	6,577
412,37	2,305
412,57	5,857
412,78	4,532
412,99	2,231
413,19	2,627
413,40	6,142
413,60	4,005
413,81	1,282
414,01	6,224
414,22	-1,432
414,42	0,436
414,63	0,406
414,83	8,594
415,04	10,283
415,24	8,679
415,45	2,546
415,65	3,513
415,86	5,921
416,07	3,460
416,27	4,306
416,48	9,344
416,68	6,004
416,89	3,657
417,09	1,548
417,30	7,042
417,50	4,868
417,71	6,159
417,91	6,548
418,12	1,069
418,32	1,730
418,53	5,636
418,73	0,210
418,94	6,073
419,14	3,970
419,35	2,094
419,55	4,995
419,76	3,288
419,96	2,898
420,17	3,339
420,37	3,430
420,58	8,622
420,78	2,974
420,99	5,404
421,19	7,086
421,40	5,734
421,60	9,883
421,81	2,711
422,01	4,202
422,22	5,654
422,42	3,233
422,63	5,959
422,83	2,955
423,04	7,233
423,24	9,018
423,45	1,513
423,65	8,098
423,86	10,152
424,06	7,015
424,27	1,519
424,47	-0,233
424,67	2,703
424,88	7,784
425,08	5,674
425,29	8,082
425,49	-0,719
425,70	1,032
425,90	6,716
426,11	5,410
426,31	4,676
426,52	5,108
426,72	2,541
426,93	1,082
427,13	7,913
427,33	4,845
427,54	7,826
427,74	6,468
427,95	9,891
428,15	4,706
428,36	7,857
428,56	4,785
428,77	5,194
428,97	2,999
429,18	5,305
429,38	3,646
429,58	6,231
429,79	9,340
429,99	1,754
430,20	-3,013
430,40	9,076
430,61	0,609
430,81	1,446
431,01	5,354
431,22	6,317
431,42	11,035
431,63	2,819
431,83	3,053
432,04	7,271
432,24	4,907
432,44	3,243
432,65	3,842
432,85	3,670
433,06	7,707
433,26	6,750
433,47	0,942
433,67	2,922
433,87	6,883
434,08	1,334
434,28	4,959
434,49	5,542
434,69	8,645
434,89	2,095
435,10	2,010
435,30	8,428
435,51	3,494
435,71	4,463
435,91	-1,768
436,12	4,452
436,32	5,254
436,53	4,227
436,73	4,675
436,93	7,750
437,14	5,302
437,34	1,176
437,55	5,464
437,75	5,167
437,95	5,080
438,16	3,695
438,36	-0,680
438,57	1,485
438,77	-0,183
438,97	6,164
439,18	10,662
439,38	4,278
439,58	-0,525
439,79	6,385
439,99	1,978
440,20	5,008
440,40	9,231
440,60	3,045
440,81	4,585
441,01	2,555
441,21	3,773
441,42	3,675
441,62	2,730
441,83	3,451
442,03	2,250
442,23	3,488
442,44	3,589
442,64	5,057
442,84	1,002
443,05	2,541
443,25	3,420
443,45	5,013
443,66	3,345
443,86	1,693
444,06	2,221
444,27	0,417
444,47	5,653
444,67	-2,127
444,88	1,253
445,08	6,458
445,28	7,740
445,49	1,337
445,69	3,133
445,90	6,913
446,10	8,036
446,30	4,707
446,51	7,213
446,71	8,940
446,91	8,473
447,12	8,760
447,32	1,505
447,52	4,494
447,72	2,215
447,93	5,345
448,13	-1,443
448,33	9,792
448,54	6,260
448,74	0,716
448,94	4,538
449,15	11,412
449,35	5,898
449,55	1,895
449,76	7,522
449,96	6,719
450,16	6,907
450,37	4,901
450,57	3,974
450,77	3,765
450,98	5,832
451,18	8,111
451,38	4,981
451,58	9,479
451,79	4,599
451,99	8,889
452,19	4,224
452,40	6,815
452,60	0,424
452,80	4,049
453,00	4,529
453,21	9,224
453,41	4,615
453,61	2,101
453,82	7,045
454,02	0,071
454,22	8,492
454,42	10,786
454,63	4,837
454,83	4,485
455,03	5,469
455,24	6,305
455,44	3,856
455,64	0,185
455,84	-0,139
456,05	1,199
456,25	0,194
456,45	7,903
456,65	4,918
456,86	3,714
457,06	4,181
457,26	4,917
457,47	9,830
457,67	6,327
457,87	2,210
458,07	6,479
458,28	9,045
458,48	7,061
458,68	-1,462
458,88	6,052
459,09	3,622
459,29	5,615
459,49	4,981
459,69	5,415
459,90	7,488
460,10	-1,384
460,30	6,986
460,50	1,476
460,71	9,988
460,91	2,163
461,11	4,441
461,31	0,071
461,52	9,434
461,72	2,824
461,92	5,236
462,12	10,045
462,32	-0,791
462,53	5,538
462,73	1,592
462,93	12,496
463,13	2,214
463,34	4,258
463,54	3,710
463,74	4,406
463,94	1,578
464,14	6,870
464,35	4,890
464,55	9,322
464,75	11,853
464,95	6,602
465,16	-1,021
465,36	3,906
465,56	6,050
465,76	2,214
465,96	3,430
466,17	4,381
466,37	1,026
466,57	7,783
466,77	6,796
466,97	4,390
467,18	7,717
467,38	2,269
467,58	6,857
467,78	7,748
467,98	4,627
468,19	7,534
468,39	6,541
468,59	6,663
468,79	5,627
468,99	4,756
469,19	4,228
469,40	7,872
469,60	-3,170
469,80	4,154
470,00	6,800
470,20	6,340
470,41	2,625
470,61	7,436
470,81	3,330
471,01	5,636
471,21	4,753
471,41	3,790
471,62	3,528
471,82	2,243
472,02	4,739
472,22	5,529
472,42	3,421
472,62	2,666
472,83	6,546
473,03	6,843
473,23	4,850
473,43	7,593
473,63	3,637
473,83	6,500
474,03	1,756
474,24	9,031
474,44	2,356
474,64	3,005
474,84	4,328
475,04	5,961
475,24	4,155
475,45	6,086
475,65	2,535
475,85	7,232
476,05	1,331
476,25	7,644
476,45	4,597
476,65	10,374
476,85	5,257
477,06	5,990
477,26	2,145
477,46	7,327
477,66	5,458
477,86	6,183
478,06	3,934
478,26	10,784
478,46	-0,038
478,67	3,687
478,87	4,126
479,07	3,413
479,27	10,142
479,47	4,774
479,67	1,435
479,87	4,598
480,07	3,480
480,28	6,573
480,48	2,963
480,68	7,106
480,88	8,562
481,08	7,125
481,28	7,568
481,48	7,144
481,68	6,908
481,88	5,773
482,08	6,768
482,29	10,287
482,49	4,241
482,69	3,346
482,89	4,057
483,09	9,776
483,29	7,369
483,49	2,388
483,69	9,029
483,89	5,037
484,09	4,195
484,29	3,751
484,50	6,118
484,70	7,745
484,90	7,766
485,10	5,458
485,30	6,947
485,50	9,230
485,70	9,106
485,90	5,217
486,10	2,631
486,30	6,836
486,50	7,879
486,70	6,884
486,90	7,118
487,10	8,846
487,30	7,870
487,51	8,904
487,71	4,660
487,91	6,853
488,11	9,924
488,31	5,798
488,51	8,219
488,71	6,999
488,91	10,386
489,11	5,594
489,31	8,062
489,51	8,780
489,71	7,883
489,91	8,721
490,11	6,933
490,31	8,644
490,51	10,245
490,71	8,494
490,91	6,720
491,11	9,292
491,31	11,537
491,51	5,465
491,72	8,510
491,92	10,661
492,12	13,615
492,32	11,190
492,52	13,899
492,72	11,066
492,92	10,411
493,12	10,929
493,32	8,326
493,52	8,845
493,72	8,364
493,92	11,920
494,12	13,346
494,32	11,973
494,52	9,948
494,72	10,668
494,92	8,841
495,12	12,911
495,32	15,524
495,52	12,560
495,72	13,314
495,92	16,114
496,12	17,173
496,32	9,987
496,52	10,893
496,72	11,270
496,92	14,820
497,12	11,220
497,32	13,259
497,52	15,231
497,72	17,375
497,92	17,104
498,12	13,757
498,32	16,515
498,52	13,018
498,72	12,838
498,92	12,892
499,12	19,266
499,32	11,568
499,52	15,359
499,72	14,764
499,92	16,008
500,12	17,936
500,32	17,949
500,52	15,569
500,72	22,337
500,91	18,021
501,11	17,300
501,31	13,927
501,51	20,219
501,71	18,699
501,91	19,964
502,11	15,747
502,31	18,688
502,51	19,756
502,71	16,680
502,91	15,324
503,11	17,168
503,31	17,955
503,51	15,265
503,71	15,667
503,91	21,958
504,11	19,899
504,31	18,851
504,51	20,946
504,71	22,652
504,91	21,081
505,10	19,508
505,30	20,261
505,50	22,192
505,70	20,028
505,90	19,995
506,10	17,068
506,30	18,717
506,50	18,971
506,70	22,445
506,90	21,565
507,10	20,964
507,30	21,699
507,50	21,215
507,70	22,264
507,89	23,614
508,09	19,169
508,29	22,544
508,49	22,299
508,69	18,374
508,89	22,637
509,09	22,003
509,29	23,919
509,49	23,147
509,69	27,875
509,89	24,300
510,09	22,704
510,28	25,625
510,48	23,829
510,68	21,918
510,88	22,658
511,08	24,411
511,28	23,541
511,48	25,558
511,68	22,958
511,88	18,131
512,07	24,596
512,27	25,704
512,47	23,487
512,67	26,122
512,87	22,374
513,07	24,334
513,27	23,809
513,47	26,224
513,67	23,381
513,86	28,424
514,06	25,592
514,26	25,031
514,46	29,837
514,66	25,881
514,86	23,892
515,06	29,111
515,26	27,208
515,45	24,734
515,65	23,402
515,85	27,388
516,05	22,853
516,25	26,008
516,45	27,790
516,65	25,507
516,84	25,163
517,04	28,763
517,24	24,046
517,44	25,599
517,64	29,533
517,84	28,195
518,04	29,027
518,23	32,085
518,43	31,408
518,63	25,280
518,83	25,585
519,03	26,138
519,23	29,692
519,42	28,165
519,62	24,332
519,82	28,164
520,02	28,890
520,22	27,796
520,42	25,118
520,61	28,545
520,81	29,559
521,01	30,715
521,21	26,884
521,41	30,707
521,61	31,616
521,80	24,754
522,00	26,423
522,20	28,750
522,40	29,777
522,60	28,548
522,79	27,351
522,99	29,008
523,19	26,562
523,39	29,489
523,59	25,193
523,78	31,614
523,98	28,372
524,18	27,583
524,38	28,352
524,58	28,758
524,77	29,091
524,97	27,877
525,17	30,234
525,37	27,665
525,57	30,566
525,76	26,408
525,96	30,536
526,16	26,044
526,36	27,600
526,56	28,965
526,75	25,746
526,95	30,952
527,15	28,350
527,35	31,541
527,55	29,345
527,74	32,831
527,94	27,654
528,14	29,044
528,34	28,288
528,53	29,713
528,73	28,249
528,93	31,028
529,13	28,929
529,32	29,828
529,52	30,656
529,72	27,281
529,92	29,326
530,12	29,842
530,31	25,262
530,51	30,392
530,71	31,174
530,91	29,407
531,10	27,300
531,30	29,341
531,50	27,549
531,70	32,096
531,89	29,517
532,09	29,789
532,29	26,920
532,49	30,443
532,68	29,730
532,88	28,713
533,08	26,530
533,28	28,038
533,47	28,404
533,67	28,394
533,87	28,899
534,06	33,610
534,26	29,405
534,46	27,323
534,66	27,821
534,85	28,409
535,05	22,722
535,25	30,044
535,45	25,778
535,64	28,563
535,84	27,310
536,04	27,315
536,23	29,054
536,43	31,930
536,63	27,381
536,83	28,808
537,02	28,158
537,22	26,597
537,42	30,632
537,61	28,055
537,81	29,100
538,01	28,656
538,20	28,011
538,40	27,538
538,60	27,436
538,80	26,763
538,99	27,224
539,19	25,634
539,39	24,744
539,58	26,300
539,78	22,912
539,98	24,094
540,17	23,536
540,37	26,335
540,57	22,481
540,76	23,960
540,96	19,310
541,16	23,223
541,36	21,968
541,55	18,727
541,75	19,351
541,95	20,937
542,14	20,555
542,34	18,328
542,54	19,195
542,73	20,015
542,93	21,575
543,13	20,999
543,32	19,886
543,52	20,969
543,72	19,343
543,91	19,785
544,11	18,688
544,31	18,901
544,50	19,777
544,70	21,534
544,89	21,052
545,09	21,003
545,29	20,143
545,48	21,243
545,68	19,487
545,88	21,736
546,07	21,869
546,27	20,497
546,47	22,821
546,66	24,723
546,86	22,295
547,06	23,495
547,25	22,881
547,45	25,401
547,64	23,585
547,84	26,137
548,04	24,850
548,23	27,587
548,43	26,423
548,63	30,453
548,82	27,569
549,02	24,706
549,21	23,266
549,41	25,552
549,61	25,635
549,80	27,045
550,00	27,100
550,20	24,159
550,39	26,964
550,59	26,446
550,78	25,827
550,98	26,316
551,18	28,142
551,37	26,812
551,57	26,878
551,76	27,858
551,96	29,053
552,16	26,318
552,35	28,408
552,55	29,970
552,74	29,360
552,94	27,792
553,14	26,457
553,33	26,964
553,53	26,995
553,72	28,405
553,92	29,648
554,12	28,117
554,31	28,523
554,51	26,704
554,70	25,683
554,90	31,025
555,09	29,256
555,29	30,520
555,49	29,325
555,68	32,374
555,88	26,694
556,07	29,218
556,27	29,989
556,46	27,829
556,66	25,650
556,86	30,635
557,05	28,993
557,25	27,847
557,44	28,780
557,64	28,809
557,83	29,373
558,03	28,085
558,22	27,059
558,42	29,770
558,62	31,107
558,81	30,345
559,01	27,066
559,20	30,343
559,40	28,384
559,59	28,059
559,79	27,751
559,98	29,857
560,18	30,089
560,37	29,413
560,57	29,777
560,76	27,702
560,96	26,837
561,16	29,760
561,35	26,397
561,55	29,911
561,74	30,174
561,94	30,076
562,13	29,082
562,33	32,478
562,52	30,384
562,72	28,262
562,91	28,311
563,11	30,327
563,30	31,010
563,50	27,454
563,69	26,762
563,89	27,202
564,08	31,461
564,28	29,394
564,47	27,882
564,67	30,549
564,86	29,502
565,06	26,697
565,25	27,777
565,45	27,832
565,64	32,620
565,84	28,414
566,03	25,871
566,23	30,403
566,42	29,572
566,62	31,776
566,81	30,356
567,01	30,159
567,20	29,887
567,40	27,695
567,59	27,358
567,79	30,683
567,98	32,283
568,18	29,873
568,37	29,483
568,57	28,656
568,76	30,914
568,96	27,420
569,15	28,274
569,35	29,206
569,54	32,358
569,73	31,235
569,93	27,921
570,12	31,392
570,32	31,076
570,51	30,143
570,71	30,952
570,90	30,883
571,10	28,572
571,29	28,684
571,49	27,219
571,68	29,169
571,87	28,336
572,07	27,287
572,26	28,609
572,46	31,067
572,65	31,845
572,85	27,956
573,04	28,964
573,24	30,712
573,43	31,001
573,62	30,480
573,82	30,696
574,01	30,050
574,21	30,513
574,40	27,897
574,60	27,932
574,79	32,530
574,98	27,717
575,18	31,682
575,37	28,535
575,57	30,026
575,76	30,226
575,96	29,417
576,15	30,604
576,34	30,810
576,54	30,483
576,73	30,473
576,93	30,971
577,12	30,995
577,31	29,407
577,51	28,750
577,70	29,574
577,90	29,554
578,09	29,242
578,28	28,937
578,48	29,221
578,67	32,213
578,87	31,762
579,06	28,565
579,25	30,220
579,45	31,325
579,64	30,184
579,84	29,804
580,03	29,713
580,22	32,191
580,42	29,522
580,61	30,793
580,81	30,128
581,00	30,854
581,19	30,499
581,39	30,116
581,58	30,367
581,77	29,427
581,97	32,125
582,16	30,865
582,35	30,144
582,55	30,917
582,74	32,544
582,94	30,503
583,13	28,221
583,32	30,872
583,52	30,488
583,71	30,688
583,90	30,244
584,10	30,829
584,29	30,616
584,48	30,023
584,68	30,047
584,87	30,916
585,06	30,520
585,26	29,265
585,45	31,270
585,65	32,996
585,84	30,540
586,03	31,220
586,23	31,440
586,42	31,350
586,61	32,276
586,81	32,506
587,00	33,281
587,19	30,108
587,39	33,009
587,58	31,324
587,77	31,261
587,97	30,989
588,16	29,389
588,35	31,360
588,54	32,114
588,74	31,591
588,93	34,135
589,12	31,811
589,32	31,306
589,51	32,215
589,70	30,425
589,90	30,893
590,09	31,400
590,28	35,551
590,48	32,505
590,67	31,596
590,86	31,914
591,06	33,064
591,25	33,851
591,44	34,446
591,63	33,073
591,83	33,340
592,02	32,060
592,21	31,876
592,41	33,000
592,60	32,916
592,79	33,236
592,98	31,786
593,18	32,877
593,37	31,999
593,56	33,340
593,76	34,513
593,95	32,162
594,14	34,596
594,33	37,578
594,53	34,339
594,72	33,576
594,91	36,864
595,10	34,313
595,30	32,315
595,49	33,946
595,68	35,201
595,88	35,713
596,07	35,631
596,26	33,513
596,45	35,706
596,65	33,589
596,84	35,033
597,03	35,003
597,22	35,583
597,42	35,629
597,61	33,874
597,80	33,698
597,99	35,135
598,19	35,161
598,38	35,043
598,57	34,919
598,76	36,166
598,95	36,694
599,15	36,358
599,34	36,857
599,53	37,177
599,72	35,423
599,92	36,514
600,11	35,143
600,30	36,271
600,49	37,470
600,69	34,544
600,88	35,770
601,07	36,969
601,26	36,362
601,45	37,425
601,65	35,663
601,84	36,451
602,03	36,500
602,22	37,372
602,42	36,816
602,61	35,882
602,80	36,581
602,99	36,756
603,18	34,168
603,38	37,770
603,57	36,604
603,76	35,705
603,95	35,840
604,14	36,314
604,34	37,565
604,53	35,589
604,72	37,813
604,91	36,432
605,10	36,509
605,29	38,418
605,49	36,254
605,68	38,488
605,87	36,928
606,06	37,639
606,25	36,595
606,45	37,417
606,64	37,607
606,83	38,280
607,02	36,148
607,21	38,329
607,40	37,261
607,60	33,734
607,79	35,824
607,98	33,876
608,17	35,544
608,36	34,728
608,55	35,020
608,75	34,495
608,94	33,933
609,13	31,052
609,32	30,222
609,51	32,185
609,70	30,819
609,89	30,519
610,09	31,007
610,28	32,244
610,47	30,905
610,66	30,242
610,85	28,423
611,04	31,410
611,23	31,028
611,43	29,918
611,62	30,107
611,81	28,941
612,00	30,996
612,19	30,007
612,38	31,675
612,57	31,824
612,77	32,705
612,96	32,651
613,15	32,944
613,34	34,384
613,53	35,636
613,72	35,980
613,91	34,437
614,10	33,518
614,29	36,823
614,49	33,514
614,68	33,919
614,87	37,060
615,06	39,730
615,25	33,205
615,44	38,141
615,63	38,163
615,82	37,101
616,01	36,435
616,21	36,777
616,40	36,699
616,59	37,983
616,78	37,267
616,97	37,855
617,16	37,378
617,35	39,345
617,54	36,748
617,73	37,769
617,92	37,367
618,11	40,097
618,31	36,437
618,50	39,066
618,69	38,249
618,88	38,841
619,07	37,575
619,26	36,428
619,45	37,369
619,64	35,308
619,83	36,431
620,02	37,423
620,21	39,695
620,40	40,119
620,59	37,048
620,78	36,276
620,97	38,242
621,17	36,644
621,36	38,697
621,55	37,352
621,74	39,697
621,93	38,492
622,12	37,970
622,31	37,282
622,50	38,067
622,69	41,011
622,88	38,748
623,07	39,929
623,26	40,263
623,45	40,864
623,64	37,932
623,83	38,953
624,02	39,438
624,21	40,890
624,40	39,244
624,59	39,184
624,78	41,256
624,97	41,279
625,16	38,376
625,35	37,074
625,54	39,632
625,73	39,165
625,92	40,156
626,12	40,363
626,31	41,597
626,50	40,068
626,69	40,469
626,88	37,667
627,07	40,885
627,26	39,946
627,45	39,709
627,64	39,171
627,83	38,986
628,02	38,884
628,21	37,444
628,40	39,032
628,59	39,574
628,78	39,143
628,97	38,099
629,16	37,336
629,35	38,753
629,54	41,391
629,73	37,815
629,92	38,952
630,10	40,265
630,29	38,676
630,48	39,540
630,67	37,452
630,86	40,451
631,05	41,017
631,24	39,525
631,43	37,558
631,62	41,050
631,81	40,643
632,00	38,785
632,19	38,077
632,38	42,314
632,57	37,625
632,76	40,210
632,95	42,823
633,14	43,308
633,33	40,728
633,52	41,567
633,71	42,650
633,90	40,127
634,09	41,243
634,28	41,682
634,47	39,519
634,66	40,304
634,85	41,543
635,04	43,298
635,22	40,936
635,41	40,733
635,60	43,847
635,79	42,973
635,98	38,826
636,17	42,227
636,36	39,448
636,55	39,685
636,74	39,568
636,93	41,004
637,12	42,376
637,31	39,473
637,50	40,808
637,69	40,691
637,87	45,098
638,06	41,635
638,25	40,204
638,44	43,760
638,63	39,777
638,82	42,012
639,01	40,246
639,20	40,969
639,39	42,906
639,58	41,287
639,77	43,455
639,95	40,015
640,14	41,831
640,33	40,912
640,52	40,979
640,71	44,280
640,90	42,222
641,09	43,684
641,28	38,712
641,47	41,093
641,66	40,143
641,84	41,021
642,03	40,584
642,22	42,272
642,41	43,570
642,60	41,799
642,79	42,063
642,98	42,303
643,17	41,419
643,35	40,899
643,54	41,681
643,73	42,714
643,92	43,005
644,11	41,242
644,30	40,674
644,49	44,077
644,67	42,057
644,86	41,566
645,05	43,449
645,24	41,547
645,43	41,281
645,62	40,708
645,81	41,176
645,99	42,339
646,18	41,562
646,37	40,542
646,56	40,972
646,75	43,356
646,94	43,073
647,13	40,968
647,31	41,193
647,50	40,992
647,69	44,081
647,88	41,496
648,07	41,670
648,26	42,013
648,44	41,483
648,63	40,881
648,82	41,601
649,01	44,397
649,20	39,997
649,38	42,139
649,57	41,039
649,76	39,896
649,95	42,835
650,14	40,411
650,33	41,089
650,51	41,376
650,70	42,384
650,89	41,635
651,08	40,898
651,27	41,666
651,45	39,596
651,64	40,459
651,83	40,620
652,02	40,159
652,21	41,160
652,39	39,388
652,58	40,558
652,77	41,048
652,96	41,484
653,15	41,245
653,33	38,606
653,52	40,768
653,71	41,967
653,90	42,317
654,09	41,946
654,27	41,335
654,46	43,043
654,65	42,145
654,84	41,153
655,02	42,548
655,21	42,847
655,40	43,097
655,59	41,696
655,77	42,490
655,96	41,740
656,15	42,792
656,34	43,708
656,53	42,465
656,71	43,076
656,90	43,091
657,09	44,383
657,28	44,828
657,46	42,849
657,65	43,693
657,84	40,771
658,03	43,821
658,21	42,170
658,40	42,492
658,59	42,478
658,78	42,983
658,96	41,023
659,15	41,812
659,34	41,880
659,52	42,484
659,71	41,265
659,90	39,906
660,09	41,033
660,27	41,013
660,46	42,807
660,65	40,537
660,84	39,408
661,02	40,465
661,21	41,890
661,40	40,094
661,58	41,996
661,77	41,012
661,96	39,833
662,15	40,352
662,33	40,634
662,52	40,181
662,71	41,085
662,89	40,362
663,08	39,206
663,27	40,466
663,45	40,814
663,64	41,138
663,83	38,225
664,02	39,775
664,20	40,673
664,39	39,687
664,58	41,509
664,76	40,846
664,95	40,488
665,14	41,587
665,32	39,763
665,51	40,662
665,70	42,263
665,88	42,211
666,07	41,459
666,26	42,189
666,44	41,805
666,63	39,692
666,82	40,092
667,00	41,689
667,19	40,627
667,38	39,444
667,56	41,012
667,75	41,161
667,94	39,699
668,12	38,207
668,31	40,245
668,50	40,883
668,68	40,091
668,87	40,206
669,06	39,388
669,24	41,848
669,43	38,329
669,62	37,298
669,80	38,242
669,99	39,352
670,18	39,390
670,36	39,144
670,55	39,493
670,74	38,312
670,92	36,070
671,11	41,154
671,29	38,727
671,48	39,779
671,67	41,854
671,85	39,548
672,04	37,852
672,23	36,969
672,41	39,438
672,60	39,834
672,78	38,382
672,97	39,547
673,16	39,905
673,34	39,835
673,53	39,166
673,71	39,076
673,90	41,284
674,09	39,368
674,27	39,106
674,46	38,915
674,64	39,664
674,83	38,442
675,02	37,611
675,20	40,363
675,39	39,277
675,57	39,179
675,76	38,030
675,95	40,193
676,13	39,586
676,32	39,726
676,50	40,936
676,69	37,667
676,88	39,411
677,06	39,803
677,25	40,051
677,43	41,411
677,62	40,716
677,80	40,882
677,99	39,989
678,18	41,041
678,36	41,364
678,55	40,373
678,73	39,709
678,92	40,603
679,10	41,102
679,29	38,957
679,48	38,139
679,66	38,707
679,85	40,983
680,03	38,149
680,22	39,940
680,40	39,308
680,59	39,026
680,77	38,187
680,96	40,323
681,15	39,269
681,33	40,764
681,52	38,680
681,70	38,605
681,89	41,377
682,07	40,218
682,26	39,473
682,44	41,171
682,63	39,488
682,81	40,276
683,00	40,404
683,18	37,775
683,37	41,427
683,55	39,394
683,74	39,834
683,92	44,998
684,11	41,135
684,29	40,282
684,48	38,377
684,67	39,419
684,85	41,251
685,04	40,656
685,22	41,147
685,41	39,981
685,59	42,419
685,78	41,042
685,96	40,094
686,15	40,865
686,33	41,336
686,52	40,663
686,70	40,459
686,89	42,636
687,07	41,540
687,26	43,107
687,44	42,112
687,62	40,261
687,81	41,143
687,99	42,609
688,18	41,996
688,36	41,377
688,55	43,403
688,73	41,347
688,92	39,383
689,10	42,408
689,29	43,945
689,47	42,196
689,66	40,313
689,84	40,064
690,03	45,614
690,21	41,274
690,40	41,355
690,58	40,062
690,76	39,128
690,95	43,450
691,13	41,176
691,32	43,185
691,50	42,429
691,69	42,676
691,87	40,005
692,06	42,043
692,24	39,760
692,43	43,332
692,61	41,004
692,79	40,620
692,98	40,044
693,16	44,361
693,35	41,582
693,53	43,209
693,72	42,914
693,90	44,562
694,08	41,475
694,27	42,231
694,45	45,641
694,64	45,303
694,82	41,381
695,01	41,639
695,19	42,494
695,37	41,668
695,56	42,791
695,74	43,898
695,93	44,099
696,11	42,147
696,29	43,571
696,48	43,479
696,66	44,588
696,85	43,156
697,03	41,205
697,21	44,230
697,40	42,100
697,58	43,594
697,77	42,100
697,95	43,695
698,13	43,539
698,32	43,764
698,50	43,698
698,69	41,859
698,87	44,347
699,05	42,476
699,24	42,860
699,42	43,376
699,60	40,442
699,79	43,343
699,97	41,939
700,16	42,503
700,34	45,197
700,52	42,069
700,71	43,093
700,89	41,573
701,07	44,662
701,26	43,180
701,44	41,781
701,63	40,969
701,81	43,910
701,99	43,315
702,18	42,330
702,36	43,516
702,54	42,792
702,73	42,457
702,91	41,130
703,09	43,384
703,28	41,516
703,46	43,018
703,64	43,318
703,83	43,303
704,01	44,442
704,19	44,498
704,38	40,777
704,56	41,535
704,74	45,020
704,93	42,434
705,11	42,727
705,29	42,318
705,48	45,945
705,66	44,596
705,84	42,124
706,03	40,965
706,21	43,868
706,39	42,588
706,58	41,849
706,76	43,038
706,94	43,836
707,12	44,315
707,31	41,200
707,49	40,719
707,67	41,923
707,86	44,145
708,04	42,027
708,22	42,342
708,41	41,421
708,59	43,318
708,77	40,792
708,95	43,292
709,14	45,763
709,32	43,357
709,50	41,401
709,69	40,888
709,87	42,165
710,05	42,538
710,23	42,538
710,42	42,129
710,60	42,248
710,78	45,052
710,97	43,544
711,15	42,225
711,33	42,733
711,51	41,935
711,70	41,759
711,88	41,129
712,06	44,794
712,24	43,677
712,43	44,400
712,61	42,726
712,79	42,707
712,97	41,835
713,16	43,579
713,34	42,684
713,52	44,289
713,70	44,081
713,89	42,133
714,07	42,903
714,25	41,994
714,43	45,337
714,62	42,402
714,80	43,111
714,98	39,579
715,16	42,780
715,35	42,503
715,53	43,855
715,71	44,630
715,89	45,269
716,07	43,864
716,26	47,359
716,44	44,304
716,62	44,721
716,80	45,024
716,99	43,181
717,17	44,899
717,35	43,756
717,53	43,486
717,71	40,929
717,90	43,572
718,08	42,996
718,26	40,190
718,44	43,654
718,62	44,426
718,81	44,206
718,99	42,705
719,17	41,252
719,35	43,812
719,53	41,356
719,72	42,021
719,90	43,161
720,08	43,028
720,26	44,279
720,44	40,916
720,62	42,642
720,81	43,877
720,99	45,771
721,17	42,273
721,35	44,339
721,53	43,286
721,72	44,190
721,90	43,278
722,08	42,557
722,26	44,990
722,44	43,358
722,62	43,612
722,81	42,083
722,99	43,822
723,17	42,390
723,35	43,300
723,53	43,490
723,71	44,105
723,89	47,154
724,08	40,285
724,26	43,033
724,44	44,053
724,62	44,339
724,80	42,131
724,98	44,357
725,16	46,187
725,35	42,554
725,53	42,223
725,71	42,996
725,89	42,345
726,07	46,225
726,25	46,063
726,43	43,182
726,61	42,922
726,80	44,818
726,98	42,733
727,16	42,515
727,34	43,280
727,52	43,554
727,70	41,032
727,88	43,842
728,06	41,459
728,25	42,461
728,43	42,840
728,61	41,686
728,79	43,684
728,97	43,502
729,15	42,806
729,33	43,833
729,51	44,196
729,69	44,662
729,87	44,007
730,06	42,223
730,24	44,052
730,42	47,274
730,60	42,584
730,78	42,995
730,96	43,347
731,14	42,743
731,32	43,335
731,50	41,594
731,68	40,947
731,86	45,322
732,04	42,988
732,22	42,927
732,41	46,752
732,59	44,811
732,77	44,980
732,95	44,208
733,13	44,501
733,31	43,443
733,49	40,654
733,67	43,851
733,85	44,855
734,03	45,002
734,21	43,287
734,39	43,086
734,57	45,238
734,75	43,439
734,93	42,335
735,11	42,788
735,29	42,144
735,47	45,604
735,65	43,398
735,84	42,516
736,02	43,500
736,20	46,344
736,38	42,452
736,56	43,381
736,74	42,917
736,92	43,396
737,10	45,104
737,28	44,102
737,46	43,894
737,64	43,321
737,82	42,515
738,00	44,322
738,18	44,622
738,36	42,324
738,54	43,435
738,72	42,088
738,90	43,009
739,08	46,244
739,26	41,483
739,44	44,223
739,62	43,418
739,80	43,880
739,98	43,115
740,16	44,257
740,34	44,705
740,52	44,568
740,70	43,419
740,88	41,634
741,06	43,169
741,24	47,463
741,42	43,821
741,60	43,591
741,78	44,749
741,96	42,379
742,14	41,633
742,32	42,661
742,50	44,240
742,68	42,990
742,86	44,764
743,04	42,977
743,21	44,297
743,39	43,585
743,57	43,005
743,75	42,563
743,93	41,035
744,11	41,852
744,29	42,486
744,47	42,582
744,65	43,381
744,83	42,156
745,01	43,564
745,19	43,856
745,37	46,077
745,55	43,736
745,73	44,054
745,91	40,470
746,09	43,339
746,27	41,516
746,45	42,806
746,62	43,353
746,80	43,032
746,98	42,520
747,16	42,632
747,34	42,892
747,52	44,136
747,70	44,649
747,88	43,071
748,06	44,227
748,24	44,008
748,42	44,359
748,60	41,856
748,78	43,911
748,95	44,083
749,13	47,074
749,31	44,121
749,49	42,756
749,67	45,119
749,85	45,872
750,03	41,714
750,21	42,204
750,39	45,465
750,57	44,057
750,74	44,686
750,92	43,191
751,10	44,940
751,28	43,403
751,46	42,720
751,64	45,141
751,82	45,839
752,00	46,379
752,17	43,929
752,35	42,858
752,53	44,459
752,71	43,165
752,89	44,649
753,07	42,448
753,25	45,624
753,43	42,788
753,60	44,347
753,78	42,570
753,96	47,385
754,14	44,544
754,32	44,205
754,50	44,998
754,68	46,035
754,85	45,035
755,03	45,410
755,21	42,890
755,39	47,211
755,57	43,574
755,75	44,405
755,92	43,973
756,10	44,508
756,28	45,213
756,46	42,913
756,64	43,123
756,82	42,890
756,99	44,859
757,17	42,776
757,35	44,987
757,53	45,948
757,71	43,805
757,89	42,765
758,06	45,060
758,24	44,923
758,42	44,280
758,60	45,406
758,78	44,658
758,95	44,099
759,13	44,249
759,31	43,226
759,49	44,099
759,67	43,035
759,84	43,050
760,02	45,496
760,20	43,851
760,38	44,666
760,56	44,528
760,73	44,678
760,91	45,282
761,09	42,925
761,27	45,122
761,45	44,669
761,62	43,223
761,80	44,445
761,98	44,094
762,16	42,687
762,33	43,134
762,51	46,142
762,69	44,244
762,87	44,579
763,05	45,559
763,22	46,092
763,40	42,457
763,58	43,941
763,76	44,839
763,93	44,834
764,11	44,283
764,29	45,976
764,47	44,418
764,64	46,809
764,82	45,342
765,00	41,183
765,18	41,669
765,35	43,854
765,53	44,483
765,71	45,089
765,89	42,436
766,06	42,994
766,24	42,500
766,42	44,819
766,60	42,195
766,77	43,588
766,95	44,293
767,13	45,136
767,30	43,748
767,48	43,825
767,66	44,082
767,84	43,916
768,01	45,116
768,19	45,888
768,37	46,852
768,54	43,718
768,72	46,518
768,90	43,335
769,08	45,528
769,25	45,807
769,43	43,692
769,61	42,011
769,78	44,252
769,96	43,680
770,14	45,509
770,31	44,932
770,49	45,360
770,67	44,258
770,85	44,382
771,02	44,983
771,20	44,054
771,38	44,734
771,55	45,432
771,73	43,810
771,91	45,164
772,08	46,310
772,26	45,244
772,44	44,611
772,61	44,720
772,79	45,007
772,97	43,443
773,14	43,731
773,32	46,855
773,50	42,745
773,67	46,973
773,85	47,857
774,03	47,379
774,20	44,897
774,38	46,409
774,56	43,894
774,73	43,196
774,91	43,416
775,09	45,593
775,26	43,636
775,44	44,042
775,61	44,380
775,79	43,641
775,97	43,051
776,14	43,574
776,32	42,819
776,50	45,106
776,67	45,397
776,85	47,328
777,03	42,728
777,20	45,232
777,38	49,128
777,55	46,026
777,73	42,935
777,91	41,688
778,08	45,312
778,26	44,432
778,43	47,578
778,61	40,525
778,79	43,809
778,96	44,211
779,14	43,898
779,32	43,934
779,49	42,820
779,67	47,519
779,84	44,718
780,02	45,810
780,20	40,554
780,37	45,297
780,55	42,465
780,72	48,846
780,90	46,351
781,07	45,514
781,25	46,889
781,43	44,397
781,60	47,474
781,78	47,014
781,95	46,951
782,13	44,616
782,30	46,576
782,48	45,865
782,66	44,875
782,83	44,122
783,01	48,027
783,18	46,975
783,36	47,709
783,53	46,556
783,71	43,220
783,89	43,713
784,06	47,056
784,24	47,382
784,41	45,420
784,59	45,373
784,76	44,825
784,94	46,643
785,11	46,686
785,29	46,492
785,46	46,764
785,64	44,152
785,82	45,679
785,99	45,614
786,17	46,103
786,34	42,953
786,52	47,921
786,69	48,145
786,87	46,187
787,04	44,124
787,22	44,424
787,39	45,535
787,57	47,633
787,74	47,172
787,92	50,668
788,09	48,927
788,27	43,088
788,44	47,986
788,62	46,914
788,79	46,689
788,97	44,172
789,14	45,907
789,32	45,729
789,49	46,871
789,67	47,274
789,84	47,357
790,02	50,435
790,19	46,503
790,37	47,522
790,54	47,472
790,72	51,015
790,89	50,550
791,07	46,706
791,24	41,204
791,42	49,104
791,59	46,041
791,77	46,738
791,94	42,436
792,12	42,852
792,29	49,835
792,47	49,186
792,64	50,702
792,81	46,000
792,99	45,719
793,16	45,896
793,34	48,967
793,51	46,842
793,69	49,870
793,86	47,811
794,04	44,618
794,21	49,016
794,39	40,750
794,56	45,027
794,73	46,091
794,91	48,926
795,08	48,172
795,26	48,885
795,43	45,610
795,61	48,872
795,78	49,982
795,95	49,455
796,13	48,679
796,30	47,290
796,48	45,223
796,65	46,222
796,83	48,376
797,00	47,664
797,17	45,752
797,35	48,036
797,52	47,039
797,70	49,834
797,87	48,701
798,04	41,021
798,22	48,097
798,39	47,273
798,57	46,683
798,74	46,447
798,91	44,999
799,09	43,690
799,26	47,702
799,44	45,353
799,61	42,015
799,78	46,159
799,96	50,973
800,13	46,909
800,31	46,960
800,48	50,760
800,65	49,878
800,83	47,361
801,00	48,971
801,17	45,854
801,35	50,724
801,52	46,384
801,70	44,204
801,87	49,110
802,04	49,096
802,22	46,391
802,39	47,411
802,56	53,714
802,74	44,863
802,91	45,856
803,08	45,221
803,26	47,284
803,43	49,485
803,61	45,840
803,78	46,117
803,95	50,120
804,13	52,035
804,30	47,737
804,47	51,423
804,65	48,909
804,82	46,562
804,99	48,684
805,17	46,595
805,34	51,639
805,51	53,437
805,69	44,060
805,86	46,543
806,03	54,724
806,21	52,741
806,38	46,691
806,55	50,426
806,72	49,816
806,90	50,461
807,07	48,200
807,24	46,825
807,42	50,453
807,59	47,900
807,76	41,690
807,94	48,798
808,11	52,289
808,28	55,033
808,45	52,440
808,63	46,760
808,80	52,480
808,97	50,328
809,15	44,938
809,32	49,993
809,49	43,853
809,67	45,926
809,84	47,039
810,01	50,100
810,18	59,272
810,36	51,639
810,53	48,931
810,70	49,228
810,87	48,685
811,05	44,713
811,22	48,198
811,39	48,401
811,57	48,986
811,74	49,213
811,91	46,926
812,08	48,412
812,26	53,831
812,43	48,552
812,60	49,261
812,77	45,923
812,95	53,498
813,12	53,484
813,29	47,385
813,46	50,990
813,64	50,552
813,81	49,510
813,98	47,365
814,15	54,768
814,32	52,417
814,50	48,755
814,67	51,599
814,84	53,711
815,01	46,745
815,19	42,820
815,36	46,597
815,53	48,914
815,70	47,976
815,87	52,637
816,05	43,664
816,22	50,305
816,39	57,319
816,56	53,870
816,74	49,020
816,91	48,390
817,08	52,314
817,25	53,459
817,42	54,319
817,60	50,054
817,77	50,802
817,94	52,342
818,11	47,317
818,28	47,458
818,45	49,886
818,63	50,615
818,80	49,333
818,97	52,858
819,14	56,058
819,31	54,756
819,49	50,644
819,66	52,557
819,83	51,263
820,00	46,525
820,17	48,693
820,34	51,665
820,52	56,191
820,69	49,015
820,86	46,854
821,03	51,317
821,20	54,085
821,37	52,645
821,55	45,329
821,72	48,707
821,89	53,172
822,06	53,276
822,23	45,995
822,40	51,472
822,57	53,532
822,75	53,962
822,92	44,998
823,09	52,204
823,26	59,387
823,43	57,947
823,60	46,245
823,77	53,236
823,94	63,324
824,12	56,469
824,29	54,702
824,46	47,002
824,63	58,843
824,80	57,700
824,97	48,379
825,14	50,501
825,31	59,149
825,49	52,570
825,66	49,444
825,83	50,503
826,00	48,155
826,17	57,549
826,34	46,578
826,51	45,936
826,68	46,792
826,85	55,601
827,02	51,804
827,20	48,598
827,37	54,083
827,54	50,424
827,71	52,044
827,88	57,335
828,05	53,955
828,22	49,147
828,39	56,775
828,56	53,497
828,73	56,711
828,90	53,020
829,07	49,199
829,25	52,533
829,42	59,081
829,59	54,135
829,76	55,648
829,93	49,047
830,10	55,104
830,27	51,704
830,44	57,673
830,61	50,044
830,78	65,028
830,95	56,243
831,12	46,211
831,29	49,513
831,46	53,934
831,63	48,387
831,80	52,016
831,97	41,718
832,14	57,612
832,31	59,611
832,48	47,859
832,65	56,760
832,83	51,721
833,00	53,969
833,17	50,712
833,34	57,023
833,51	62,153
833,68	55,375
833,85	56,821
834,02	48,456
834,19	50,871
834,36	56,804
834,53	45,831
834,70	52,066
834,87	64,190
835,04	56,983
835,21	57,227
835,38	53,145
835,55	53,343
835,72	66,718
835,89	52,655
836,06	52,324
836,23	60,472
836,40	48,011
836,57	49,919
836,74	57,363
836,91	53,777
837,08	57,112
837,25	56,009
837,42	41,965
837,59	49,382
837,76	49,797
837,93	61,137
838,09	48,866
838,26	60,658
838,43	66,270
838,60	50,470
838,77	49,657
838,94	57,008
839,11	57,838
839,28	51,179
839,45	52,127
839,62	51,585
839,79	58,058
839,96	49,398
840,13	58,320
840,30	50,235
840,47	44,853
840,64	50,331
840,81	58,550
840,98	50,676
841,15	64,774
841,32	52,490
841,48	66,039
841,65	59,786
841,82	57,753
841,99	52,070
842,16	51,240
842,33	60,823
842,50	52,203
842,67	59,000
842,84	53,430
843,01	58,784
843,18	55,161
843,35	59,656
843,52	49,534
843,68	55,045
843,85	57,151
844,02	51,831
844,19	51,640
844,36	61,481
844,53	58,102
844,70	65,300
844,87	59,353
845,04	63,645
845,21	55,618
845,37	61,787
845,54	50,677
845,71	55,006
845,88	81,220
846,05	48,922
846,22	54,095
846,39	60,708
846,56	66,232
846,72	46,108
846,89	54,103
847,06	71,426
847,23	67,537
847,40	53,216
847,57	43,321
847,74	65,910
847,90	71,486
848,07	59,711
848,24	54,253
848,41	56,837
848,58	66,459
848,75	58,324
848,92	50,514
849,08	67,197
849,25	60,881
849,42	48,241
849,59	57,494
849,76	63,872
849,93	62,764
850,09	64,909
850,26	42,083
850,43	63,363
850,60	56,865
850,77	51,068
850,94	63,443
851,10	52,946
851,27	61,624
851,44	57,073
851,61	47,719
851,78	76,103
851,95	70,927
852,11	53,618
852,28	58,065
852,45	68,550
852,62	60,180
852,79	58,805
852,95	53,360
853,12	66,442
853,29	55,964
853,46	59,696
853,63	65,719
853,79	57,182
853,96	60,501
854,13	68,752
854,30	44,108
854,46	80,330
854,63	60,850
854,80	57,641
854,97	50,592
855,14	72,222
855,30	60,397
855,47	54,880
855,64	68,806
855,81	69,096
855,97	74,459
856,14	65,217
856,31	48,340
856,48	87,426
856,65	76,281
856,81	63,529
856,98	56,973
857,15	59,283
857,32	65,877
857,48	54,544
857,65	63,219
857,82	72,161
857,99	63,482
858,15	59,142
858,32	63,682
858,49	70,027
858,65	76,429
858,82	71,277
858,99	65,355
859,16	72,304
859,32	68,237
859,49	45,493
859,66	45,998
859,83	55,784
859,99	56,783
860,16	53,460
860,33	60,437
860,49	66,485
860,66	69,437
860,83	66,135
861,00	66,645
861,16	69,745
861,33	65,010
861,50	50,489
861,66	66,983
861,83	85,824
862,00	63,229
862,16	65,622
862,33	66,588
862,50	90,637
862,67	69,389
862,83	53,803
863,00	73,660
863,17	88,402
863,33	77,331
863,50	50,479
863,67	50,674
863,83	85,250
864,00	87,673
864,17	54,269
864,33	52,688
864,50	77,186
864,67	69,370
864,83	68,314
865,00	61,939
865,17	55,646
865,33	70,036
865,50	37,769
865,67	53,532
865,83	79,974
866,00	110,501
866,17	68,978
866,33	75,256
866,50	105,359
866,66	83,599
866,83	73,858
867,00	86,769
867,16	71,477
867,33	91,439
867,50	47,444
867,66	71,603
867,83	86,676
868,00	91,223
868,16	68,985
868,33	71,084
868,49	78,711
868,66	79,701
868,83	80,695
868,99	73,922
869,16	91,863
869,32	87,219
869,49	54,414
869,66	45,401
869,82	109,304
869,99	85,162
870,15	67,266
870,32	73,252
870,49	100,499
870,65	116,796
870,82	73,867
870,98	75,661
871,15	116,421
871,32	77,021
871,48	52,131
871,65	69,291
871,81	66,851
871,98	48,501
872,15	69,226
872,31	63,881
872,48	137,585
872,64	60,845
872,81	28,854
872,97	79,408
873,14	104,855
873,31	88,878
873,47	91,201
873,64	70,261
873,80	107,322
873,97	96,674
874,13	48,459
874,30	49,105
874,46	122,521
874,63	57,720
874,80	73,710
874,96	66,495
875,13	131,034
875,29	73,653
875,46	91,312
875,62	48,256
875,79	113,577
875,95	64,724
876,12	63,105
876,28	46,596
876,45	121,692
876,61	60,433
876,78	78,251
876,94	34,755
877,11	122,634
877,27	97,719
877,44	90,719
877,60	68,658
877,77	103,574
877,94	118,976
878,10	99,563
878,27	72,405
878,43	145,195
878,60	59,461
878,76	56,367
878,93	73,345
879,09	145,831
879,26	88,833
879,42	90,417
879,58	70,521
879,75	129,237
879,91	184,539
880,08	7,892
880,24	56,531
880,41	116,882
880,57	111,105
880,74	61,763
880,90	82,725
881,07	81,060
881,23	111,469
881,40	93,227
881,56	108,744
881,73	102,715
881,89	101,564
882,06	33,194
882,22	210,056
882,38	130,133
882,55	148,787
882,71	31,030
882,88	89,601
883,04	265,702
883,21	139,786
883,37	99,541
883,54	78,529
883,70	250,018
883,86	126,992
884,03	105,147
884,19	46,000
884,36	10,620
884,52	216,659
884,69	143,273
884,85	61,469
885,01	164,444
885,18	122,308
885,34	151,241
885,51	11,156
885,67	76,752
>>>>> Data<<<<< Espectral Procesado Extremo
