Fichero De Datos De SpectraSuite
++++++++++++++++++++++++++++++++++++
Fecha: Wed Apr 22 11:25:55 CEST 2009
Usuario: evoflor
Presente Oscuro Del Espectro: Sí
La Referencia de Presente Del Espectro De: Sí
Muestreados de los componentes de Número de espectros: 1
Espectrómetros: USB4F02353
Tiempo de integración (usec): 500000 (USB4F02353)
Promedio de Espectros Hechos un: 5 (USB4F02353)
El Alisar Del Furgón: 0 (USB4F02353)
Párrafo de de Corregir del la del del de Eléctrica del obscuridad: Sí (USB4F02353)
Estrobo/Lámpara Permitido: No (USB4F02353)
Correct for Detector Non-linearity: No (USB4F02353)
Párrafo de de Corregir del la del del de Externa del luz: No (USB4F02353)
Procesado del espectro de Número de pixeles en: 3648
>>>>> Comienza Data<<<<< Espectral Procesado Del EL
177,79	319,405
178,00	319,405
178,22	319,405
178,44	1426,813
178,66	-172,520
178,88	285,147
179,09	138,894
179,31	281,322
179,53	386,563
179,75	259,518
179,96	137,586
180,18	-90,646
180,40	492,229
180,62	324,032
180,83	-198,099
181,05	-1731,220
181,27	-82560,000
181,49	-144,261
181,70	151,385
181,92	798,274
182,14	647,169
182,36	-8,145
182,58	281,400
182,79	850,714
183,01	-46,265
183,23	142,522
183,45	-284,492
183,66	-178,142
183,88	300,353
184,10	-2957,455
184,32	128,614
184,53	157,023
184,75	-39,821
184,97	60,959
185,18	-107,820
185,40	-362,308
185,62	75,061
185,84	-6,419
186,05	94,054
186,27	-132,873
186,49	5460,000
186,71	91,192
186,92	141,185
187,14	-160,461
187,36	123,707
187,58	59,422
187,79	42,766
188,01	159,598
188,23	-168,068
188,45	129,164
188,66	63,214
188,88	-2695,636
189,10	-1671,600
189,31	-7,270
189,53	-13,577
189,75	291,955
189,97	109,846
190,18	-379,571
190,40	374,471
190,62	-90,076
190,83	-220,156
191,05	257,170
191,27	230,743
191,49	226,634
191,70	-440,192
191,92	-364,068
192,14	-71,723
192,35	522,175
192,57	2847,429
192,79	153,662
193,01	97,602
193,22	178,701
193,44	-77,918
193,66	132,158
193,87	124,754
194,09	-96,692
194,31	154,154
194,53	464,056
194,74	86,710
194,96	89,463
195,18	160,332
195,39	-315,198
195,61	-100,514
195,83	-214,696
196,04	142,450
196,26	-170,653
196,48	38,454
196,70	214,235
196,91	86,151
197,13	183,949
197,35	-105,126
197,56	690,279
197,78	1368,358
198,00	231,189
198,21	785,243
198,43	-1055,581
198,65	151,219
198,86	714,604
199,08	28,721
199,30	165,304
199,51	-119,414
199,73	246,163
199,95	266,733
200,16	708,692
200,38	139,038
200,60	95,949
200,81	352,163
201,03	26,250
201,25	-1743,600
201,46	162,205
201,68	44,731
201,90	2490,000
202,11	-91,832
202,33	199,928
202,55	244,500
202,76	45,584
202,98	425,645
203,20	-557,019
203,41	-273,474
203,63	72,635
203,85	-137460,000
204,06	-6,821
204,28	-151,229
204,50	147,278
204,71	323,958
204,93	293,280
205,15	50,783
205,36	-230,134
205,58	160,192
205,80	-136,422
206,01	61,681
206,23	103,078
206,45	192,196
206,66	158,451
206,88	-8,672
207,10	236,727
207,31	364,450
207,53	76,457
207,75	78,301
207,96	609,403
208,18	-139,352
208,39	-10,596
208,61	4467,429
208,83	-297,651
209,04	213,405
209,26	-164,793
209,48	146,243
209,69	128,806
209,91	765,405
210,13	50,526
210,34	75,690
210,56	143,764
210,77	-1592,598
210,99	89,136
211,21	8191,765
211,42	-85,051
211,64	-44,455
211,86	111,555
212,07	181,734
212,29	224,779
212,50	138,046
212,72	334,846
212,94	148,739
213,15	90,351
213,37	126,090
213,58	-171,086
213,80	-280,714
214,02	9303,529
214,23	349,380
214,45	306,098
214,67	57,805
214,88	-343,490
215,10	-270,528
215,31	42,707
215,53	-156,000
215,75	142,017
215,96	870,559
216,18	21,972
216,39	213,713
216,61	296,201
216,83	408,750
217,04	1595,056
217,26	-12,000
217,47	120,768
217,69	304,071
217,91	123,557
218,12	-52860,000
218,34	98,807
218,55	488,753
218,77	136,341
218,99	111,583
219,20	-94,733
219,42	379,665
219,63	-99,275
219,85	1,581
220,06	262,154
220,28	205,900
220,50	6,523
220,71	67,454
220,93	3510,566
221,14	-1662,600
221,36	-11,587
221,58	-47,018
221,79	191,186
222,01	890,172
222,22	1087,895
222,44	-326,292
222,65	61,944
222,87	407,413
223,09	169,517
223,30	80,330
223,52	72,644
223,73	186,513
223,95	40,225
224,16	73,732
224,38	189,242
224,60	73,297
224,81	-27,703
225,03	30,463
225,24	128,785
225,46	-27,309
225,67	11,711
225,89	36,204
226,10	313,735
226,32	422,880
226,54	-17,122
226,75	27,592
226,97	107,550
227,18	143,077
227,40	90,920
227,61	74,484
227,83	24,139
228,04	53,577
228,26	68,175
228,47	32,618
228,69	191,245
228,91	181,192
229,12	112,166
229,34	50,546
229,55	59,612
229,77	10,590
229,98	0,842
230,20	63,681
230,41	-24,580
230,63	107,817
230,84	87,785
231,06	37,661
231,27	0,270
231,49	39,809
231,71	23,775
231,92	15,698
232,14	20,337
232,35	65,092
232,57	34,523
232,78	24,406
233,00	65,995
233,21	35,147
233,43	-5,964
233,64	27,871
233,86	46,259
234,07	23,783
234,29	20,223
234,50	24,477
234,72	48,590
234,93	30,342
235,15	34,560
235,36	32,578
235,58	33,027
235,79	56,235
236,01	11,183
236,22	15,455
236,44	35,894
236,65	22,255
236,87	16,481
237,08	-0,181
237,30	1,723
237,51	30,329
237,73	-2,496
237,94	8,644
238,16	27,199
238,37	16,286
238,59	7,761
238,80	11,957
239,02	7,131
239,23	7,389
239,45	-6,993
239,66	19,091
239,88	25,713
240,09	29,817
240,31	9,471
240,52	10,895
240,74	18,244
240,95	11,480
241,17	15,584
241,38	9,233
241,60	14,492
241,81	22,834
242,03	6,927
242,24	12,057
242,46	15,520
242,67	8,536
242,89	8,862
243,10	18,124
243,32	13,182
243,53	18,372
243,75	6,079
243,96	14,692
244,18	17,813
244,39	15,902
244,60	13,638
244,82	3,602
245,03	20,721
245,25	18,295
245,46	23,324
245,68	7,008
245,89	13,603
246,11	12,273
246,32	13,701
246,54	5,776
246,75	9,086
246,97	14,313
247,18	29,387
247,39	-0,585
247,61	16,712
247,82	13,360
248,04	5,629
248,25	12,218
248,47	13,350
248,68	14,864
248,90	0,341
249,11	9,913
249,33	19,987
249,54	11,147
249,75	10,972
249,97	4,713
250,18	12,975
250,40	17,193
250,61	-4,070
250,83	4,023
251,04	8,400
251,25	17,544
251,47	1,999
251,68	10,219
251,90	9,012
252,11	8,124
252,33	7,309
252,54	6,539
252,76	3,859
252,97	6,369
253,18	4,409
253,40	4,914
253,61	1,698
253,83	13,909
254,04	11,868
254,25	3,018
254,47	7,186
254,68	5,770
254,90	5,581
255,11	9,092
255,33	7,568
255,54	1,865
255,75	4,552
255,97	5,790
256,18	4,084
256,40	6,155
256,61	10,418
256,82	5,488
257,04	10,178
257,25	3,839
257,47	6,450
257,68	6,171
257,89	8,977
258,11	11,448
258,32	6,887
258,54	6,692
258,75	12,711
258,96	12,418
259,18	6,424
259,39	3,683
259,61	9,634
259,82	9,164
260,03	11,127
260,25	5,898
260,46	5,937
260,68	4,535
260,89	6,190
261,10	6,103
261,32	5,231
261,53	5,454
261,75	6,262
261,96	2,068
262,17	14,748
262,39	10,204
262,60	4,668
262,81	4,059
263,03	12,814
263,24	6,800
263,46	5,442
263,67	5,881
263,88	8,244
264,10	9,812
264,31	2,975
264,52	8,166
264,74	12,171
264,95	6,098
265,17	9,275
265,38	8,817
265,59	12,030
265,81	11,235
266,02	0,746
266,23	3,749
266,45	14,326
266,66	13,955
266,87	7,936
267,09	3,928
267,30	8,231
267,52	10,707
267,73	8,081
267,94	5,269
268,16	11,782
268,37	5,595
268,58	10,343
268,80	6,977
269,01	7,259
269,22	6,721
269,44	7,591
269,65	4,894
269,86	6,720
270,08	9,484
270,29	6,538
270,50	8,079
270,72	11,499
270,93	4,905
271,14	4,738
271,36	6,887
271,57	7,909
271,78	8,553
272,00	7,225
272,21	10,460
272,42	8,415
272,64	10,660
272,85	4,756
273,06	5,208
273,28	10,397
273,49	8,566
273,70	11,627
273,92	5,650
274,13	9,148
274,34	5,256
274,56	11,702
274,77	7,289
274,98	9,311
275,20	9,937
275,41	10,032
275,62	9,272
275,84	7,430
276,05	10,418
276,26	1,965
276,47	2,784
276,69	10,614
276,90	6,406
277,11	3,330
277,33	4,431
277,54	9,807
277,75	7,205
277,97	7,092
278,18	8,328
278,39	8,494
278,61	5,403
278,82	7,901
279,03	6,649
279,24	6,934
279,46	8,003
279,67	8,489
279,88	5,779
280,10	7,953
280,31	5,464
280,52	8,525
280,73	4,639
280,95	11,821
281,16	9,109
281,37	8,772
281,59	8,848
281,80	10,020
282,01	5,651
282,22	7,437
282,44	2,713
282,65	11,546
282,86	10,624
283,08	4,525
283,29	7,589
283,50	7,469
283,71	6,166
283,93	4,896
284,14	7,649
284,35	5,885
284,56	7,550
284,78	3,845
284,99	7,325
285,20	9,438
285,42	7,589
285,63	6,581
285,84	3,992
286,05	4,555
286,27	7,060
286,48	5,941
286,69	4,172
286,90	6,064
287,12	6,185
287,33	3,643
287,54	3,145
287,75	7,903
287,97	10,058
288,18	6,730
288,39	5,405
288,60	7,379
288,82	6,759
289,03	3,573
289,24	5,548
289,45	8,669
289,67	5,611
289,88	6,525
290,09	6,795
290,30	6,954
290,52	4,652
290,73	3,950
290,94	1,449
291,15	7,265
291,37	8,093
291,58	7,071
291,79	5,090
292,00	6,521
292,21	7,405
292,43	3,776
292,64	2,412
292,85	5,242
293,06	10,043
293,28	6,145
293,49	0,151
293,70	6,540
293,91	6,791
294,12	6,631
294,34	7,229
294,55	4,637
294,76	5,179
294,97	8,789
295,19	4,743
295,40	6,703
295,61	7,422
295,82	3,215
296,03	5,657
296,25	4,383
296,46	4,850
296,67	2,059
296,88	2,372
297,09	9,109
297,31	5,150
297,52	5,952
297,73	4,265
297,94	8,949
298,15	6,480
298,37	4,018
298,58	7,730
298,79	6,432
299,00	4,001
299,21	3,297
299,43	4,808
299,64	7,551
299,85	6,264
300,06	5,890
300,27	2,343
300,49	10,801
300,70	7,060
300,91	6,979
301,12	7,326
301,33	7,442
301,54	5,429
301,76	5,290
301,97	5,057
302,18	4,844
302,39	6,570
302,60	7,677
302,82	4,881
303,03	8,353
303,24	7,563
303,45	9,297
303,66	5,331
303,87	4,749
304,09	7,408
304,30	4,344
304,51	4,219
304,72	3,534
304,93	7,500
305,14	4,617
305,36	1,238
305,57	3,949
305,78	9,542
305,99	3,472
306,20	5,774
306,41	6,096
306,62	5,342
306,84	4,139
307,05	4,056
307,26	5,321
307,47	9,814
307,68	6,602
307,89	3,974
308,11	6,142
308,32	4,849
308,53	5,773
308,74	2,972
308,95	6,449
309,16	4,566
309,37	5,722
309,59	4,433
309,80	7,391
310,01	8,098
310,22	5,185
310,43	4,353
310,64	5,651
310,85	8,291
311,06	4,840
311,28	5,718
311,49	4,787
311,70	8,311
311,91	2,975
312,12	5,016
312,33	6,399
312,54	8,751
312,75	3,469
312,97	6,993
313,18	7,474
313,39	5,057
313,60	6,518
313,81	6,392
314,02	8,327
314,23	6,806
314,44	1,680
314,65	3,499
314,87	3,654
315,08	3,592
315,29	5,715
315,50	7,806
315,71	7,813
315,92	10,751
316,13	7,409
316,34	7,864
316,55	4,881
316,77	3,475
316,98	4,168
317,19	4,609
317,40	7,360
317,61	9,251
317,82	5,314
318,03	3,186
318,24	3,125
318,45	7,716
318,66	6,506
318,87	2,706
319,09	8,542
319,30	6,940
319,51	6,433
319,72	4,872
319,93	7,101
320,14	9,532
320,35	8,171
320,56	1,582
320,77	2,669
320,98	8,566
321,19	7,327
321,40	3,693
321,62	8,832
321,83	6,288
322,04	7,178
322,25	5,174
322,46	9,241
322,67	6,710
322,88	5,906
323,09	5,125
323,30	7,734
323,51	9,530
323,72	6,472
323,93	5,196
324,14	3,148
324,35	2,726
324,56	4,594
324,77	4,789
324,99	4,598
325,20	2,018
325,41	6,449
325,62	5,534
325,83	2,660
326,04	5,630
326,25	10,188
326,46	3,048
326,67	5,573
326,88	6,428
327,09	4,569
327,30	5,402
327,51	7,145
327,72	7,493
327,93	5,106
328,14	2,592
328,35	6,872
328,56	5,796
328,77	4,451
328,98	4,606
329,19	6,092
329,40	7,406
329,61	7,657
329,82	7,737
330,04	3,156
330,25	4,908
330,46	5,449
330,67	4,392
330,88	5,211
331,09	6,030
331,30	4,927
331,51	4,360
331,72	5,235
331,93	9,413
332,14	3,439
332,35	7,852
332,56	4,225
332,77	6,804
332,98	2,988
333,19	6,090
333,40	6,762
333,61	4,518
333,82	7,131
334,03	4,343
334,24	8,161
334,45	6,052
334,66	6,851
334,87	3,890
335,08	4,630
335,29	4,234
335,50	5,803
335,71	5,421
335,92	7,453
336,13	7,220
336,34	3,080
336,55	7,098
336,76	8,059
336,97	6,530
337,18	4,501
337,39	5,610
337,60	6,674
337,81	3,604
338,02	7,441
338,23	7,573
338,44	6,296
338,65	5,418
338,86	4,898
339,07	2,122
339,28	4,839
339,49	6,227
339,70	2,735
339,91	6,509
340,11	8,535
340,32	4,009
340,53	3,423
340,74	2,292
340,95	2,343
341,16	7,864
341,37	3,796
341,58	3,812
341,79	5,239
342,00	5,449
342,21	4,871
342,42	6,578
342,63	7,077
342,84	4,663
343,05	6,121
343,26	6,450
343,47	6,091
343,68	6,056
343,89	3,227
344,10	6,268
344,31	6,860
344,52	7,012
344,73	3,901
344,94	6,234
345,14	6,003
345,35	7,348
345,56	3,501
345,77	3,332
345,98	5,288
346,19	5,746
346,40	6,266
346,61	4,423
346,82	6,075
347,03	7,988
347,24	6,695
347,45	4,613
347,66	6,643
347,87	2,084
348,08	3,955
348,28	0,620
348,49	5,308
348,70	6,737
348,91	6,573
349,12	3,786
349,33	18,532
349,54	6,356
349,75	6,549
349,96	4,171
350,17	4,795
350,38	4,874
350,59	8,046
350,80	3,145
351,00	6,243
351,21	9,393
351,42	6,754
351,63	3,148
351,84	5,169
352,05	7,476
352,26	4,588
352,47	4,985
352,68	8,908
352,89	6,597
353,09	6,543
353,30	3,302
353,51	4,216
353,72	5,252
353,93	10,776
354,14	2,365
354,35	5,190
354,56	7,054
354,77	3,938
354,98	1,457
355,18	5,664
355,39	12,404
355,60	4,323
355,81	3,512
356,02	6,159
356,23	4,743
356,44	6,319
356,65	5,435
356,85	10,285
357,06	8,896
357,27	6,756
357,48	5,539
357,69	8,127
357,90	5,059
358,11	3,330
358,32	4,318
358,52	7,272
358,73	5,723
358,94	2,655
359,15	6,821
359,36	6,266
359,57	5,180
359,78	6,413
359,98	2,604
360,19	2,341
360,40	6,397
360,61	5,713
360,82	3,021
361,03	9,895
361,24	8,067
361,44	4,378
361,65	6,017
361,86	4,505
362,07	6,847
362,28	4,339
362,49	3,643
362,70	6,450
362,90	9,218
363,11	4,768
363,32	4,060
363,53	4,772
363,74	8,618
363,95	8,665
364,15	7,005
364,36	6,743
364,57	5,494
364,78	5,787
364,99	1,838
365,20	7,252
365,40	6,574
365,61	3,029
365,82	7,203
366,03	3,208
366,24	6,788
366,45	1,327
366,65	6,081
366,86	4,287
367,07	5,079
367,28	3,534
367,49	4,951
367,69	6,378
367,90	5,767
368,11	4,003
368,32	5,026
368,53	9,164
368,73	6,442
368,94	4,943
369,15	5,419
369,36	7,088
369,57	4,835
369,78	5,143
369,98	6,502
370,19	8,401
370,40	4,313
370,61	5,430
370,82	2,606
371,02	4,622
371,23	7,030
371,44	4,064
371,65	5,081
371,85	5,776
372,06	6,054
372,27	5,873
372,48	5,106
372,69	5,028
372,89	1,849
373,10	2,668
373,31	4,911
373,52	7,420
373,73	8,571
373,93	4,421
374,14	6,945
374,35	4,479
374,56	6,503
374,76	2,394
374,97	6,158
375,18	5,649
375,39	6,397
375,60	4,873
375,80	6,086
376,01	5,537
376,22	5,068
376,43	3,507
376,63	4,828
376,84	3,837
377,05	4,827
377,26	3,797
377,46	3,551
377,67	3,712
377,88	6,134
378,09	3,397
378,29	1,227
378,50	5,123
378,71	9,031
378,92	3,854
379,12	2,135
379,33	3,026
379,54	5,035
379,75	5,763
379,95	4,186
380,16	6,728
380,37	7,238
380,58	4,769
380,78	4,788
380,99	3,070
381,20	2,827
381,41	5,556
381,61	8,269
381,82	6,571
382,03	5,385
382,24	8,322
382,44	5,915
382,65	5,903
382,86	7,250
383,06	3,836
383,27	3,766
383,48	3,003
383,69	6,904
383,89	3,287
384,10	7,015
384,31	6,011
384,51	6,711
384,72	6,495
384,93	2,392
385,14	2,655
385,34	6,601
385,55	3,199
385,76	4,733
385,96	6,280
386,17	6,295
386,38	5,003
386,59	7,188
386,79	4,288
387,00	8,317
387,21	7,635
387,41	3,963
387,62	4,375
387,83	6,535
388,03	8,456
388,24	-1,874
388,45	6,970
388,66	6,649
388,86	4,723
389,07	2,360
389,28	10,036
389,48	8,972
389,69	3,357
389,90	4,744
390,10	5,943
390,31	6,250
390,52	0,788
390,72	3,646
390,93	6,024
391,14	3,366
391,34	6,142
391,55	6,778
391,76	9,405
391,96	7,658
392,17	5,043
392,38	9,665
392,58	4,953
392,79	5,175
393,00	4,264
393,20	4,806
393,41	4,333
393,62	6,641
393,82	5,667
394,03	6,567
394,24	5,222
394,44	7,527
394,65	5,087
394,86	5,825
395,06	11,725
395,27	3,729
395,48	4,409
395,68	6,129
395,89	7,549
396,10	10,001
396,30	2,968
396,51	1,168
396,72	4,950
396,92	4,040
397,13	5,868
397,34	1,024
397,54	8,770
397,75	6,557
397,95	4,750
398,16	4,870
398,37	3,282
398,57	5,230
398,78	6,944
398,99	5,491
399,19	3,892
399,40	5,433
399,60	3,926
399,81	3,970
400,02	6,764
400,22	7,366
400,43	5,835
400,64	6,882
400,84	5,055
401,05	5,232
401,25	5,225
401,46	5,891
401,67	5,407
401,87	8,720
402,08	2,840
402,29	7,791
402,49	8,094
402,70	9,988
402,90	5,563
403,11	7,242
403,32	7,440
403,52	4,220
403,73	9,253
403,93	10,014
404,14	11,250
404,35	7,420
404,55	5,425
404,76	3,898
404,96	5,183
405,17	12,672
405,38	10,542
405,58	3,797
405,79	14,410
405,99	10,414
406,20	5,157
406,40	3,517
406,61	9,500
406,82	8,378
407,02	8,182
407,23	10,307
407,43	7,478
407,64	6,575
407,85	5,118
408,05	4,311
408,26	15,405
408,46	15,967
408,67	6,062
408,87	6,905
409,08	9,008
409,29	12,955
409,49	11,709
409,70	9,230
409,90	11,381
410,11	13,251
410,31	12,301
410,52	10,525
410,72	10,368
410,93	12,267
411,14	7,498
411,34	7,198
411,55	12,581
411,75	13,016
411,96	9,663
412,16	11,455
412,37	8,231
412,57	13,348
412,78	10,304
412,99	12,220
413,19	14,138
413,40	11,861
413,60	8,659
413,81	10,389
414,01	10,449
414,22	10,571
414,42	11,967
414,63	7,238
414,83	15,722
415,04	16,634
415,24	15,185
415,45	11,925
415,65	11,216
415,86	16,260
416,07	11,615
416,27	12,717
416,48	17,808
416,68	20,643
416,89	11,574
417,09	10,854
417,30	18,186
417,50	13,009
417,71	16,195
417,91	16,548
418,12	11,886
418,32	17,521
418,53	18,795
418,73	13,390
418,94	19,111
419,14	18,535
419,35	11,630
419,55	14,930
419,76	18,992
419,96	14,053
420,17	13,621
420,37	14,348
420,58	19,401
420,78	16,033
420,99	14,479
421,19	22,263
421,40	16,421
421,60	20,099
421,81	15,802
422,01	19,701
422,22	15,332
422,42	21,317
422,63	16,512
422,83	19,378
423,04	22,199
423,24	20,021
423,45	17,636
423,65	21,551
423,86	23,068
424,06	23,122
424,27	17,329
424,47	11,997
424,67	14,981
424,88	20,107
425,08	18,241
425,29	24,081
425,49	16,415
425,70	12,534
425,90	20,856
426,11	20,191
426,31	18,766
426,52	21,065
426,72	17,914
426,93	19,191
427,13	26,661
427,33	19,510
427,54	21,538
427,74	22,272
427,95	26,783
428,15	18,471
428,36	22,849
428,56	20,018
428,77	25,870
428,97	20,708
429,18	20,747
429,38	18,820
429,58	22,515
429,79	22,987
429,99	16,168
430,20	14,045
430,40	25,943
430,61	16,452
430,81	17,414
431,01	23,642
431,22	21,752
431,42	26,246
431,63	22,165
431,83	20,381
432,04	22,748
432,24	24,921
432,44	22,756
432,65	23,509
432,85	20,189
433,06	23,731
433,26	20,622
433,47	23,150
433,67	22,626
433,87	23,833
434,08	20,876
434,28	22,725
434,49	19,818
434,69	26,733
434,89	20,579
435,10	24,868
435,30	23,386
435,51	21,097
435,71	20,899
435,91	21,373
436,12	20,076
436,32	22,450
436,53	22,527
436,73	20,857
436,93	23,713
437,14	25,209
437,34	24,264
437,55	21,298
437,75	21,990
437,95	24,601
438,16	21,181
438,36	22,756
438,57	24,882
438,77	20,313
438,97	25,118
439,18	26,330
439,38	21,883
439,58	19,829
439,79	22,132
439,99	21,461
440,20	25,074
440,40	23,854
440,60	27,655
440,81	26,746
441,01	22,454
441,21	27,783
441,42	27,113
441,62	24,417
441,83	23,919
442,03	23,736
442,23	24,000
442,44	22,972
442,64	22,385
442,84	22,082
443,05	21,415
443,25	23,201
443,45	22,812
443,66	24,896
443,86	21,288
444,06	20,759
444,27	24,318
444,47	26,248
444,67	21,995
444,88	25,873
445,08	25,425
445,28	26,710
445,49	22,608
445,69	18,491
445,90	27,087
446,10	27,840
446,30	22,695
446,51	21,265
446,71	27,067
446,91	30,206
447,12	28,842
447,32	24,216
447,52	27,697
447,72	25,454
447,93	27,552
448,13	21,228
448,33	29,250
448,54	24,526
448,74	21,158
448,94	22,619
449,15	31,036
449,35	24,272
449,55	22,060
449,76	23,270
449,96	28,218
450,16	27,389
450,37	23,198
450,57	22,837
450,77	20,253
450,98	26,394
451,18	26,119
451,38	26,048
451,58	28,643
451,79	26,830
451,99	25,815
452,19	26,269
452,40	24,519
452,60	22,427
452,80	24,418
453,00	24,655
453,21	26,026
453,41	29,544
453,61	26,510
453,82	26,822
454,02	17,647
454,22	25,253
454,42	27,115
454,63	22,868
454,83	26,691
455,03	29,196
455,24	24,522
455,44	22,404
455,64	20,707
455,84	22,880
456,05	27,149
456,25	21,215
456,45	24,183
456,65	26,479
456,86	26,317
457,06	26,596
457,26	27,189
457,47	30,145
457,67	24,146
457,87	20,197
458,07	22,718
458,28	27,525
458,48	25,137
458,68	18,458
458,88	24,604
459,09	25,861
459,29	30,904
459,49	23,847
459,69	23,143
459,90	29,702
460,10	24,501
460,30	22,544
460,50	23,377
460,71	28,731
460,91	23,235
461,11	23,598
461,31	23,893
461,52	26,594
461,72	26,831
461,92	28,466
462,12	33,520
462,32	21,527
462,53	23,547
462,73	22,713
462,93	29,193
463,13	26,054
463,34	24,576
463,54	25,028
463,74	29,057
463,94	24,181
464,14	24,104
464,35	21,497
464,55	26,104
464,75	31,717
464,95	24,064
465,16	21,085
465,36	21,995
465,56	25,812
465,76	24,897
465,96	21,533
466,17	24,188
466,37	24,304
466,57	28,108
466,77	24,300
466,97	23,415
467,18	26,469
467,38	24,001
467,58	25,663
467,78	29,531
467,98	26,274
468,19	27,534
468,39	26,875
468,59	26,375
468,79	27,828
468,99	25,899
469,19	22,725
469,40	27,741
469,60	22,386
469,80	22,457
470,00	26,179
470,20	27,807
470,41	20,957
470,61	22,101
470,81	25,483
471,01	23,562
471,21	27,550
471,41	25,205
471,62	23,720
471,82	21,495
472,02	22,728
472,22	22,459
472,42	22,591
472,62	26,180
472,83	23,552
473,03	25,651
473,23	22,195
473,43	26,478
473,63	22,104
473,83	26,741
474,03	20,897
474,24	30,167
474,44	22,218
474,64	24,558
474,84	22,774
475,04	23,040
475,24	23,559
475,45	22,715
475,65	22,200
475,85	24,635
476,05	20,952
476,25	23,214
476,45	20,373
476,65	30,175
476,85	27,887
477,06	24,011
477,26	21,425
477,46	22,458
477,66	22,385
477,86	26,114
478,06	26,467
478,26	30,463
478,46	23,023
478,67	24,502
478,87	21,729
479,07	22,443
479,27	24,950
479,47	22,560
479,67	20,927
479,87	20,931
480,07	22,350
480,28	20,535
480,48	20,393
480,68	27,360
480,88	28,080
481,08	24,309
481,28	25,424
481,48	23,524
481,68	22,635
481,88	22,306
482,08	21,172
482,29	27,399
482,49	21,463
482,69	21,516
482,89	21,575
483,09	24,619
483,29	24,585
483,49	19,405
483,69	22,810
483,89	22,317
484,09	20,231
484,29	18,063
484,50	20,995
484,70	21,903
484,90	22,974
485,10	20,289
485,30	23,433
485,50	25,996
485,70	21,854
485,90	22,378
486,10	19,517
486,30	21,425
486,50	23,626
486,70	21,985
486,90	22,609
487,10	24,715
487,30	23,463
487,51	22,593
487,71	20,468
487,91	19,527
488,11	22,644
488,31	19,060
488,51	23,222
488,71	22,266
488,91	25,928
489,11	21,734
489,31	22,978
489,51	21,035
489,71	23,398
489,91	22,836
490,11	21,675
490,31	22,792
490,51	23,644
490,71	20,854
490,91	21,951
491,11	24,648
491,31	25,432
491,51	18,381
491,72	21,065
491,92	22,905
492,12	25,707
492,32	21,211
492,52	21,923
492,72	24,660
492,92	22,068
493,12	21,749
493,32	19,247
493,52	19,443
493,72	20,977
493,92	23,455
494,12	21,343
494,32	22,865
494,52	21,170
494,72	20,975
494,92	19,332
495,12	23,811
495,32	25,163
495,52	18,537
495,72	23,445
495,92	24,884
496,12	24,502
496,32	16,076
496,52	18,373
496,72	19,604
496,92	22,411
497,12	20,201
497,32	23,301
497,52	24,577
497,72	25,432
497,92	20,373
498,12	21,654
498,32	20,778
498,52	21,540
498,72	19,019
498,92	18,465
499,12	23,546
499,32	20,803
499,52	21,724
499,72	23,602
499,92	21,920
500,12	23,280
500,32	23,562
500,52	20,484
500,72	24,261
500,91	23,188
501,11	21,198
501,31	18,326
501,51	22,464
501,71	22,435
501,91	23,299
502,11	19,952
502,31	20,466
502,51	22,395
502,71	21,024
502,91	19,586
503,11	21,161
503,31	19,763
503,51	17,810
503,71	18,332
503,91	24,203
504,11	24,441
504,31	23,485
504,51	21,975
504,71	25,187
504,91	20,681
505,10	21,593
505,30	19,728
505,50	24,565
505,70	18,628
505,90	20,583
506,10	17,701
506,30	18,208
506,50	24,323
506,70	24,198
506,90	20,808
507,10	20,367
507,30	21,396
507,50	22,961
507,70	21,526
507,89	22,250
508,09	21,325
508,29	19,402
508,49	20,362
508,69	20,883
508,89	18,929
509,09	19,433
509,29	18,691
509,49	21,089
509,69	25,873
509,89	19,210
510,09	17,942
510,28	20,461
510,48	20,165
510,68	19,723
510,88	18,227
511,08	19,863
511,28	22,760
511,48	19,178
511,68	16,926
511,88	17,561
512,07	20,608
512,27	20,389
512,47	19,595
512,67	19,675
512,87	16,353
513,07	20,057
513,27	16,862
513,47	18,100
513,67	17,295
513,86	20,155
514,06	18,810
514,26	18,385
514,46	21,471
514,66	20,443
514,86	19,969
515,06	21,019
515,26	21,111
515,45	17,934
515,65	17,056
515,85	18,122
516,05	15,559
516,25	17,720
516,45	20,960
516,65	18,165
516,84	20,471
517,04	22,459
517,24	17,869
517,44	18,369
517,64	21,784
517,84	21,250
518,04	20,864
518,23	20,891
518,43	20,452
518,63	15,141
518,83	18,234
519,03	18,532
519,23	20,634
519,42	18,488
519,62	17,910
519,82	15,210
520,02	15,854
520,22	16,285
520,42	15,631
520,61	20,196
520,81	21,518
521,01	19,120
521,21	14,682
521,41	17,526
521,61	22,819
521,80	15,678
522,00	16,240
522,20	20,696
522,40	20,162
522,60	16,904
522,79	16,880
522,99	19,496
523,19	15,641
523,39	16,343
523,59	17,009
523,78	20,984
523,98	17,830
524,18	17,815
524,38	16,423
524,58	17,729
524,77	20,004
524,97	18,203
525,17	17,361
525,37	16,934
525,57	18,760
525,76	15,847
525,96	18,483
526,16	15,437
526,36	15,698
526,56	18,328
526,75	14,262
526,95	16,569
527,15	16,844
527,35	15,382
527,55	14,417
527,74	16,486
527,94	14,904
528,14	13,707
528,34	15,545
528,53	14,359
528,73	16,822
528,93	16,592
529,13	14,546
529,32	17,336
529,52	17,424
529,72	14,777
529,92	14,367
530,12	15,041
530,31	13,891
530,51	16,297
530,71	18,123
530,91	17,284
531,10	10,802
531,30	15,446
531,50	14,381
531,70	17,233
531,89	14,681
532,09	14,715
532,29	15,112
532,49	14,352
532,68	14,094
532,88	13,418
533,08	15,981
533,28	15,129
533,47	16,262
533,67	16,232
533,87	15,635
534,06	21,723
534,26	16,568
534,46	14,233
534,66	15,341
534,85	16,734
535,05	11,228
535,25	14,359
535,45	10,583
535,64	16,124
535,84	14,841
536,04	13,382
536,23	14,757
536,43	16,511
536,63	14,594
536,83	13,355
537,02	15,041
537,22	14,613
537,42	14,495
537,61	13,523
537,81	14,717
538,01	15,725
538,20	16,550
538,40	14,478
538,60	14,155
538,80	14,997
538,99	14,342
539,19	12,549
539,39	12,796
539,58	15,533
539,78	12,378
539,98	14,068
540,17	12,027
540,37	14,117
540,57	12,678
540,76	13,768
540,96	10,464
541,16	13,918
541,36	12,076
541,55	9,573
541,75	10,999
541,95	11,049
542,14	11,316
542,34	10,166
542,54	9,496
542,73	12,209
542,93	11,862
543,13	11,569
543,32	10,862
543,52	11,753
543,72	9,348
543,91	11,128
544,11	9,972
544,31	9,667
544,50	11,934
544,70	11,205
544,89	12,415
545,09	12,851
545,29	10,244
545,48	10,865
545,68	10,632
545,88	11,706
546,07	10,909
546,27	10,488
546,47	11,862
546,66	13,536
546,86	14,689
547,06	10,476
547,25	11,307
547,45	12,680
547,64	10,807
547,84	14,496
548,04	14,171
548,23	13,734
548,43	14,139
548,63	13,159
548,82	11,315
549,02	11,801
549,21	12,346
549,41	12,326
549,61	13,798
549,80	14,264
550,00	12,249
550,20	9,472
550,39	12,797
550,59	12,470
550,78	11,729
550,98	11,648
551,18	14,362
551,37	12,659
551,57	12,578
551,76	12,637
551,96	10,525
552,16	11,925
552,35	14,003
552,55	13,880
552,74	14,270
552,94	14,367
553,14	13,061
553,33	12,203
553,53	11,470
553,72	12,304
553,92	13,649
554,12	12,059
554,31	12,981
554,51	14,451
554,70	12,278
554,90	13,593
555,09	14,371
555,29	13,712
555,49	12,505
555,68	15,315
555,88	10,548
556,07	9,530
556,27	14,692
556,46	12,047
556,66	9,639
556,86	13,491
557,05	12,857
557,25	11,400
557,44	12,773
557,64	11,859
557,83	12,792
558,03	13,020
558,22	12,563
558,42	13,692
558,62	14,617
558,81	14,844
559,01	13,348
559,20	12,747
559,40	13,508
559,59	12,048
559,79	11,639
559,98	13,652
560,18	13,245
560,37	12,008
560,57	16,106
560,76	13,096
560,96	11,411
561,16	14,289
561,35	12,405
561,55	16,591
561,74	12,321
561,94	11,492
562,13	14,616
562,33	15,386
562,52	12,753
562,72	13,294
562,91	10,313
563,11	12,741
563,30	14,446
563,50	9,404
563,69	11,602
563,89	12,078
564,08	14,765
564,28	11,356
564,47	12,229
564,67	10,905
564,86	13,809
565,06	13,385
565,25	11,179
565,45	13,211
565,64	16,733
565,84	12,027
566,03	11,349
566,23	13,203
566,42	13,835
566,62	11,473
566,81	11,557
567,01	11,580
567,20	14,074
567,40	11,501
567,59	10,831
567,79	14,413
567,98	16,653
568,18	12,455
568,37	14,383
568,57	13,293
568,76	15,115
568,96	12,157
569,15	12,013
569,35	14,044
569,54	15,290
569,73	14,262
569,93	10,562
570,12	12,109
570,32	14,651
570,51	12,373
570,71	13,613
570,90	15,580
571,10	11,568
571,29	12,427
571,49	12,151
571,68	13,226
571,87	14,027
572,07	12,724
572,26	11,183
572,46	13,755
572,65	13,223
572,85	10,438
573,04	13,485
573,24	11,210
573,43	15,004
573,62	13,876
573,82	12,927
574,01	14,235
574,21	13,583
574,40	11,837
574,60	11,375
574,79	13,648
574,98	11,949
575,18	14,002
575,37	12,143
575,57	13,600
575,76	13,731
575,96	13,139
576,15	13,446
576,34	13,579
576,54	14,613
576,73	13,193
576,93	13,964
577,12	13,866
577,31	14,209
577,51	13,149
577,70	13,138
577,90	14,624
578,09	13,895
578,28	13,075
578,48	14,432
578,67	15,484
578,87	13,551
579,06	13,021
579,25	14,998
579,45	15,165
579,64	14,211
579,84	13,896
580,03	14,203
580,22	16,106
580,42	14,020
580,61	14,986
580,81	15,692
581,00	14,856
581,19	15,089
581,39	14,112
581,58	14,023
581,77	14,350
581,97	16,195
582,16	14,087
582,35	13,391
582,55	15,294
582,74	15,828
582,94	14,701
583,13	12,495
583,32	14,759
583,52	15,623
583,71	15,150
583,90	15,459
584,10	16,404
584,29	17,207
584,48	13,928
584,68	15,100
584,87	17,482
585,06	16,219
585,26	15,960
585,45	15,925
585,65	16,766
585,84	14,617
586,03	15,454
586,23	13,821
586,42	16,424
586,61	17,445
586,81	16,113
587,00	15,816
587,19	15,987
587,39	19,038
587,58	16,971
587,77	17,221
587,97	16,954
588,16	16,351
588,35	17,421
588,54	17,950
588,74	16,530
588,93	18,761
589,12	17,388
589,32	17,777
589,51	17,629
589,70	15,463
589,90	17,601
590,09	17,780
590,28	20,707
590,48	16,705
590,67	18,266
590,86	17,557
591,06	19,790
591,25	20,147
591,44	19,723
591,63	18,166
591,83	19,833
592,02	19,764
592,21	17,795
592,41	18,522
592,60	20,163
592,79	19,918
592,98	18,516
593,18	20,503
593,37	19,945
593,56	20,649
593,76	19,785
593,95	19,083
594,14	17,996
594,33	22,419
594,53	19,520
594,72	19,684
594,91	22,259
595,10	21,444
595,30	21,431
595,49	19,497
595,68	21,006
595,88	21,942
596,07	21,057
596,26	21,810
596,45	22,114
596,65	19,733
596,84	19,898
597,03	21,860
597,22	22,689
597,42	23,077
597,61	21,087
597,80	21,170
597,99	22,310
598,19	23,111
598,38	22,933
598,57	21,306
598,76	22,655
598,95	23,507
599,15	24,653
599,34	23,613
599,53	22,021
599,72	22,992
599,92	23,732
600,11	23,392
600,30	24,140
600,49	25,347
600,69	23,662
600,88	23,994
601,07	23,559
601,26	22,917
601,45	24,799
601,65	22,892
601,84	23,967
602,03	22,816
602,22	25,587
602,42	25,224
602,61	24,740
602,80	24,514
602,99	25,223
603,18	24,040
603,38	25,924
603,57	24,189
603,76	25,428
603,95	24,186
604,14	25,279
604,34	26,746
604,53	24,661
604,72	26,649
604,91	25,853
605,10	24,937
605,29	26,905
605,49	24,725
605,68	25,828
605,87	26,228
606,06	26,188
606,25	24,496
606,45	25,901
606,64	25,898
606,83	27,348
607,02	25,854
607,21	27,070
607,40	25,560
607,60	25,438
607,79	25,253
607,98	24,678
608,17	26,048
608,36	26,179
608,55	25,485
608,75	27,183
608,94	27,618
609,13	24,003
609,32	23,873
609,51	25,089
609,70	23,350
609,89	25,433
610,09	25,731
610,28	27,195
610,47	25,246
610,66	24,481
610,85	23,751
611,04	26,145
611,23	23,544
611,43	24,863
611,62	24,202
611,81	24,652
612,00	24,267
612,19	23,155
612,38	25,593
612,57	26,405
612,77	25,121
612,96	24,181
613,15	26,326
613,34	28,592
613,53	27,052
613,72	26,903
613,91	26,443
614,10	26,623
614,29	28,488
614,49	25,875
614,68	26,682
614,87	28,431
615,06	30,628
615,25	26,237
615,44	29,638
615,63	28,440
615,82	27,073
616,01	29,131
616,21	27,989
616,40	30,097
616,59	31,654
616,78	28,798
616,97	30,206
617,16	29,505
617,35	30,231
617,54	31,420
617,73	31,261
617,92	29,475
618,11	31,323
618,31	29,108
618,50	29,721
618,69	31,349
618,88	29,874
619,07	28,334
619,26	28,667
619,45	30,635
619,64	29,076
619,83	29,563
620,02	29,012
620,21	32,213
620,40	31,421
620,59	28,280
620,78	28,159
620,97	30,697
621,17	29,635
621,36	30,155
621,55	30,584
621,74	30,483
621,93	30,951
622,12	32,306
622,31	30,051
622,50	31,359
622,69	33,125
622,88	32,183
623,07	33,203
623,26	31,749
623,45	33,767
623,64	31,427
623,83	30,331
624,02	32,916
624,21	34,328
624,40	31,126
624,59	30,743
624,78	33,199
624,97	33,974
625,16	29,454
625,35	28,608
625,54	29,935
625,73	30,868
625,92	31,590
626,12	33,397
626,31	32,980
626,50	33,159
626,69	32,941
626,88	31,190
627,07	33,086
627,26	33,123
627,45	31,978
627,64	31,811
627,83	31,598
628,02	31,765
628,21	31,139
628,40	31,383
628,59	33,316
628,78	30,487
628,97	31,781
629,16	31,012
629,35	33,289
629,54	34,463
629,73	31,793
629,92	31,448
630,10	32,861
630,29	32,380
630,48	32,130
630,67	31,967
630,86	34,064
631,05	33,209
631,24	33,109
631,43	31,855
631,62	31,766
631,81	33,543
632,00	32,136
632,19	31,677
632,38	33,853
632,57	29,698
632,76	33,863
632,95	33,129
633,14	34,762
633,33	33,633
633,52	32,140
633,71	34,615
633,90	32,628
634,09	34,378
634,28	32,864
634,47	31,812
634,66	32,994
634,85	34,826
635,04	35,453
635,22	34,325
635,41	33,456
635,60	34,894
635,79	34,752
635,98	31,966
636,17	32,923
636,36	33,461
636,55	32,902
636,74	32,941
636,93	34,478
637,12	35,101
637,31	32,568
637,50	32,254
637,69	33,646
637,87	34,083
638,06	34,222
638,25	33,680
638,44	32,949
638,63	32,858
638,82	34,055
639,01	34,318
639,20	33,706
639,39	35,792
639,58	33,648
639,77	34,359
639,95	33,061
640,14	35,941
640,33	34,773
640,52	34,592
640,71	34,695
640,90	34,518
641,09	36,705
641,28	35,389
641,47	35,877
641,66	35,281
641,84	35,521
642,03	34,584
642,22	34,202
642,41	36,883
642,60	34,485
642,79	36,057
642,98	35,971
643,17	33,478
643,35	33,408
643,54	35,086
643,73	36,786
643,92	33,494
644,11	36,265
644,30	32,506
644,49	37,585
644,67	34,336
644,86	33,706
645,05	37,208
645,24	34,488
645,43	34,360
645,62	35,648
645,81	34,445
645,99	35,818
646,18	35,601
646,37	33,460
646,56	34,040
646,75	35,277
646,94	35,636
647,13	33,500
647,31	33,154
647,50	35,190
647,69	36,339
647,88	35,865
648,07	34,110
648,26	40,187
648,44	34,633
648,63	34,049
648,82	34,739
649,01	36,285
649,20	32,957
649,38	33,774
649,57	35,432
649,76	34,035
649,95	35,583
650,14	33,566
650,33	34,217
650,51	35,866
650,70	35,734
650,89	35,118
651,08	34,037
651,27	36,933
651,45	34,461
651,64	34,584
651,83	35,485
652,02	33,501
652,21	35,414
652,39	35,539
652,58	35,056
652,77	34,385
652,96	36,340
653,15	34,331
653,33	33,965
653,52	34,987
653,71	36,849
653,90	34,199
654,09	34,600
654,27	35,781
654,46	37,180
654,65	34,098
654,84	35,286
655,02	36,915
655,21	36,526
655,40	36,378
655,59	35,064
655,77	36,006
655,96	35,156
656,15	36,516
656,34	36,406
656,53	35,126
656,71	35,358
656,90	35,629
657,09	36,276
657,28	35,872
657,46	33,400
657,65	35,676
657,84	34,460
658,03	36,575
658,21	36,461
658,40	34,175
658,59	34,429
658,78	36,548
658,96	35,274
659,15	34,822
659,34	34,989
659,52	34,724
659,71	37,015
659,90	34,517
660,09	35,432
660,27	34,513
660,46	37,187
660,65	35,338
660,84	33,568
661,02	35,879
661,21	34,917
661,40	35,322
661,58	34,795
661,77	36,325
661,96	32,469
662,15	34,953
662,33	34,554
662,52	34,085
662,71	35,116
662,89	35,067
663,08	34,970
663,27	35,501
663,45	33,750
663,64	35,749
663,83	32,636
664,02	34,584
664,20	34,837
664,39	33,453
664,58	35,406
664,76	34,969
664,95	34,436
665,14	35,218
665,32	33,798
665,51	35,114
665,70	34,282
665,88	35,547
666,07	34,600
666,26	34,602
666,44	36,666
666,63	33,227
666,82	33,916
667,00	35,787
667,19	33,432
667,38	34,341
667,56	35,350
667,75	34,216
667,94	35,165
668,12	33,007
668,31	34,831
668,50	34,843
668,68	35,400
668,87	33,856
669,06	33,991
669,24	34,518
669,43	35,324
669,62	33,383
669,80	32,661
669,99	33,761
670,18	35,150
670,36	33,643
670,55	34,165
670,74	33,565
670,92	33,005
671,11	36,184
671,29	34,314
671,48	33,643
671,67	35,040
671,85	35,403
672,04	33,592
672,23	31,531
672,41	33,024
672,60	34,859
672,78	32,694
672,97	34,821
673,16	32,874
673,34	34,970
673,53	33,727
673,71	35,838
673,90	35,488
674,09	33,124
674,27	31,526
674,46	34,799
674,64	35,114
674,83	34,342
675,02	32,348
675,20	33,277
675,39	34,643
675,57	34,207
675,76	34,128
675,95	36,447
676,13	34,420
676,32	35,034
676,50	34,332
676,69	32,398
676,88	33,613
677,06	32,395
677,25	34,233
677,43	34,747
677,62	35,749
677,80	34,574
677,99	34,028
678,18	34,297
678,36	36,368
678,55	33,208
678,73	32,761
678,92	34,716
679,10	35,175
679,29	35,270
679,48	31,258
679,66	35,172
679,85	34,431
680,03	34,436
680,22	33,049
680,40	32,199
680,59	33,704
680,77	33,179
680,96	34,179
681,15	32,404
681,33	35,355
681,52	33,051
681,70	34,053
681,89	36,538
682,07	35,275
682,26	35,373
682,44	34,209
682,63	34,156
682,81	34,749
683,00	36,202
683,18	34,409
683,37	36,511
683,55	35,123
683,74	35,641
683,92	40,486
684,11	35,891
684,29	34,291
684,48	33,468
684,67	34,759
684,85	34,215
685,04	35,243
685,22	34,753
685,41	34,495
685,59	36,158
685,78	34,195
685,96	33,880
686,15	35,146
686,33	34,839
686,52	33,496
686,70	34,178
686,89	35,235
687,07	35,884
687,26	36,229
687,44	35,416
687,62	35,059
687,81	35,521
687,99	35,538
688,18	34,202
688,36	35,398
688,55	36,803
688,73	35,638
688,92	33,361
689,10	35,869
689,29	37,405
689,47	36,818
689,66	35,093
689,84	34,049
690,03	37,504
690,21	35,858
690,40	35,360
690,58	35,547
690,76	34,194
690,95	36,436
691,13	35,308
691,32	34,347
691,50	37,230
691,69	37,509
691,87	35,425
692,06	35,092
692,24	34,138
692,43	37,271
692,61	34,653
692,79	35,836
692,98	33,896
693,16	37,681
693,35	34,320
693,53	36,589
693,72	36,586
693,90	37,052
694,08	35,584
694,27	36,041
694,45	38,797
694,64	38,812
694,82	35,890
695,01	36,646
695,19	37,441
695,37	37,282
695,56	34,297
695,74	37,679
695,93	37,384
696,11	36,177
696,29	37,199
696,48	36,463
696,66	38,093
696,85	36,194
697,03	34,764
697,21	37,402
697,40	35,949
697,58	38,025
697,77	36,817
697,95	37,505
698,13	38,609
698,32	36,652
698,50	35,294
698,69	37,300
698,87	38,370
699,05	35,855
699,24	35,461
699,42	37,758
699,60	34,140
699,79	36,767
699,97	36,669
700,16	34,187
700,34	37,950
700,52	37,869
700,71	36,779
700,89	36,426
701,07	38,315
701,26	36,530
701,44	36,363
701,63	35,997
701,81	36,716
701,99	38,019
702,18	35,762
702,36	35,019
702,54	37,001
702,73	35,950
702,91	36,668
703,09	35,701
703,28	37,505
703,46	37,825
703,64	35,672
703,83	35,705
704,01	37,354
704,19	37,254
704,38	35,301
704,56	35,263
704,74	38,031
704,93	36,546
705,11	36,501
705,29	36,789
705,48	39,842
705,66	37,774
705,84	36,441
706,03	35,893
706,21	36,952
706,39	34,750
706,58	36,706
706,76	34,479
706,94	36,334
707,12	35,932
707,31	34,846
707,49	34,960
707,67	37,931
707,86	38,090
708,04	35,559
708,22	35,994
708,41	36,967
708,59	36,892
708,77	34,257
708,95	37,165
709,14	38,933
709,32	36,412
709,50	35,281
709,69	34,306
709,87	36,101
710,05	36,068
710,23	36,011
710,42	35,421
710,60	35,605
710,78	38,417
710,97	36,806
711,15	36,955
711,33	39,068
711,51	35,739
711,70	35,113
711,88	35,539
712,06	36,668
712,24	37,203
712,43	36,065
712,61	35,256
712,79	37,430
712,97	35,438
713,16	37,515
713,34	34,971
713,52	38,280
713,70	36,966
713,89	36,569
714,07	36,391
714,25	36,254
714,43	37,464
714,62	36,134
714,80	36,776
714,98	35,218
715,16	36,691
715,35	36,481
715,53	35,497
715,71	37,022
715,89	38,471
716,07	37,614
716,26	40,939
716,44	40,073
716,62	37,471
716,80	36,695
716,99	36,477
717,17	38,140
717,35	37,200
717,53	35,156
717,71	36,252
717,90	37,763
718,08	36,286
718,26	34,690
718,44	36,608
718,62	38,503
718,81	36,286
718,99	37,221
719,17	35,860
719,35	37,423
719,53	36,580
719,72	35,945
719,90	36,648
720,08	37,043
720,26	36,460
720,44	35,378
720,62	35,814
720,81	36,063
720,99	40,421
721,17	35,871
721,35	36,801
721,53	36,312
721,72	36,927
721,90	37,887
722,08	35,158
722,26	37,514
722,44	36,870
722,62	34,963
722,81	36,115
722,99	36,482
723,17	37,998
723,35	37,258
723,53	34,928
723,71	39,310
723,89	38,569
724,08	33,483
724,26	37,338
724,44	36,502
724,62	35,331
724,80	35,328
724,98	35,419
725,16	39,265
725,35	36,345
725,53	35,553
725,71	36,653
725,89	36,409
726,07	38,630
726,25	40,827
726,43	36,271
726,61	37,957
726,80	36,728
726,98	37,917
727,16	37,160
727,34	37,270
727,52	37,079
727,70	37,370
727,88	36,656
728,06	33,935
728,25	35,022
728,43	36,321
728,61	34,935
728,79	35,739
728,97	36,186
729,15	36,844
729,33	37,057
729,51	36,582
729,69	37,527
729,87	35,392
730,06	36,067
730,24	37,185
730,42	40,061
730,60	36,456
730,78	37,622
730,96	36,269
731,14	37,769
731,32	36,665
731,50	34,906
731,68	36,197
731,86	37,365
732,04	37,907
732,22	36,606
732,41	39,591
732,59	36,093
732,77	38,339
732,95	39,443
733,13	38,199
733,31	37,474
733,49	35,645
733,67	37,754
733,85	39,475
734,03	36,584
734,21	36,041
734,39	35,631
734,57	38,036
734,75	37,905
734,93	35,895
735,11	36,602
735,29	34,862
735,47	38,633
735,65	37,507
735,84	36,853
736,02	37,331
736,20	39,639
736,38	36,646
736,56	35,808
736,74	38,137
736,92	36,498
737,10	37,137
737,28	37,967
737,46	36,713
737,64	35,152
737,82	35,353
738,00	36,971
738,18	38,882
738,36	38,366
738,54	37,999
738,72	36,256
738,90	36,394
739,08	39,357
739,26	34,979
739,44	36,057
739,62	36,223
739,80	38,142
739,98	35,081
740,16	37,906
740,34	37,459
740,52	39,617
740,70	37,829
740,88	35,657
741,06	37,401
741,24	38,197
741,42	37,550
741,60	35,148
741,78	39,372
741,96	37,494
742,14	37,087
742,32	36,724
742,50	37,190
742,68	38,813
742,86	36,314
743,04	34,812
743,21	38,835
743,39	39,253
743,57	37,046
743,75	35,706
743,93	35,993
744,11	35,604
744,29	38,630
744,47	37,451
744,65	36,346
744,83	36,211
745,01	35,198
745,19	38,607
745,37	38,204
745,55	36,466
745,73	35,597
745,91	34,357
746,09	34,824
746,27	34,851
746,45	34,562
746,62	36,865
746,80	39,149
746,98	37,557
747,16	36,905
747,34	37,044
747,52	37,659
747,70	37,263
747,88	35,105
748,06	37,639
748,24	37,523
748,42	38,243
748,60	36,073
748,78	36,784
748,95	38,592
749,13	40,498
749,31	35,383
749,49	39,327
749,67	36,766
749,85	39,360
750,03	35,590
750,21	36,193
750,39	38,844
750,57	38,570
750,74	38,531
750,92	36,994
751,10	37,095
751,28	35,790
751,46	36,661
751,64	37,712
751,82	37,278
752,00	39,691
752,17	37,718
752,35	35,072
752,53	37,746
752,71	36,851
752,89	37,529
753,07	37,174
753,25	38,513
753,43	35,892
753,60	39,823
753,78	35,028
753,96	38,634
754,14	36,004
754,32	38,604
754,50	37,329
754,68	37,728
754,85	39,266
755,03	38,502
755,21	36,287
755,39	40,367
755,57	36,991
755,75	35,951
755,92	36,472
756,10	38,223
756,28	38,396
756,46	35,099
756,64	36,193
756,82	38,527
756,99	35,696
757,17	37,868
757,35	36,860
757,53	37,739
757,71	38,546
757,89	35,501
758,06	37,002
758,24	38,567
758,42	37,083
758,60	35,411
758,78	36,469
758,95	38,767
759,13	37,225
759,31	36,285
759,49	35,594
759,67	36,554
759,84	36,127
760,02	38,576
760,20	35,695
760,38	37,731
760,56	36,240
760,73	35,871
760,91	37,566
761,09	38,672
761,27	36,139
761,45	36,558
761,62	36,835
761,80	38,196
761,98	37,308
762,16	36,496
762,33	34,529
762,51	39,266
762,69	37,741
762,87	36,088
763,05	36,175
763,22	38,119
763,40	36,497
763,58	34,210
763,76	36,914
763,93	38,881
764,11	38,178
764,29	35,612
764,47	37,409
764,64	37,832
764,82	39,979
765,00	35,845
765,18	32,582
765,35	35,995
765,53	36,721
765,71	38,251
765,89	34,908
766,06	35,576
766,24	35,253
766,42	36,607
766,60	35,546
766,77	37,231
766,95	37,351
767,13	37,209
767,30	36,270
767,48	35,714
767,66	36,553
767,84	34,044
768,01	37,270
768,19	38,488
768,37	37,319
768,54	38,452
768,72	38,110
768,90	36,204
769,08	36,356
769,25	38,088
769,43	36,780
769,61	35,203
769,78	38,624
769,96	36,441
770,14	37,300
770,31	39,507
770,49	39,566
770,67	37,805
770,85	36,811
771,02	39,713
771,20	36,187
771,38	38,731
771,55	36,804
771,73	38,331
771,91	38,633
772,08	39,889
772,26	37,331
772,44	37,024
772,61	36,917
772,79	36,894
772,97	37,174
773,14	36,316
773,32	38,059
773,50	35,766
773,67	37,792
773,85	39,560
774,03	39,332
774,20	37,202
774,38	36,279
774,56	36,587
774,73	36,415
774,91	38,112
775,09	36,317
775,26	37,316
775,44	37,738
775,61	37,478
775,79	36,303
775,97	38,553
776,14	37,486
776,32	35,672
776,50	35,509
776,67	38,922
776,85	38,645
777,03	35,856
777,20	36,111
777,38	37,348
777,55	38,513
777,73	34,042
777,91	33,868
778,08	38,341
778,26	36,927
778,43	39,119
778,61	33,926
778,79	36,741
778,96	35,326
779,14	37,022
779,32	37,370
779,49	38,239
779,67	38,198
779,84	37,213
780,02	38,917
780,20	34,167
780,37	38,822
780,55	32,091
780,72	36,085
780,90	37,937
781,07	35,936
781,25	39,557
781,43	38,496
781,60	36,269
781,78	39,462
781,95	36,686
782,13	35,916
782,30	40,233
782,48	35,493
782,66	36,423
782,83	32,353
783,01	41,481
783,18	38,127
783,36	38,093
783,53	39,697
783,71	35,523
783,89	37,128
784,06	37,462
784,24	36,252
784,41	38,867
784,59	35,571
784,76	39,170
784,94	36,405
785,11	40,043
785,29	36,452
785,46	35,384
785,64	37,713
785,82	39,227
785,99	37,593
786,17	35,826
786,34	36,654
786,52	38,989
786,69	42,196
786,87	35,474
787,04	37,793
787,22	34,463
787,39	38,715
787,57	42,428
787,74	36,765
787,92	40,691
788,09	38,533
788,27	34,881
788,44	36,845
788,62	37,715
788,79	39,169
788,97	40,241
789,14	35,756
789,32	37,469
789,49	37,828
789,67	36,918
789,84	39,380
790,02	39,043
790,19	38,578
790,37	38,662
790,54	38,268
790,72	40,719
790,89	41,048
791,07	37,795
791,24	35,400
791,42	37,860
791,59	36,894
791,77	36,096
791,94	35,186
792,12	36,494
792,29	39,877
792,47	36,992
792,64	41,725
792,81	41,269
792,99	37,613
793,16	38,581
793,34	39,846
793,51	36,206
793,69	39,355
793,86	36,788
794,04	37,482
794,21	41,515
794,39	33,486
794,56	35,921
794,73	37,407
794,91	39,073
795,08	37,786
795,26	38,953
795,43	35,660
795,61	41,606
795,78	41,540
795,95	38,505
796,13	38,700
796,30	39,718
796,48	36,062
796,65	38,648
796,83	39,407
797,00	40,045
797,17	36,517
797,35	41,012
797,52	38,405
797,70	38,836
797,87	36,229
798,04	36,704
798,22	40,593
798,39	36,907
798,57	36,373
798,74	38,476
798,91	38,809
799,09	38,042
799,26	39,249
799,44	36,987
799,61	37,876
799,78	37,820
799,96	41,716
800,13	36,736
800,31	37,017
800,48	38,198
800,65	41,003
800,83	36,370
801,00	38,043
801,17	40,555
801,35	43,485
801,52	35,136
801,70	40,294
801,87	40,209
802,04	41,760
802,22	37,105
802,39	38,265
802,56	47,111
802,74	41,899
802,91	34,179
803,08	35,016
803,26	37,233
803,43	41,117
803,61	40,481
803,78	41,029
803,95	40,421
804,13	40,554
804,30	34,322
804,47	41,990
804,65	38,391
804,82	37,808
804,99	36,766
805,17	36,809
805,34	43,219
805,51	42,786
805,69	36,475
805,86	38,958
806,03	41,720
806,21	42,275
806,38	37,239
806,55	42,436
806,72	40,122
806,90	43,596
807,07	38,514
807,24	36,956
807,42	39,088
807,59	40,272
807,76	36,940
807,94	35,787
808,11	43,073
808,28	43,427
808,45	38,959
808,63	40,259
808,80	42,567
808,97	36,572
809,15	35,699
809,32	37,779
809,49	36,689
809,67	37,792
809,84	41,095
810,01	39,515
810,18	47,536
810,36	41,054
810,53	41,356
810,70	35,566
810,87	42,531
811,05	37,478
811,22	36,658
811,39	40,120
811,57	42,111
811,74	38,911
811,91	36,496
812,08	39,032
812,26	41,037
812,43	37,464
812,60	41,104
812,77	39,311
812,95	40,978
813,12	44,059
813,29	36,878
813,46	38,833
813,64	37,438
813,81	40,229
813,98	41,500
814,15	40,441
814,32	40,312
814,50	41,252
814,67	40,393
814,84	41,340
815,01	37,759
815,19	35,047
815,36	37,144
815,53	40,289
815,70	38,410
815,87	41,257
816,05	35,521
816,22	41,352
816,39	40,537
816,56	41,317
816,74	41,861
816,91	38,991
817,08	47,149
817,25	46,364
817,42	39,379
817,60	38,334
817,77	42,166
817,94	36,377
818,11	40,485
818,28	39,381
818,45	41,513
818,63	40,257
818,80	38,495
818,97	42,222
819,14	42,755
819,31	47,040
819,49	44,121
819,66	38,251
819,83	37,534
820,00	40,328
820,17	39,428
820,34	40,567
820,52	43,834
820,69	44,176
820,86	40,177
821,03	38,373
821,20	43,090
821,37	43,599
821,55	32,159
821,72	38,254
821,89	40,682
822,06	46,841
822,23	34,004
822,40	42,204
822,57	41,594
822,75	49,363
822,92	33,041
823,09	39,547
823,26	50,688
823,43	46,290
823,60	37,958
823,77	38,884
823,94	42,262
824,12	45,335
824,29	39,437
824,46	38,214
824,63	46,258
824,80	40,665
824,97	38,950
825,14	42,486
825,31	43,672
825,49	42,492
825,66	34,906
825,83	40,292
826,00	42,212
826,17	52,073
826,34	40,939
826,51	35,674
826,68	39,255
826,85	42,945
827,02	39,482
827,20	33,257
827,37	40,916
827,54	39,396
827,71	42,367
827,88	45,361
828,05	44,214
828,22	45,824
828,39	45,970
828,56	42,430
828,73	41,556
828,90	40,227
829,07	42,985
829,25	39,869
829,42	50,376
829,59	39,412
829,76	40,358
829,93	35,132
830,10	41,695
830,27	35,589
830,44	46,425
830,61	42,216
830,78	54,332
830,95	43,792
831,12	36,612
831,29	39,651
831,46	41,972
831,63	39,824
831,80	37,356
831,97	39,743
832,14	47,886
832,31	51,592
832,48	39,707
832,65	45,090
832,83	33,907
833,00	47,751
833,17	35,606
833,34	39,657
833,51	43,826
833,68	48,739
833,85	42,037
834,02	37,202
834,19	43,987
834,36	45,650
834,53	36,951
834,70	42,819
834,87	49,272
835,04	44,764
835,21	42,140
835,38	38,054
835,55	40,053
835,72	50,949
835,89	37,448
836,06	44,950
836,23	50,927
836,40	35,756
836,57	40,107
836,74	48,862
836,91	42,440
837,08	48,471
837,25	43,825
837,42	34,142
837,59	41,786
837,76	47,760
837,93	39,395
838,09	32,528
838,26	48,207
838,43	50,664
838,60	39,973
838,77	37,370
838,94	49,347
839,11	38,505
839,28	42,411
839,45	42,909
839,62	38,534
839,79	45,268
839,96	49,324
840,13	48,008
840,30	40,048
840,47	35,918
840,64	43,433
840,81	48,025
840,98	39,230
841,15	52,107
841,32	25,903
841,48	47,144
841,65	41,908
841,82	41,197
841,99	41,530
842,16	36,257
842,33	46,524
842,50	41,187
842,67	39,120
842,84	41,088
843,01	49,056
843,18	43,286
843,35	35,619
843,52	33,366
843,68	51,451
843,85	39,719
844,02	39,888
844,19	40,630
844,36	50,546
844,53	60,015
844,70	42,366
844,87	47,967
845,04	49,088
845,21	36,611
845,37	52,091
845,54	38,829
845,71	28,273
845,88	63,059
846,05	41,404
846,22	29,422
846,39	43,999
846,56	53,018
846,72	25,047
846,89	44,061
847,06	53,583
847,23	54,610
847,40	43,028
847,57	33,195
847,74	52,666
847,90	60,438
848,07	37,779
848,24	43,414
848,41	41,685
848,58	53,314
848,75	46,903
848,92	29,890
849,08	40,872
849,25	46,134
849,42	37,524
849,59	49,741
849,76	39,730
849,93	50,224
850,09	51,309
850,26	35,020
850,43	50,966
850,60	45,626
850,77	41,622
850,94	46,604
851,10	54,130
851,27	35,952
851,44	41,292
851,61	36,862
851,78	51,223
851,95	50,089
852,11	37,711
852,28	31,813
852,45	47,696
852,62	38,988
852,79	48,134
852,95	44,284
853,12	48,585
853,29	41,392
853,46	40,139
853,63	51,274
853,79	44,400
853,96	46,614
854,13	55,896
854,30	35,302
854,46	65,559
854,63	53,212
854,80	40,610
854,97	44,680
855,14	52,327
855,30	42,849
855,47	49,226
855,64	46,607
855,81	42,633
855,97	41,120
856,14	53,510
856,31	36,579
856,48	56,085
856,65	64,024
856,81	44,353
856,98	33,615
857,15	41,563
857,32	48,275
857,48	43,183
857,65	45,439
857,82	52,210
857,99	55,450
858,15	42,849
858,32	45,655
858,49	52,839
858,65	66,687
858,82	53,964
858,99	45,625
859,16	56,256
859,32	52,164
859,49	47,879
859,66	50,035
859,83	56,161
859,99	45,087
860,16	44,617
860,33	46,166
860,49	39,317
860,66	52,924
860,83	48,088
861,00	47,610
861,16	53,332
861,33	53,747
861,50	31,718
861,66	59,355
861,83	45,067
862,00	35,312
862,16	51,331
862,33	43,134
862,50	81,464
862,67	36,248
862,83	39,768
863,00	56,988
863,17	70,779
863,33	39,936
863,50	22,314
863,67	37,993
863,83	59,676
864,00	70,633
864,17	48,214
864,33	52,539
864,50	70,953
864,67	43,243
864,83	51,221
865,00	44,922
865,17	50,274
865,33	69,876
865,50	35,500
865,67	26,567
865,83	45,210
866,00	76,481
866,17	61,406
866,33	54,894
866,50	71,502
866,66	63,874
866,83	45,164
867,00	62,113
867,16	67,511
867,33	76,353
867,50	32,139
867,66	46,383
867,83	68,736
868,00	61,929
868,16	38,131
868,33	38,533
868,49	34,625
868,66	63,060
868,83	42,897
868,99	46,591
869,16	82,978
869,32	68,969
869,49	60,762
869,66	35,768
869,82	74,779
869,99	79,773
870,15	6,909
870,32	55,142
870,49	68,728
870,65	112,289
870,82	47,541
870,98	50,074
871,15	106,646
871,32	43,892
871,48	8,380
871,65	25,580
871,81	68,861
871,98	44,746
872,15	47,428
872,31	53,319
872,48	98,423
872,64	52,439
872,81	40,974
872,97	51,827
873,14	86,638
873,31	60,370
873,47	70,568
873,64	60,609
873,80	109,465
873,97	130,710
874,13	38,253
874,30	27,788
874,46	85,801
874,63	70,505
874,80	44,415
874,96	54,660
875,13	86,932
875,29	47,887
875,46	98,717
875,62	61,678
875,79	85,508
875,95	58,113
876,12	44,381
876,28	7,706
876,45	90,724
876,61	46,187
876,78	43,338
876,94	62,691
877,11	97,339
877,27	79,222
877,44	44,703
877,60	35,820
877,77	127,491
877,94	101,059
878,10	53,944
878,27	86,179
878,43	122,570
878,60	52,203
878,76	55,560
878,93	27,931
879,09	85,994
879,26	89,938
879,42	59,047
879,58	43,836
879,75	84,345
879,91	139,339
880,08	-3,353
880,24	52,632
880,41	77,094
880,57	96,351
880,74	39,610
880,90	64,297
881,07	55,339
881,23	84,520
881,40	80,680
881,56	85,285
881,73	91,267
881,89	74,014
882,06	33,183
882,22	169,075
882,38	158,968
882,55	156,294
882,71	67,655
882,88	5,042
883,04	139,281
883,21	125,995
883,37	109,216
883,54	72,472
883,70	195,538
883,86	113,674
884,03	87,532
884,19	44,176
884,36	36,528
884,52	221,034
884,69	65,204
884,85	66,080
885,01	182,727
885,18	145,841
885,34	182,346
885,51	29,468
885,67	68,772
>>>>> Data<<<<< Espectral Procesado Extremo
