Fichero De Datos De SpectraSuite
++++++++++++++++++++++++++++++++++++
Fecha: Wed Apr 22 11:31:20 CEST 2009
Usuario: evoflor
Presente Oscuro Del Espectro: Sí
La Referencia de Presente Del Espectro De: Sí
Muestreados de los componentes de Número de espectros: 1
Espectrómetros: USB4F02353
Tiempo de integración (usec): 500000 (USB4F02353)
Promedio de Espectros Hechos un: 5 (USB4F02353)
El Alisar Del Furgón: 0 (USB4F02353)
Párrafo de de Corregir del la del del de Eléctrica del obscuridad: Sí (USB4F02353)
Estrobo/Lámpara Permitido: No (USB4F02353)
Correct for Detector Non-linearity: No (USB4F02353)
Párrafo de de Corregir del la del del de Externa del luz: No (USB4F02353)
Procesado del espectro de Número de pixeles en: 3648
>>>>> Comienza Data<<<<< Espectral Procesado Del EL
177,79	262,355
178,00	262,355
178,22	262,355
178,44	795,385
178,66	-203,926
178,88	452,704
179,09	147,149
179,31	184,035
179,53	539,381
179,75	248,253
179,96	524,310
180,18	-259,138
180,40	328,408
180,62	84,934
180,83	-209,835
181,05	-1652,683
181,27	-63520,000
181,49	-73,522
181,70	195,846
181,92	587,411
182,14	549,157
182,36	148,719
182,58	21,800
182,79	621,071
183,01	-36,850
183,23	159,674
183,45	-303,446
183,66	49,469
183,88	188,353
184,10	-3789,455
184,32	143,861
184,53	251,763
184,75	-281,073
184,97	69,876
185,18	-105,865
185,40	-387,596
185,62	78,592
185,84	93,493
186,05	242,639
186,27	-158,224
186,49	2131,538
186,71	66,645
186,92	164,958
187,14	-203,055
187,36	204,607
187,58	92,963
187,79	25,198
188,01	376,383
188,23	-208,580
188,45	-5,177
188,66	14,375
188,88	-1973,091
189,10	-2183,200
189,31	-0,887
189,53	74,854
189,75	254,818
189,97	396,615
190,18	149,013
190,40	643,647
190,62	-264,282
190,83	-235,642
191,05	155,358
191,27	286,914
191,49	351,040
191,70	-404,904
191,92	-980,678
192,14	-16,448
192,35	555,225
192,57	2560,571
192,79	72,420
193,01	216,465
193,22	129,843
193,44	-199,010
193,66	82,677
193,87	-62,484
194,09	-30,925
194,31	201,917
194,53	639,301
194,74	143,097
194,96	-2,788
195,18	134,888
195,39	-440,686
195,61	-118,550
195,83	-198,739
196,04	105,806
196,26	-292,060
196,48	16,185
196,70	181,750
196,91	-66,943
197,13	112,962
197,35	-32,513
197,56	617,399
197,78	1817,313
198,00	639,301
198,21	317,087
198,43	-855,930
198,65	157,176
198,86	280,288
199,08	137,443
199,30	241,538
199,51	-467,818
199,73	116,291
199,95	302,030
200,16	642,385
200,38	-46,586
200,60	224,137
200,81	322,955
201,03	412,283
201,25	-1589,200
201,46	204,215
201,68	103,129
201,90	2036,818
202,11	-647,786
202,33	227,145
202,55	490,250
202,76	-96,362
202,98	271,498
203,20	40,769
203,41	-419,579
203,63	146,350
203,85	-172420,000
204,06	-0,882
204,28	-42,458
204,50	153,288
204,71	256,926
204,93	61,760
205,15	142,530
205,36	-157,591
205,58	194,472
205,80	-240,823
206,01	56,214
206,23	138,185
206,45	179,981
206,66	128,682
206,88	-43,227
207,10	201,636
207,31	433,404
207,53	297,200
207,75	53,373
207,96	1320,299
208,18	-166,758
208,39	73,876
208,61	3229,143
208,83	-425,155
209,04	263,212
209,26	-562,304
209,48	369,622
209,69	217,129
209,91	576,419
210,13	50,423
210,34	25,230
210,56	157,502
210,77	-1251,339
210,99	154,240
211,21	5748,235
211,42	-222,803
211,64	-22,948
211,86	198,232
212,07	208,844
212,29	266,011
212,50	98,999
212,72	29,692
212,94	151,769
213,15	169,227
213,37	131,527
213,58	-160,798
213,80	77,857
214,02	6436,471
214,23	368,832
214,45	550,557
214,67	279,024
214,88	-92,349
215,10	-305,141
215,31	16,856
215,53	287,545
215,75	277,948
215,96	1395,155
216,18	565,070
216,39	229,791
216,61	207,467
216,83	396,071
217,04	1259,775
217,26	-19,484
217,47	159,536
217,69	277,887
217,91	149,433
218,12	-41020,000
218,34	74,908
218,55	378,568
218,77	-16,299
218,99	161,944
219,20	-164,332
219,42	382,195
219,63	-122,004
219,85	-113,065
220,06	-77,615
220,28	179,472
220,50	98,508
220,71	63,896
220,93	1690,943
221,14	-1796,200
221,36	62,677
221,58	35,055
221,79	164,697
222,01	920,000
222,22	240,263
222,44	-722,247
222,65	30,691
222,87	255,385
223,09	173,771
223,30	106,794
223,52	129,580
223,73	138,697
223,95	22,282
224,16	112,412
224,38	223,033
224,60	87,885
224,81	45,058
225,03	155,198
225,24	206,325
225,46	145,880
225,67	45,194
225,89	-13,455
226,10	584,398
226,32	565,760
226,54	43,843
226,75	12,982
226,97	160,992
227,18	186,154
227,40	89,433
227,61	51,732
227,83	28,676
228,04	125,909
228,26	66,656
228,47	47,959
228,69	240,048
228,91	104,191
229,12	75,265
229,34	16,645
229,55	46,756
229,77	43,751
229,98	22,623
230,20	86,019
230,41	12,852
230,63	59,813
230,84	110,086
231,06	45,232
231,27	44,716
231,49	51,422
231,71	19,860
231,92	16,433
232,14	18,059
232,35	49,390
232,57	-6,031
232,78	25,853
233,00	63,050
233,21	56,800
233,43	26,439
233,64	29,579
233,86	31,477
234,07	34,584
234,29	22,999
234,50	8,782
234,72	37,042
234,93	22,095
235,15	21,123
235,36	18,311
235,58	53,158
235,79	49,932
236,01	13,613
236,22	32,207
236,44	48,412
236,65	23,870
236,87	19,286
237,08	6,512
237,30	-11,758
237,51	16,788
237,73	6,227
237,94	8,490
238,16	12,045
238,37	10,913
238,59	8,278
238,80	9,131
239,02	12,302
239,23	24,161
239,45	-10,187
239,66	23,803
239,88	32,597
240,09	26,497
240,31	5,825
240,52	15,862
240,74	18,551
240,95	7,488
241,17	2,138
241,38	5,649
241,60	6,982
241,81	25,360
242,03	4,781
242,24	19,372
242,46	13,353
242,67	7,503
242,89	10,765
243,10	16,734
243,32	19,945
243,53	17,287
243,75	6,729
243,96	5,838
244,18	18,166
244,39	6,646
244,60	9,985
244,82	4,890
245,03	18,761
245,25	16,265
245,46	17,426
245,68	2,291
245,89	16,062
246,11	12,800
246,32	5,804
246,54	9,140
246,75	9,324
246,97	12,315
247,18	19,939
247,39	9,197
247,61	10,120
247,82	13,133
248,04	8,837
248,25	8,263
248,47	12,880
248,68	10,486
248,90	7,997
249,11	11,066
249,33	16,930
249,54	9,185
249,75	10,397
249,97	2,633
250,18	13,125
250,40	15,544
250,61	-2,708
250,83	5,428
251,04	-1,523
251,25	13,118
251,47	0,784
251,68	10,738
251,90	11,834
252,11	8,721
252,33	5,760
252,54	5,736
252,76	8,737
252,97	2,361
253,18	2,701
253,40	6,809
253,61	4,161
253,83	8,519
254,04	5,175
254,25	4,866
254,47	2,077
254,68	8,587
254,90	4,775
255,11	6,307
255,33	8,794
255,54	3,312
255,75	7,901
255,97	9,459
256,18	1,831
256,40	7,850
256,61	7,750
256,82	2,272
257,04	12,493
257,25	4,630
257,47	3,975
257,68	7,636
257,89	8,189
258,11	8,516
258,32	3,912
258,54	8,571
258,75	11,272
258,96	14,057
259,18	5,147
259,39	1,614
259,61	10,254
259,82	6,822
260,03	6,642
260,25	6,539
260,46	6,685
260,68	5,112
260,89	2,423
261,10	5,206
261,32	7,806
261,53	2,443
261,75	9,972
261,96	0,897
262,17	9,848
262,39	11,433
262,60	4,499
262,81	2,267
263,03	12,130
263,24	4,881
263,46	0,434
263,67	5,110
263,88	11,140
264,10	10,565
264,31	1,766
264,52	8,614
264,74	11,897
264,95	6,244
265,17	8,913
265,38	6,425
265,59	8,420
265,81	9,461
266,02	0,939
266,23	4,127
266,45	11,506
266,66	12,057
266,87	9,371
267,09	3,126
267,30	8,262
267,52	11,737
267,73	3,651
267,94	5,672
268,16	6,962
268,37	9,106
268,58	8,630
268,80	3,675
269,01	10,466
269,22	6,313
269,44	8,385
269,65	7,149
269,86	2,988
270,08	5,055
270,29	3,542
270,50	8,291
270,72	9,296
270,93	5,202
271,14	5,938
271,36	8,606
271,57	10,052
271,78	9,868
272,00	8,248
272,21	7,473
272,42	10,297
272,64	7,869
272,85	4,420
273,06	4,521
273,28	8,102
273,49	9,637
273,70	8,507
273,92	9,546
274,13	9,979
274,34	5,871
274,56	6,693
274,77	6,108
274,98	6,135
275,20	5,012
275,41	8,892
275,62	2,279
275,84	5,178
276,05	10,413
276,26	4,287
276,47	0,622
276,69	9,528
276,90	6,970
277,11	3,290
277,33	5,223
277,54	7,643
277,75	7,131
277,97	2,456
278,18	6,336
278,39	9,262
278,61	5,083
278,82	6,839
279,03	8,070
279,24	5,006
279,46	4,108
279,67	5,597
279,88	4,966
280,10	10,162
280,31	2,221
280,52	5,676
280,73	3,579
280,95	8,398
281,16	6,912
281,37	6,564
281,59	10,006
281,80	10,545
282,01	3,938
282,22	3,570
282,44	2,360
282,65	13,124
282,86	11,297
283,08	5,798
283,29	8,173
283,50	4,952
283,71	7,078
283,93	7,816
284,14	5,875
284,35	4,494
284,56	7,794
284,78	3,718
284,99	8,044
285,20	10,566
285,42	9,012
285,63	5,019
285,84	3,710
286,05	6,650
286,27	7,857
286,48	6,323
286,69	3,612
286,90	4,869
287,12	3,342
287,33	6,383
287,54	5,511
287,75	8,193
287,97	6,824
288,18	6,085
288,39	1,667
288,60	6,430
288,82	4,612
289,03	3,624
289,24	6,954
289,45	9,983
289,67	7,004
289,88	4,191
290,09	6,848
290,30	5,785
290,52	3,943
290,73	2,896
290,94	4,413
291,15	6,183
291,37	6,582
291,58	8,200
291,79	5,887
292,00	6,570
292,21	5,044
292,43	4,987
292,64	4,881
292,85	4,461
293,06	7,685
293,28	2,197
293,49	4,344
293,70	10,350
293,91	4,176
294,12	4,147
294,34	5,527
294,55	5,138
294,76	5,991
294,97	7,773
295,19	4,605
295,40	5,907
295,61	7,138
295,82	0,814
296,03	7,413
296,25	3,435
296,46	3,568
296,67	0,292
296,88	2,166
297,09	7,803
297,31	5,831
297,52	5,973
297,73	5,390
297,94	8,380
298,15	6,227
298,37	5,008
298,58	8,327
298,79	8,747
299,00	4,476
299,21	5,740
299,43	3,880
299,64	9,881
299,85	7,925
300,06	3,787
300,27	3,181
300,49	8,626
300,70	2,914
300,91	6,240
301,12	4,986
301,33	10,222
301,54	4,184
301,76	5,775
301,97	4,980
302,18	3,995
302,39	8,766
302,60	6,189
302,82	5,024
303,03	7,073
303,24	6,942
303,45	5,543
303,66	4,829
303,87	6,040
304,09	8,290
304,30	6,600
304,51	6,185
304,72	4,457
304,93	6,508
305,14	6,282
305,36	3,503
305,57	5,401
305,78	6,144
305,99	6,077
306,20	5,185
306,41	2,479
306,62	2,577
306,84	5,096
307,05	2,046
307,26	6,003
307,47	9,467
307,68	3,513
307,89	4,214
308,11	7,891
308,32	4,426
308,53	4,699
308,74	2,624
308,95	4,472
309,16	6,723
309,37	7,659
309,59	3,363
309,80	6,496
310,01	5,537
310,22	8,068
310,43	5,009
310,64	5,003
310,85	7,922
311,06	5,776
311,28	6,511
311,49	3,137
311,70	10,121
311,91	2,587
312,12	4,231
312,33	5,750
312,54	4,762
312,75	5,759
312,97	3,700
313,18	7,712
313,39	5,297
313,60	5,315
313,81	6,413
314,02	6,228
314,23	9,115
314,44	4,400
314,65	3,712
314,87	3,249
315,08	4,141
315,29	8,668
315,50	5,626
315,71	8,745
315,92	10,138
316,13	7,096
316,34	6,050
316,55	7,199
316,77	2,563
316,98	6,600
317,19	5,089
317,40	5,912
317,61	11,605
317,82	6,221
318,03	4,108
318,24	4,899
318,45	10,423
318,66	3,489
318,87	2,995
319,09	6,897
319,30	3,785
319,51	5,077
319,72	6,701
319,93	7,596
320,14	9,373
320,35	7,757
320,56	3,887
320,77	3,152
320,98	10,623
321,19	4,596
321,40	6,121
321,62	5,743
321,83	6,495
322,04	6,562
322,25	3,613
322,46	10,800
322,67	7,359
322,88	6,788
323,09	4,145
323,30	6,575
323,51	9,763
323,72	8,938
323,93	5,728
324,14	6,558
324,35	4,102
324,56	1,026
324,77	6,498
324,99	6,284
325,20	1,255
325,41	6,041
325,62	6,499
325,83	3,920
326,04	7,457
326,25	8,102
326,46	1,564
326,67	4,819
326,88	6,705
327,09	6,122
327,30	5,805
327,51	7,019
327,72	5,692
327,93	10,555
328,14	3,771
328,35	7,573
328,56	7,769
328,77	5,864
328,98	7,541
329,19	7,000
329,40	7,094
329,61	8,157
329,82	3,009
330,04	6,183
330,25	6,165
330,46	5,976
330,67	4,828
330,88	6,772
331,09	4,596
331,30	5,639
331,51	5,865
331,72	7,783
331,93	7,588
332,14	7,292
332,35	7,212
332,56	5,552
332,77	9,008
332,98	2,695
333,19	3,195
333,40	7,234
333,61	5,540
333,82	10,837
334,03	6,581
334,24	7,607
334,45	8,005
334,66	7,313
334,87	5,556
335,08	4,758
335,29	6,748
335,50	5,906
335,71	4,971
335,92	7,132
336,13	9,102
336,34	3,774
336,55	4,681
336,76	10,894
336,97	8,088
337,18	2,441
337,39	8,375
337,60	6,221
337,81	4,702
338,02	7,628
338,23	7,650
338,44	6,344
338,65	7,916
338,86	7,440
339,07	4,700
339,28	7,349
339,49	7,704
339,70	6,340
339,91	7,269
340,11	11,781
340,32	5,145
340,53	4,571
340,74	3,171
340,95	4,524
341,16	10,501
341,37	8,166
341,58	3,365
341,79	6,827
342,00	5,526
342,21	7,201
342,42	6,356
342,63	7,863
342,84	1,771
343,05	10,103
343,26	8,634
343,47	8,656
343,68	4,359
343,89	5,663
344,10	8,195
344,31	10,495
344,52	4,696
344,73	5,393
344,94	5,120
345,14	6,385
345,35	8,955
345,56	6,812
345,77	6,273
345,98	8,164
346,19	5,086
346,40	7,092
346,61	4,753
346,82	4,072
347,03	6,773
347,24	8,065
347,45	6,065
347,66	9,855
347,87	6,118
348,08	10,772
348,28	3,780
348,49	9,884
348,70	8,971
348,91	8,143
349,12	3,667
349,33	19,837
349,54	7,965
349,75	6,201
349,96	5,778
350,17	6,335
350,38	5,717
350,59	8,157
350,80	5,021
351,00	12,373
351,21	13,836
351,42	7,204
351,63	4,692
351,84	7,375
352,05	12,071
352,26	8,310
352,47	7,258
352,68	10,014
352,89	8,571
353,09	9,741
353,30	4,471
353,51	5,590
353,72	10,866
353,93	8,346
354,14	4,640
354,35	7,049
354,56	12,973
354,77	7,131
354,98	5,011
355,18	7,746
355,39	13,108
355,60	6,195
355,81	8,260
356,02	8,712
356,23	8,852
356,44	6,164
356,65	8,122
356,85	14,491
357,06	11,513
357,27	8,864
357,48	6,674
357,69	11,364
357,90	9,241
358,11	5,647
358,32	5,805
358,52	11,875
358,73	9,559
358,94	7,378
359,15	8,261
359,36	10,256
359,57	5,206
359,78	6,987
359,98	6,502
360,19	6,403
360,40	5,364
360,61	13,325
360,82	5,342
361,03	12,787
361,24	9,009
361,44	4,283
361,65	6,527
361,86	6,527
362,07	10,040
362,28	7,907
362,49	5,829
362,70	10,385
362,90	9,270
363,11	4,853
363,32	7,075
363,53	8,962
363,74	13,321
363,95	9,789
364,15	6,617
364,36	10,888
364,57	9,391
364,78	6,704
364,99	9,628
365,20	10,566
365,40	9,416
365,61	6,437
365,82	12,184
366,03	9,666
366,24	7,131
366,45	7,154
366,65	7,635
366,86	6,810
367,07	7,874
367,28	7,999
367,49	8,509
367,69	13,702
367,90	6,251
368,11	8,811
368,32	7,287
368,53	11,201
368,73	11,422
368,94	7,908
369,15	6,725
369,36	8,790
369,57	9,104
369,78	5,076
369,98	8,366
370,19	14,228
370,40	10,377
370,61	6,606
370,82	7,769
371,02	9,745
371,23	11,775
371,44	7,373
371,65	11,320
371,85	13,713
372,06	7,456
372,27	8,670
372,48	8,602
372,69	9,277
372,89	7,676
373,10	9,661
373,31	4,906
373,52	10,072
373,73	14,140
373,93	11,380
374,14	7,723
374,35	13,419
374,56	11,214
374,76	8,574
374,97	9,283
375,18	9,447
375,39	10,136
375,60	12,253
375,80	10,031
376,01	9,876
376,22	7,539
376,43	8,180
376,63	7,621
376,84	7,489
377,05	10,301
377,26	5,807
377,46	8,207
377,67	7,235
377,88	10,655
378,09	5,662
378,29	5,450
378,50	10,071
378,71	9,572
378,92	7,984
379,12	8,087
379,33	8,584
379,54	8,767
379,75	11,217
379,95	5,890
380,16	13,307
380,37	11,903
380,58	8,698
380,78	11,074
380,99	7,635
381,20	7,783
381,41	11,148
381,61	6,843
381,82	7,946
382,03	11,167
382,24	12,611
382,44	9,046
382,65	7,093
382,86	7,046
383,06	9,135
383,27	8,257
383,48	7,726
383,69	13,074
383,89	11,826
384,10	10,555
384,31	10,743
384,51	11,680
384,72	10,283
384,93	9,161
385,14	11,224
385,34	10,766
385,55	6,828
385,76	8,567
385,96	13,663
386,17	11,439
386,38	10,845
386,59	8,355
386,79	10,449
387,00	10,336
387,21	11,602
387,41	10,467
387,62	7,270
387,83	11,027
388,03	12,144
388,24	5,349
388,45	9,021
388,66	13,672
388,86	12,167
389,07	7,126
389,28	13,810
389,48	9,001
389,69	8,320
389,90	10,377
390,10	14,787
390,31	12,471
390,52	4,732
390,72	6,088
390,93	10,228
391,14	10,272
391,34	6,777
391,55	10,988
391,76	14,154
391,96	12,591
392,17	8,363
392,38	10,320
392,58	10,393
392,79	9,806
393,00	7,296
393,20	7,095
393,41	8,144
393,62	8,175
393,82	10,375
394,03	10,200
394,24	7,930
394,44	13,536
394,65	9,257
394,86	10,138
395,06	11,518
395,27	9,414
395,48	7,743
395,68	11,137
395,89	11,913
396,10	9,314
396,30	5,085
396,51	4,761
396,72	11,970
396,92	6,497
397,13	9,987
397,34	5,049
397,54	11,019
397,75	8,580
397,95	5,690
398,16	8,581
398,37	9,733
398,57	4,145
398,78	9,542
398,99	11,589
399,19	10,213
399,40	13,221
399,60	7,255
399,81	7,979
400,02	10,633
400,22	10,365
400,43	8,884
400,64	8,841
400,84	8,653
401,05	13,883
401,25	11,857
401,46	12,024
401,67	7,627
401,87	9,279
402,08	4,127
402,29	10,545
402,49	11,667
402,70	12,022
402,90	6,589
403,11	7,755
403,32	12,545
403,52	9,929
403,73	11,061
403,93	11,298
404,14	12,410
404,35	11,079
404,55	7,462
404,76	5,709
404,96	10,000
405,17	10,603
405,38	13,676
405,58	9,972
405,79	12,611
405,99	10,375
406,20	7,239
406,40	7,038
406,61	9,979
406,82	8,845
407,02	8,967
407,23	8,793
407,43	8,984
407,64	5,774
407,85	10,615
408,05	2,936
408,26	16,021
408,46	14,590
408,67	4,505
408,87	8,681
409,08	8,545
409,29	16,924
409,49	10,269
409,70	6,382
409,90	7,753
410,11	11,219
410,31	14,194
410,52	9,543
410,72	7,314
410,93	12,745
411,14	8,185
411,34	7,264
411,55	9,411
411,75	14,119
411,96	10,157
412,16	9,045
412,37	8,892
412,57	9,349
412,78	12,094
412,99	10,251
413,19	10,605
413,40	11,640
413,60	5,753
413,81	6,789
414,01	10,267
414,22	7,427
414,42	5,695
414,63	4,628
414,83	11,222
415,04	13,825
415,24	11,408
415,45	9,657
415,65	9,853
415,86	8,997
416,07	8,891
416,27	10,863
416,48	13,748
416,68	13,550
416,89	6,106
417,09	10,107
417,30	15,261
417,50	12,050
417,71	10,751
417,91	15,150
418,12	5,933
418,32	11,358
418,53	9,983
418,73	9,039
418,94	8,025
419,14	13,236
419,35	7,490
419,55	8,849
419,76	13,350
419,96	10,123
420,17	8,854
420,37	10,195
420,58	14,123
420,78	9,734
420,99	8,154
421,19	10,457
421,40	13,528
421,60	11,532
421,81	7,573
422,01	6,010
422,22	9,555
422,42	10,936
422,63	10,065
422,83	6,820
423,04	11,503
423,24	12,965
423,45	6,253
423,65	14,267
423,86	12,222
424,06	14,556
424,27	6,510
424,47	6,510
424,67	2,658
424,88	9,191
425,08	8,245
425,29	12,784
425,49	10,474
425,70	3,882
425,90	11,435
426,11	11,474
426,31	12,922
426,52	8,178
426,72	6,969
426,93	6,458
427,13	14,548
427,33	7,004
427,54	11,213
427,74	14,664
427,95	13,970
428,15	5,664
428,36	11,717
428,56	10,985
428,77	11,385
428,97	13,504
429,18	5,513
429,38	5,813
429,58	11,505
429,79	9,027
429,99	6,380
430,20	2,472
430,40	12,979
430,61	5,544
430,81	4,558
431,01	11,708
431,22	13,840
431,42	13,668
431,63	8,262
431,83	9,728
432,04	8,996
432,24	13,960
432,44	6,949
432,65	11,848
432,85	8,228
433,06	11,724
433,26	10,351
433,47	9,765
433,67	10,901
433,87	8,380
434,08	8,039
434,28	6,835
434,49	9,247
434,69	13,357
434,89	7,571
435,10	5,841
435,30	13,257
435,51	7,182
435,71	9,186
435,91	9,382
436,12	7,815
436,32	7,815
436,53	7,498
436,73	8,715
436,93	15,468
437,14	11,710
437,34	8,818
437,55	8,433
437,75	12,710
437,95	11,981
438,16	8,924
438,36	3,971
438,57	4,577
438,77	5,921
438,97	13,202
439,18	13,440
439,38	6,326
439,58	4,336
439,79	10,032
439,99	6,692
440,20	12,325
440,40	7,733
440,60	4,921
440,81	12,774
441,01	10,494
441,21	14,648
441,42	11,578
441,62	10,347
441,83	12,129
442,03	10,249
442,23	10,295
442,44	6,409
442,64	11,365
442,84	7,721
443,05	8,201
443,25	9,756
443,45	8,035
443,66	6,587
443,86	8,859
444,06	7,553
444,27	6,758
444,47	12,689
444,67	4,597
444,88	10,308
445,08	8,692
445,28	10,049
445,49	5,517
445,69	8,642
445,90	10,907
446,10	9,778
446,30	8,368
446,51	11,832
446,71	13,295
446,91	13,527
447,12	18,445
447,32	6,582
447,52	9,390
447,72	14,811
447,93	9,292
448,13	3,870
448,33	16,415
448,54	10,356
448,74	8,394
448,94	12,373
449,15	16,357
449,35	15,289
449,55	6,407
449,76	12,575
449,96	11,612
450,16	12,174
450,37	6,439
450,57	7,190
450,77	3,281
450,98	11,014
451,18	12,090
451,38	10,765
451,58	13,501
451,79	11,990
451,99	11,154
452,19	9,557
452,40	11,144
452,60	7,515
452,80	6,862
453,00	7,797
453,21	14,559
453,41	14,556
453,61	9,569
453,82	13,940
454,02	8,711
454,22	17,150
454,42	12,611
454,63	6,808
454,83	9,742
455,03	14,876
455,24	11,083
455,44	8,613
455,64	9,135
455,84	7,527
456,05	4,238
456,25	9,126
456,45	11,738
456,65	14,234
456,86	12,132
457,06	9,596
457,26	9,837
457,47	18,765
457,67	12,196
457,87	4,500
458,07	8,492
458,28	13,323
458,48	14,672
458,68	3,652
458,88	13,816
459,09	10,537
459,29	10,953
459,49	8,151
459,69	11,619
459,90	16,062
460,10	9,429
460,30	10,191
460,50	7,884
460,71	13,583
460,91	6,581
461,11	7,143
461,31	3,316
461,52	16,606
461,72	9,350
461,92	10,138
462,12	17,355
462,32	6,148
462,53	9,369
462,73	6,770
462,93	14,333
463,13	13,523
463,34	10,521
463,54	10,589
463,74	12,678
463,94	9,224
464,14	11,401
464,35	6,181
464,55	15,067
464,75	13,204
464,95	12,782
465,16	7,216
465,36	10,047
465,56	9,578
465,76	9,593
465,96	9,168
466,17	9,264
466,37	7,697
466,57	10,443
466,77	13,195
466,97	9,552
467,18	15,546
467,38	9,992
467,58	11,029
467,78	15,824
467,98	12,207
468,19	15,032
468,39	11,950
468,59	12,684
468,79	11,599
468,99	6,943
469,19	10,044
469,40	14,758
469,60	4,041
469,80	5,365
470,00	13,902
470,20	12,078
470,41	9,974
470,61	13,228
470,81	14,308
471,01	10,286
471,21	14,683
471,41	9,147
471,62	12,771
471,82	8,194
472,02	11,669
472,22	10,326
472,42	9,897
472,62	12,164
472,83	9,541
473,03	15,128
473,23	12,439
473,43	14,243
473,63	9,935
473,83	12,060
474,03	11,438
474,24	15,645
474,44	9,901
474,64	12,302
474,84	10,427
475,04	11,860
475,24	13,756
475,45	12,174
475,65	11,638
475,85	16,123
476,05	7,866
476,25	11,628
476,45	13,339
476,65	14,854
476,85	12,395
477,06	8,237
477,26	8,695
477,46	11,667
477,66	10,512
477,86	12,716
478,06	10,478
478,26	18,062
478,46	11,716
478,67	11,510
478,87	12,269
479,07	10,453
479,27	15,369
479,47	12,453
479,67	8,177
479,87	11,144
480,07	13,262
480,28	10,854
480,48	10,313
480,68	12,760
480,88	16,140
481,08	15,595
481,28	14,454
481,48	12,267
481,68	14,208
481,88	11,653
482,08	13,588
482,29	12,358
482,49	10,686
482,69	15,035
482,89	14,732
483,09	14,857
483,29	11,871
483,49	11,982
483,69	13,132
483,89	15,697
484,09	12,012
484,29	12,989
484,50	13,262
484,70	15,672
484,90	12,809
485,10	16,402
485,30	14,535
485,50	16,642
485,70	14,625
485,90	13,180
486,10	11,854
486,30	14,270
486,50	13,913
486,70	13,044
486,90	12,745
487,10	15,078
487,30	14,507
487,51	15,095
487,71	13,367
487,91	12,142
488,11	15,548
488,31	12,346
488,51	16,973
488,71	16,234
488,91	16,715
489,11	14,924
489,31	16,217
489,51	17,175
489,71	16,983
489,91	18,664
490,11	14,852
490,31	17,842
490,51	19,710
490,71	15,888
490,91	16,794
491,11	18,422
491,31	19,669
491,51	16,475
491,72	18,985
491,92	19,228
492,12	22,391
492,32	20,332
492,52	22,181
492,72	20,103
492,92	19,972
493,12	20,496
493,32	21,247
493,52	17,117
493,72	18,460
493,92	19,200
494,12	20,789
494,32	23,350
494,52	21,167
494,72	21,246
494,92	17,244
495,12	19,728
495,32	23,995
495,52	20,835
495,72	22,470
495,92	24,014
496,12	24,499
496,32	21,348
496,52	18,301
496,72	21,330
496,92	24,407
497,12	22,236
497,32	25,493
497,52	26,614
497,72	26,510
497,92	24,683
498,12	23,093
498,32	23,171
498,52	23,991
498,72	24,876
498,92	23,644
499,12	26,191
499,32	22,904
499,52	27,456
499,72	27,957
499,92	28,689
500,12	25,624
500,32	26,620
500,52	25,695
500,72	32,347
500,91	26,879
501,11	24,888
501,31	24,006
501,51	28,163
501,71	27,822
501,91	27,347
502,11	25,641
502,31	26,975
502,51	29,690
502,71	26,077
502,91	29,787
503,11	27,782
503,31	30,234
503,51	27,288
503,71	25,959
503,91	29,657
504,11	29,004
504,31	27,461
504,51	31,533
504,71	32,744
504,91	30,621
505,10	30,930
505,30	32,097
505,50	33,400
505,70	29,293
505,90	32,193
506,10	28,485
506,30	31,789
506,50	33,854
506,70	33,424
506,90	33,056
507,10	30,418
507,30	32,967
507,50	33,244
507,70	32,016
507,89	33,779
508,09	32,660
508,29	29,787
508,49	32,430
508,69	32,376
508,89	31,267
509,09	31,849
509,29	35,293
509,49	34,860
509,69	39,251
509,89	32,678
510,09	32,769
510,28	35,069
510,48	34,577
510,68	34,738
510,88	34,557
511,08	33,843
511,28	37,651
511,48	33,645
511,68	34,116
511,88	32,275
512,07	36,264
512,27	36,162
512,47	35,156
512,67	34,255
512,87	34,795
513,07	35,911
513,27	34,889
513,47	36,154
513,67	34,494
513,86	36,737
514,06	35,067
514,26	36,023
514,46	39,061
514,66	37,130
514,86	37,393
515,06	41,268
515,26	41,395
515,45	37,236
515,65	36,340
515,85	36,933
516,05	37,490
516,25	38,048
516,45	41,297
516,65	36,625
516,84	39,693
517,04	40,133
517,24	35,861
517,44	38,893
517,64	39,760
517,84	42,378
518,04	39,605
518,23	45,102
518,43	40,685
518,63	35,651
518,83	36,544
519,03	40,196
519,23	40,096
519,42	40,137
519,62	37,647
519,82	38,270
520,02	41,493
520,22	39,353
520,42	37,219
520,61	42,693
520,81	43,830
521,01	46,313
521,21	39,767
521,41	40,520
521,61	39,172
521,80	38,659
522,00	40,919
522,20	41,066
522,40	40,796
522,60	40,943
522,79	41,174
522,99	44,278
523,19	40,792
523,39	42,830
523,59	42,105
523,78	43,268
523,98	41,198
524,18	44,226
524,38	39,913
524,58	40,552
524,77	44,688
524,97	42,989
525,17	41,149
525,37	41,347
525,57	44,177
525,76	38,439
525,96	44,698
526,16	40,919
526,36	40,410
526,56	40,666
526,75	40,768
526,95	43,061
527,15	40,116
527,35	40,795
527,55	42,830
527,74	42,777
527,94	41,492
528,14	39,509
528,34	42,060
528,53	41,060
528,73	42,435
528,93	42,421
529,13	42,122
529,32	42,489
529,52	44,169
529,72	41,128
529,92	41,792
530,12	42,615
530,31	41,244
530,51	44,581
530,71	46,206
530,91	45,645
531,10	36,445
531,30	43,233
531,50	41,152
531,70	44,529
531,89	43,165
532,09	41,857
532,29	40,789
532,49	40,642
532,68	42,008
532,88	41,245
533,08	39,865
533,28	42,578
533,47	43,339
533,67	42,220
533,87	41,137
534,06	45,140
534,26	42,169
534,46	42,637
534,66	43,916
534,85	45,052
535,05	36,967
535,25	40,681
535,45	39,782
535,64	43,929
535,84	40,652
536,04	39,860
536,23	41,781
536,43	43,955
536,63	39,733
536,83	43,896
537,02	40,538
537,22	40,093
537,42	40,572
537,61	40,577
537,81	40,297
538,01	42,420
538,20	42,585
538,40	39,831
538,60	40,482
538,80	40,464
538,99	37,874
539,19	38,637
539,39	38,026
539,58	38,456
539,78	34,996
539,98	35,301
540,17	33,979
540,37	34,327
540,57	32,333
540,76	32,367
540,96	31,448
541,16	34,451
541,36	32,084
541,55	31,026
541,75	29,234
541,95	29,356
542,14	30,191
542,34	28,587
542,54	27,588
542,73	30,570
542,93	32,113
543,13	30,101
543,32	28,511
543,52	29,146
543,72	29,349
543,91	30,293
544,11	28,327
544,31	28,691
544,50	28,460
544,70	28,912
544,89	31,487
545,09	33,258
545,29	30,921
545,48	31,726
545,68	30,105
545,88	31,669
546,07	31,134
546,27	30,551
546,47	33,506
546,66	35,062
546,86	34,818
547,06	33,973
547,25	34,433
547,45	38,630
547,64	38,071
547,84	39,846
548,04	36,447
548,23	40,570
548,43	39,719
548,63	41,094
548,82	39,911
549,02	36,663
549,21	37,769
549,41	38,413
549,61	38,667
549,80	39,842
550,00	39,548
550,20	37,980
550,39	40,756
550,59	38,899
550,78	42,483
550,98	39,948
551,18	39,859
551,37	40,366
551,57	39,731
551,76	39,669
551,96	38,617
552,16	41,413
552,35	41,858
552,55	41,888
552,74	40,606
552,94	43,210
553,14	40,082
553,33	41,920
553,53	41,739
553,72	40,354
553,92	43,669
554,12	41,893
554,31	39,481
554,51	40,995
554,70	38,432
554,90	42,500
555,09	45,366
555,29	43,260
555,49	43,040
555,68	43,396
555,88	40,895
556,07	41,569
556,27	46,713
556,46	42,934
556,66	40,443
556,86	45,621
557,05	42,435
557,25	43,554
557,44	41,079
557,64	42,721
557,83	44,696
558,03	44,457
558,22	40,524
558,42	40,671
558,62	44,432
558,81	42,893
559,01	40,518
559,20	41,336
559,40	43,382
559,59	40,390
559,79	40,323
559,98	42,940
560,18	42,235
560,37	43,391
560,57	41,937
560,76	42,007
560,96	41,983
561,16	43,777
561,35	41,746
561,55	47,352
561,74	43,457
561,94	45,601
562,13	40,372
562,33	42,839
562,52	43,515
562,72	43,480
562,91	40,218
563,11	42,908
563,30	46,970
563,50	41,797
563,69	40,952
563,89	42,103
564,08	43,737
564,28	43,387
564,47	43,329
564,67	44,319
564,86	43,194
565,06	41,318
565,25	40,649
565,45	42,098
565,64	45,678
565,84	41,780
566,03	42,043
566,23	42,850
566,42	42,508
566,62	43,270
566,81	41,666
567,01	43,813
567,20	42,812
567,40	40,916
567,59	40,781
567,79	44,968
567,98	45,382
568,18	40,184
568,37	42,426
568,57	41,968
568,76	44,515
568,96	41,566
569,15	42,294
569,35	44,614
569,54	45,727
569,73	45,952
569,93	41,126
570,12	42,391
570,32	44,369
570,51	41,101
570,71	44,063
570,90	43,582
571,10	42,167
571,29	42,681
571,49	41,883
571,68	43,646
571,87	43,454
572,07	41,923
572,26	42,207
572,46	41,958
572,65	42,603
572,85	39,834
573,04	42,378
573,24	43,835
573,43	46,471
573,62	42,893
573,82	42,244
574,01	42,639
574,21	41,711
574,40	43,055
574,60	41,327
574,79	45,432
574,98	41,165
575,18	43,931
575,37	41,444
575,57	42,883
575,76	41,651
575,96	41,863
576,15	42,109
576,34	40,609
576,54	42,687
576,73	42,990
576,93	41,125
577,12	43,060
577,31	42,403
577,51	39,506
577,70	40,749
577,90	42,129
578,09	40,174
578,28	39,701
578,48	39,898
578,67	42,629
578,87	42,904
579,06	40,277
579,25	42,175
579,45	42,104
579,64	41,329
579,84	42,455
580,03	40,172
580,22	44,649
580,42	39,453
580,61	41,294
580,81	39,993
581,00	40,609
581,19	42,653
581,39	40,302
581,58	40,600
581,77	41,060
581,97	41,928
582,16	40,454
582,35	39,391
582,55	40,389
582,74	41,846
582,94	43,024
583,13	39,445
583,32	40,882
583,52	40,181
583,71	41,670
583,90	40,364
584,10	42,478
584,29	42,687
584,48	41,301
584,68	39,583
584,87	41,016
585,06	40,936
585,26	39,743
585,45	39,620
585,65	40,666
585,84	40,379
586,03	39,447
586,23	38,593
586,42	39,857
586,61	41,063
586,81	41,084
587,00	40,586
587,19	39,537
587,39	42,066
587,58	39,575
587,77	40,019
587,97	39,863
588,16	39,518
588,35	39,861
588,54	42,131
588,74	41,041
588,93	42,336
589,12	39,885
589,32	41,332
589,51	39,229
589,70	38,387
589,90	38,923
590,09	39,983
590,28	45,066
590,48	39,312
590,67	41,365
590,86	39,732
591,06	40,408
591,25	42,514
591,44	40,954
591,63	41,564
591,83	41,823
592,02	41,279
592,21	39,723
592,41	41,255
592,60	40,099
592,79	42,220
592,98	42,470
593,18	40,476
593,37	41,255
593,56	42,876
593,76	41,428
593,95	40,699
594,14	41,485
594,33	43,617
594,53	40,864
594,72	41,538
594,91	43,330
595,10	42,583
595,30	41,348
595,49	41,291
595,68	41,621
595,88	41,379
596,07	42,872
596,26	42,144
596,45	42,818
596,65	41,576
596,84	39,525
597,03	41,558
597,22	43,317
597,42	43,658
597,61	41,549
597,80	40,966
597,99	41,270
598,19	42,518
598,38	41,830
598,57	41,042
598,76	42,619
598,95	41,951
599,15	41,269
599,34	40,787
599,53	41,182
599,72	41,887
599,92	43,187
600,11	39,833
600,30	41,219
600,49	43,920
600,69	40,831
600,88	41,851
601,07	41,546
601,26	41,800
601,45	43,477
601,65	40,595
601,84	41,749
602,03	42,465
602,22	41,552
602,42	44,192
602,61	41,659
602,80	43,578
602,99	40,296
603,18	40,876
603,38	42,102
603,57	40,971
603,76	41,996
603,95	40,491
604,14	41,623
604,34	41,984
604,53	41,057
604,72	43,058
604,91	41,633
605,10	41,545
605,29	42,618
605,49	41,544
605,68	42,088
605,87	42,557
606,06	42,638
606,25	41,111
606,45	41,554
606,64	40,663
606,83	41,522
607,02	39,803
607,21	41,702
607,40	40,758
607,60	38,073
607,79	38,743
607,98	37,816
608,17	38,868
608,36	37,122
608,55	38,810
608,75	37,986
608,94	37,426
609,13	34,592
609,32	33,187
609,51	33,191
609,70	33,850
609,89	34,450
610,09	32,324
610,28	36,129
610,47	33,448
610,66	33,015
610,85	31,442
611,04	34,874
611,23	33,103
611,43	31,988
611,62	31,551
611,81	33,429
612,00	33,849
612,19	31,991
612,38	33,064
612,57	34,330
612,77	35,077
612,96	33,737
613,15	34,022
613,34	35,189
613,53	36,809
613,72	36,819
613,91	38,731
614,10	36,022
614,29	37,668
614,49	35,575
614,68	36,126
614,87	38,059
615,06	38,822
615,25	35,975
615,44	39,710
615,63	38,966
615,82	37,233
616,01	36,685
616,21	37,251
616,40	39,511
616,59	39,776
616,78	38,007
616,97	37,068
617,16	39,847
617,35	41,242
617,54	39,742
617,73	39,960
617,92	39,187
618,11	39,923
618,31	37,199
618,50	40,319
618,69	37,232
618,88	38,582
619,07	36,532
619,26	37,860
619,45	36,911
619,64	37,667
619,83	37,222
620,02	36,927
620,21	40,038
620,40	40,273
620,59	38,252
620,78	36,878
620,97	39,627
621,17	40,788
621,36	37,097
621,55	36,579
621,74	38,393
621,93	40,395
622,12	39,156
622,31	37,644
622,50	37,367
622,69	40,736
622,88	39,134
623,07	40,449
623,26	38,888
623,45	39,342
623,64	38,498
623,83	38,937
624,02	39,930
624,21	39,446
624,40	39,228
624,59	36,264
624,78	39,000
624,97	40,509
625,16	37,528
625,35	36,513
625,54	37,899
625,73	37,159
625,92	38,365
626,12	39,252
626,31	39,353
626,50	37,853
626,69	38,783
626,88	37,192
627,07	39,044
627,26	38,971
627,45	36,399
627,64	35,814
627,83	38,132
628,02	39,061
628,21	39,102
628,40	36,757
628,59	39,917
628,78	38,247
628,97	37,846
629,16	36,340
629,35	37,633
629,54	39,897
629,73	37,645
629,92	36,289
630,10	38,095
630,29	38,290
630,48	36,989
630,67	37,768
630,86	39,720
631,05	38,595
631,24	39,393
631,43	37,225
631,62	37,929
631,81	37,835
632,00	38,123
632,19	36,416
632,38	38,815
632,57	39,655
632,76	37,500
632,95	38,488
633,14	40,466
633,33	38,529
633,52	39,319
633,71	40,850
633,90	38,213
634,09	38,344
634,28	39,085
634,47	36,379
634,66	38,196
634,85	38,862
635,04	40,962
635,22	39,600
635,41	39,203
635,60	39,734
635,79	39,831
635,98	36,697
636,17	38,430
636,36	38,876
636,55	37,951
636,74	38,110
636,93	38,477
637,12	39,791
637,31	38,993
637,50	37,236
637,69	41,682
637,87	40,168
638,06	38,942
638,25	37,984
638,44	40,443
638,63	35,629
638,82	38,891
639,01	39,376
639,20	37,552
639,39	40,130
639,58	37,098
639,77	38,462
639,95	38,222
640,14	38,608
640,33	36,783
640,52	36,600
640,71	39,302
640,90	37,675
641,09	39,834
641,28	37,685
641,47	38,874
641,66	38,374
641,84	38,912
642,03	36,964
642,22	39,404
642,41	40,578
642,60	38,345
642,79	38,568
642,98	39,730
643,17	37,682
643,35	37,489
643,54	38,249
643,73	38,789
643,92	39,033
644,11	38,889
644,30	36,050
644,49	39,986
644,67	36,692
644,86	36,657
645,05	39,071
645,24	36,265
645,43	38,976
645,62	38,320
645,81	38,305
645,99	39,337
646,18	38,059
646,37	36,371
646,56	36,181
646,75	39,768
646,94	40,500
647,13	37,658
647,31	36,754
647,50	37,522
647,69	39,989
647,88	38,963
648,07	38,234
648,26	41,614
648,44	38,429
648,63	36,229
648,82	36,968
649,01	38,045
649,20	37,132
649,38	37,503
649,57	38,560
649,76	36,284
649,95	38,863
650,14	36,105
650,33	36,176
650,51	36,275
650,70	38,080
650,89	35,903
651,08	37,819
651,27	37,813
651,45	35,996
651,64	35,065
651,83	37,365
652,02	36,216
652,21	37,483
652,39	37,669
652,58	37,492
652,77	36,126
652,96	38,755
653,15	36,974
653,33	37,309
653,52	37,735
653,71	38,287
653,90	38,070
654,09	36,599
654,27	37,119
654,46	40,259
654,65	37,196
654,84	37,092
655,02	39,618
655,21	38,976
655,40	38,645
655,59	37,284
655,77	37,909
655,96	37,515
656,15	38,931
656,34	38,294
656,53	37,442
656,71	38,357
656,90	37,918
657,09	38,867
657,28	38,335
657,46	37,013
657,65	35,424
657,84	36,436
658,03	36,651
658,21	38,389
658,40	35,796
658,59	36,693
658,78	37,500
658,96	34,887
659,15	35,459
659,34	33,795
659,52	35,722
659,71	35,954
659,90	34,756
660,09	35,571
660,27	35,887
660,46	36,685
660,65	36,486
660,84	32,490
661,02	35,517
661,21	34,901
661,40	33,342
661,58	35,779
661,77	35,034
661,96	32,119
662,15	33,006
662,33	33,258
662,52	34,358
662,71	35,364
662,89	32,557
663,08	34,647
663,27	34,411
663,45	33,166
663,64	32,668
663,83	31,143
664,02	32,519
664,20	34,930
664,39	32,389
664,58	34,909
664,76	33,168
664,95	32,622
665,14	32,772
665,32	32,047
665,51	33,374
665,70	33,112
665,88	32,974
666,07	31,874
666,26	34,682
666,44	33,258
666,63	30,923
666,82	31,279
667,00	33,295
667,19	30,237
667,38	33,282
667,56	31,026
667,75	32,906
667,94	31,726
668,12	29,648
668,31	32,340
668,50	32,646
668,68	32,762
668,87	31,481
669,06	30,969
669,24	32,222
669,43	30,431
669,62	28,531
669,80	29,086
669,99	30,764
670,18	31,125
670,36	29,049
670,55	30,997
670,74	30,689
670,92	28,111
671,11	30,548
671,29	31,667
671,48	30,447
671,67	30,288
671,85	32,431
672,04	29,413
672,23	28,958
672,41	29,497
672,60	29,949
672,78	28,237
672,97	30,628
673,16	31,910
673,34	29,022
673,53	29,337
673,71	30,946
673,90	30,963
674,09	31,171
674,27	29,755
674,46	29,570
674,64	30,575
674,83	30,554
675,02	27,499
675,20	29,673
675,39	29,297
675,57	29,812
675,76	28,646
675,95	31,939
676,13	30,889
676,32	28,673
676,50	28,770
676,69	28,674
676,88	28,782
677,06	29,437
677,25	28,345
677,43	31,750
677,62	29,491
677,80	28,703
677,99	28,992
678,18	31,166
678,36	32,329
678,55	28,548
678,73	29,039
678,92	30,262
679,10	30,931
679,29	29,264
679,48	29,116
679,66	28,774
679,85	29,690
680,03	30,025
680,22	29,152
680,40	29,279
680,59	29,873
680,77	30,386
680,96	30,997
681,15	30,217
681,33	32,554
681,52	30,068
681,70	29,270
681,89	32,944
682,07	30,837
682,26	30,774
682,44	31,720
682,63	32,346
682,81	31,308
683,00	32,302
683,18	30,356
683,37	33,284
683,55	30,771
683,74	31,976
683,92	36,492
684,11	32,328
684,29	32,801
684,48	30,172
684,67	31,256
684,85	30,655
685,04	32,940
685,22	33,956
685,41	32,515
685,59	32,494
685,78	32,185
685,96	34,401
686,15	33,606
686,33	32,684
686,52	33,923
686,70	33,573
686,89	35,299
687,07	37,266
687,26	36,146
687,44	35,653
687,62	34,046
687,81	35,149
687,99	35,712
688,18	36,829
688,36	35,596
688,55	35,619
688,73	36,396
688,92	34,939
689,10	35,788
689,29	36,546
689,47	38,702
689,66	34,679
689,84	35,071
690,03	39,794
690,21	36,638
690,40	37,186
690,58	36,365
690,76	35,815
690,95	38,140
691,13	37,561
691,32	37,849
691,50	39,381
691,69	39,775
691,87	37,059
692,06	37,122
692,24	36,796
692,43	38,279
692,61	38,166
692,79	37,365
692,98	37,288
693,16	40,571
693,35	37,697
693,53	38,595
693,72	38,783
693,90	39,464
694,08	37,515
694,27	38,422
694,45	41,927
694,64	40,825
694,82	38,117
695,01	37,746
695,19	40,495
695,37	38,221
695,56	37,881
695,74	40,342
695,93	40,282
696,11	38,035
696,29	41,562
696,48	40,453
696,66	41,223
696,85	39,437
697,03	39,466
697,21	40,654
697,40	40,418
697,58	40,549
697,77	40,120
697,95	42,115
698,13	42,160
698,32	39,706
698,50	38,360
698,69	39,761
698,87	42,388
699,05	40,186
699,24	39,179
699,42	41,204
699,60	38,625
699,79	40,145
699,97	39,018
700,16	38,827
700,34	42,667
700,52	40,023
700,71	41,310
700,89	40,260
701,07	41,001
701,26	42,162
701,44	38,906
701,63	38,118
701,81	42,029
701,99	42,044
702,18	38,197
702,36	38,810
702,54	41,702
702,73	41,087
702,91	42,522
703,09	40,075
703,28	40,113
703,46	42,526
703,64	40,528
703,83	40,356
704,01	42,668
704,19	41,261
704,38	40,050
704,56	40,925
704,74	42,557
704,93	41,205
705,11	40,928
705,29	41,974
705,48	44,273
705,66	41,373
705,84	39,680
706,03	39,327
706,21	42,048
706,39	40,123
706,58	40,310
706,76	39,930
706,94	40,749
707,12	41,720
707,31	41,279
707,49	40,449
707,67	41,180
707,86	41,621
708,04	39,264
708,22	39,275
708,41	40,498
708,59	40,754
708,77	39,553
708,95	41,652
709,14	43,870
709,32	43,099
709,50	39,265
709,69	40,689
709,87	40,955
710,05	41,699
710,23	38,872
710,42	39,891
710,60	42,091
710,78	42,824
710,97	39,866
711,15	40,727
711,33	44,144
711,51	39,858
711,70	40,675
711,88	39,740
712,06	43,393
712,24	42,263
712,43	40,309
712,61	40,433
712,79	42,776
712,97	40,848
713,16	42,755
713,34	40,120
713,52	43,171
713,70	40,427
713,89	40,070
714,07	41,493
714,25	41,182
714,43	42,633
714,62	40,330
714,80	41,441
714,98	39,277
715,16	41,834
715,35	39,291
715,53	40,141
715,71	43,347
715,89	43,085
716,07	41,335
716,26	44,117
716,44	43,171
716,62	42,685
716,80	40,033
716,99	41,637
717,17	42,568
717,35	43,137
717,53	40,187
717,71	40,340
717,90	41,288
718,08	42,335
718,26	38,888
718,44	42,873
718,62	42,704
718,81	43,040
718,99	38,658
719,17	42,055
719,35	41,725
719,53	41,552
719,72	41,957
719,90	41,500
720,08	40,744
720,26	43,029
720,44	39,876
720,62	41,708
720,81	42,312
720,99	43,632
721,17	40,595
721,35	41,824
721,53	42,233
721,72	42,652
721,90	42,694
722,08	40,930
722,26	42,463
722,44	42,322
722,62	39,488
722,81	40,007
722,99	42,186
723,17	41,305
723,35	41,515
723,53	42,345
723,71	42,450
723,89	41,681
724,08	38,578
724,26	40,492
724,44	42,881
724,62	42,544
724,80	40,514
724,98	41,277
725,16	44,759
725,35	41,907
725,53	40,370
725,71	39,959
725,89	42,682
726,07	42,391
726,25	43,197
726,43	40,881
726,61	41,290
726,80	44,301
726,98	40,792
727,16	40,906
727,34	43,130
727,52	40,653
727,70	41,282
727,88	41,012
728,06	39,494
728,25	41,359
728,43	41,019
728,61	39,476
728,79	40,417
728,97	41,971
729,15	39,685
729,33	41,839
729,51	41,292
729,69	42,346
729,87	41,644
730,06	41,518
730,24	42,932
730,42	43,479
730,60	40,915
730,78	41,673
730,96	40,859
731,14	41,071
731,32	41,617
731,50	39,509
731,68	41,423
731,86	41,059
732,04	41,556
732,22	40,174
732,41	45,537
732,59	41,973
732,77	42,562
732,95	44,222
733,13	41,339
733,31	43,119
733,49	39,165
733,67	44,045
733,85	43,064
734,03	42,063
734,21	40,847
734,39	42,027
734,57	44,935
734,75	42,891
734,93	39,238
735,11	41,575
735,29	39,490
735,47	42,090
735,65	41,132
735,84	41,073
736,02	41,117
736,20	43,489
736,38	40,737
736,56	40,481
736,74	42,096
736,92	42,849
737,10	42,044
737,28	41,513
737,46	41,718
737,64	41,665
737,82	41,699
738,00	43,162
738,18	44,111
738,36	40,435
738,54	41,898
738,72	39,772
738,90	41,327
739,08	42,618
739,26	37,088
739,44	41,435
739,62	42,436
739,80	42,309
739,98	42,553
740,16	42,300
740,34	41,813
740,52	44,480
740,70	41,851
740,88	40,526
741,06	43,047
741,24	42,224
741,42	41,928
741,60	40,221
741,78	42,713
741,96	43,455
742,14	41,167
742,32	39,280
742,50	41,858
742,68	42,834
742,86	40,242
743,04	39,070
743,21	42,863
743,39	42,729
743,57	41,807
743,75	40,523
743,93	39,910
744,11	39,072
744,29	40,910
744,47	39,022
744,65	41,683
744,83	42,186
745,01	39,728
745,19	41,262
745,37	43,930
745,55	42,382
745,73	42,570
745,91	41,063
746,09	41,403
746,27	41,263
746,45	39,635
746,62	40,222
746,80	41,577
746,98	40,604
747,16	40,196
747,34	39,474
747,52	40,448
747,70	41,270
747,88	41,056
748,06	40,105
748,24	39,785
748,42	43,142
748,60	41,919
748,78	40,641
748,95	44,275
749,13	42,471
749,31	42,043
749,49	40,446
749,67	42,000
749,85	43,924
750,03	42,367
750,21	41,819
750,39	41,172
750,57	42,344
750,74	42,337
750,92	40,814
751,10	43,659
751,28	39,602
751,46	41,136
751,64	40,684
751,82	43,091
752,00	43,724
752,17	42,960
752,35	40,362
752,53	41,963
752,71	40,938
752,89	41,892
753,07	40,655
753,25	42,964
753,43	41,617
753,60	43,789
753,78	40,103
753,96	43,744
754,14	42,379
754,32	43,994
754,50	41,310
754,68	42,566
754,85	41,666
755,03	41,694
755,21	42,200
755,39	45,010
755,57	43,347
755,75	40,137
755,92	40,780
756,10	41,308
756,28	45,131
756,46	39,978
756,64	42,609
756,82	42,652
756,99	42,411
757,17	41,085
757,35	40,102
757,53	45,404
757,71	41,573
757,89	40,695
758,06	42,945
758,24	42,217
758,42	43,065
758,60	41,140
758,78	42,596
758,95	43,889
759,13	43,485
759,31	39,761
759,49	39,481
759,67	40,282
759,84	42,424
760,02	43,116
760,20	39,939
760,38	42,087
760,56	42,024
760,73	42,877
760,91	44,323
761,09	44,823
761,27	41,362
761,45	42,220
761,62	41,446
761,80	42,888
761,98	41,492
762,16	41,566
762,33	41,900
762,51	44,338
762,69	41,870
762,87	39,819
763,05	41,600
763,22	40,286
763,40	40,798
763,58	42,374
763,76	42,430
763,93	43,298
764,11	42,721
764,29	39,445
764,47	42,299
764,64	44,291
764,82	43,495
765,00	42,727
765,18	39,687
765,35	39,990
765,53	41,528
765,71	42,767
765,89	39,575
766,06	40,603
766,24	43,888
766,42	44,885
766,60	42,438
766,77	40,988
766,95	42,332
767,13	42,201
767,30	42,118
767,48	43,751
767,66	43,008
767,84	41,121
768,01	38,526
768,19	43,028
768,37	42,468
768,54	41,313
768,72	44,239
768,90	42,245
769,08	42,850
769,25	42,183
769,43	42,085
769,61	39,270
769,78	40,980
769,96	41,258
770,14	43,499
770,31	42,845
770,49	45,302
770,67	43,297
770,85	39,975
771,02	42,373
771,20	41,410
771,38	43,515
771,55	40,819
771,73	41,309
771,91	43,387
772,08	43,563
772,26	41,924
772,44	41,832
772,61	42,161
772,79	41,344
772,97	41,735
773,14	41,844
773,32	43,314
773,50	38,472
773,67	41,769
773,85	43,495
774,03	45,754
774,20	41,227
774,38	42,582
774,56	40,666
774,73	42,593
774,91	41,829
775,09	42,699
775,26	40,543
775,44	42,642
775,61	43,827
775,79	39,810
775,97	43,801
776,14	41,777
776,32	41,707
776,50	40,131
776,67	42,731
776,85	42,685
777,03	41,993
777,20	44,821
777,38	43,354
777,55	44,634
777,73	40,894
777,91	40,938
778,08	41,996
778,26	43,857
778,43	42,552
778,61	40,664
778,79	42,875
778,96	43,022
779,14	41,434
779,32	41,490
779,49	43,513
779,67	42,855
779,84	42,010
780,02	44,327
780,20	40,402
780,37	46,191
780,55	37,648
780,72	45,890
780,90	44,407
781,07	41,937
781,25	40,649
781,43	42,283
781,60	40,408
781,78	41,891
781,95	42,521
782,13	39,763
782,30	44,040
782,48	43,476
782,66	42,509
782,83	42,849
783,01	46,984
783,18	43,887
783,36	42,620
783,53	43,068
783,71	39,893
783,89	42,679
784,06	43,913
784,24	43,249
784,41	44,950
784,59	41,649
784,76	42,817
784,94	42,616
785,11	42,144
785,29	43,846
785,46	43,847
785,64	39,565
785,82	44,562
785,99	43,808
786,17	44,394
786,34	39,434
786,52	45,188
786,69	44,886
786,87	40,593
787,04	42,744
787,22	40,367
787,39	43,662
787,57	43,657
787,74	44,417
787,92	46,117
788,09	45,649
788,27	41,090
788,44	42,294
788,62	44,060
788,79	43,892
788,97	43,565
789,14	43,013
789,32	44,329
789,49	43,044
789,67	44,295
789,84	41,383
790,02	42,274
790,19	42,187
790,37	45,548
790,54	44,301
790,72	44,743
790,89	47,193
791,07	42,938
791,24	41,127
791,42	44,666
791,59	44,484
791,77	45,142
791,94	39,941
792,12	40,404
792,29	43,758
792,47	43,465
792,64	46,829
792,81	44,502
792,99	42,059
793,16	44,591
793,34	43,163
793,51	42,153
793,69	43,797
793,86	41,871
794,04	41,606
794,21	46,240
794,39	41,960
794,56	44,270
794,73	43,484
794,91	46,579
795,08	42,083
795,26	42,806
795,43	43,943
795,61	46,807
795,78	45,928
795,95	47,752
796,13	43,767
796,30	44,446
796,48	42,702
796,65	41,626
796,83	44,833
797,00	50,899
797,17	42,743
797,35	43,890
797,52	45,329
797,70	47,967
797,87	44,443
798,04	38,985
798,22	40,874
798,39	44,792
798,57	44,443
798,74	42,184
798,91	47,381
799,09	40,918
799,26	45,090
799,44	42,068
799,61	40,751
799,78	41,418
799,96	45,124
800,13	44,046
800,31	42,380
800,48	49,897
800,65	48,597
800,83	41,832
801,00	43,246
801,17	44,720
801,35	43,358
801,52	43,634
801,70	42,906
801,87	42,392
802,04	46,396
802,22	42,135
802,39	42,596
802,56	49,648
802,74	46,537
802,91	43,293
803,08	40,082
803,26	44,380
803,43	48,707
803,61	44,788
803,78	43,844
803,95	42,746
804,13	47,437
804,30	42,130
804,47	46,901
804,65	46,641
804,82	47,816
804,99	44,461
805,17	43,412
805,34	49,569
805,51	48,959
805,69	43,335
805,86	44,421
806,03	51,776
806,21	48,745
806,38	46,064
806,55	44,992
806,72	47,129
806,90	46,620
807,07	43,781
807,24	41,836
807,42	44,179
807,59	45,265
807,76	41,586
807,94	46,049
808,11	49,776
808,28	47,392
808,45	42,375
808,63	45,454
808,80	49,969
808,97	48,616
809,15	45,570
809,32	45,325
809,49	40,812
809,67	45,418
809,84	49,311
810,01	48,526
810,18	54,918
810,36	48,801
810,53	47,314
810,70	42,783
810,87	46,097
811,05	45,072
811,22	43,136
811,39	47,687
811,57	48,448
811,74	48,481
811,91	41,595
812,08	43,062
812,26	48,086
812,43	41,191
812,60	45,049
812,77	43,241
812,95	50,448
813,12	48,174
813,29	39,576
813,46	45,730
813,64	46,843
813,81	48,130
813,98	41,684
814,15	47,973
814,32	49,318
814,50	48,516
814,67	48,178
814,84	43,261
815,01	50,161
815,19	42,172
815,36	43,543
815,53	45,575
815,70	46,191
815,87	47,742
816,05	42,954
816,22	44,200
816,39	46,713
816,56	52,112
816,74	48,806
816,91	49,237
817,08	54,269
817,25	48,803
817,42	49,495
817,60	47,024
817,77	44,589
817,94	46,946
818,11	47,763
818,28	47,162
818,45	51,190
818,63	45,665
818,80	46,988
818,97	48,255
819,14	55,704
819,31	52,261
819,49	47,245
819,66	42,288
819,83	49,326
820,00	48,338
820,17	43,231
820,34	43,652
820,52	51,765
820,69	49,093
820,86	46,668
821,03	43,358
821,20	52,881
821,37	55,083
821,55	41,477
821,72	45,422
821,89	47,597
822,06	50,776
822,23	49,529
822,40	48,590
822,57	46,886
822,75	53,676
822,92	43,395
823,09	47,480
823,26	43,797
823,43	54,932
823,60	43,569
823,77	49,618
823,94	53,467
824,12	52,094
824,29	44,367
824,46	42,782
824,63	54,767
824,80	53,139
824,97	49,092
825,14	54,475
825,31	45,476
825,49	49,362
825,66	48,201
825,83	39,307
826,00	51,190
826,17	57,775
826,34	47,163
826,51	42,524
826,68	44,156
826,85	49,364
827,02	44,592
827,20	42,874
827,37	44,459
827,54	49,803
827,71	46,466
827,88	53,402
828,05	54,637
828,22	48,678
828,39	51,808
828,56	53,332
828,73	55,352
828,90	48,868
829,07	48,917
829,25	47,816
829,42	51,754
829,59	42,111
829,76	45,736
829,93	47,430
830,10	48,735
830,27	43,257
830,44	48,476
830,61	49,600
830,78	60,676
830,95	49,832
831,12	44,767
831,29	46,926
831,46	47,881
831,63	46,164
831,80	47,120
831,97	50,646
832,14	57,301
832,31	56,394
832,48	51,377
832,65	48,708
832,83	43,442
833,00	49,543
833,17	46,799
833,34	51,126
833,51	55,512
833,68	62,851
833,85	47,151
834,02	43,450
834,19	51,331
834,36	54,562
834,53	42,105
834,70	45,151
834,87	60,885
835,04	49,458
835,21	57,886
835,38	44,421
835,55	53,128
835,72	69,439
835,89	48,414
836,06	48,034
836,23	61,670
836,40	46,814
836,57	43,412
836,74	54,040
836,91	50,277
837,08	58,842
837,25	56,341
837,42	44,160
837,59	46,279
837,76	50,931
837,93	46,888
838,09	41,488
838,26	53,669
838,43	56,828
838,60	49,944
838,77	43,370
838,94	60,613
839,11	48,055
839,28	44,153
839,45	49,219
839,62	52,772
839,79	53,014
839,96	52,910
840,13	54,989
840,30	50,842
840,47	42,375
840,64	52,044
840,81	47,506
840,98	39,372
841,15	63,139
841,32	45,849
841,48	55,869
841,65	49,220
841,82	50,724
841,99	54,484
842,16	44,763
842,33	55,334
842,50	61,937
842,67	51,050
842,84	48,769
843,01	54,836
843,18	54,082
843,35	53,221
843,52	48,544
843,68	54,666
843,85	51,482
844,02	44,825
844,19	43,697
844,36	58,573
844,53	67,891
844,70	54,109
844,87	67,220
845,04	55,236
845,21	50,700
845,37	54,092
845,54	48,125
845,71	45,127
845,88	74,949
846,05	45,476
846,22	43,203
846,39	55,152
846,56	56,282
846,72	44,360
846,89	50,089
847,06	62,212
847,23	60,646
847,40	47,000
847,57	46,504
847,74	47,095
847,90	57,221
848,07	53,979
848,24	54,696
848,41	59,314
848,58	59,966
848,75	56,346
848,92	55,241
849,08	51,242
849,25	53,538
849,42	50,839
849,59	49,056
849,76	56,287
849,93	57,360
850,09	50,112
850,26	42,332
850,43	62,408
850,60	48,487
850,77	46,046
850,94	54,638
851,10	62,317
851,27	49,297
851,44	50,923
851,61	46,696
851,78	68,821
851,95	62,460
852,11	52,977
852,28	50,562
852,45	59,403
852,62	60,064
852,79	51,010
852,95	50,254
853,12	61,986
853,29	47,828
853,46	52,018
853,63	63,411
853,79	52,397
853,96	46,164
854,13	60,163
854,30	38,570
854,46	61,936
854,63	58,817
854,80	42,863
854,97	39,646
855,14	71,547
855,30	55,004
855,47	45,632
855,64	53,446
855,81	48,448
855,97	61,897
856,14	52,565
856,31	37,651
856,48	67,947
856,65	70,943
856,81	47,175
856,98	39,263
857,15	48,605
857,32	55,296
857,48	37,026
857,65	63,561
857,82	63,182
857,99	69,179
858,15	52,334
858,32	66,414
858,49	56,998
858,65	67,246
858,82	64,297
858,99	58,296
859,16	70,943
859,32	72,465
859,49	59,350
859,66	52,587
859,83	53,868
859,99	57,998
860,16	60,182
860,33	49,950
860,49	72,324
860,66	68,709
860,83	55,264
861,00	53,774
861,16	63,262
861,33	60,085
861,50	55,609
861,66	57,719
861,83	70,398
862,00	60,259
862,16	62,704
862,33	71,065
862,50	90,098
862,67	56,768
862,83	47,411
863,00	60,182
863,17	78,180
863,33	62,560
863,50	31,504
863,67	52,212
863,83	58,195
864,00	99,793
864,17	34,971
864,33	52,369
864,50	66,008
864,67	65,634
864,83	52,812
865,00	57,350
865,17	52,552
865,33	77,220
865,50	54,467
865,67	38,717
865,83	60,925
866,00	90,218
866,17	53,628
866,33	55,677
866,50	91,092
866,66	78,638
866,83	70,971
867,00	76,173
867,16	87,297
867,33	101,923
867,50	43,979
867,66	28,910
867,83	65,327
868,00	65,473
868,16	50,737
868,33	56,059
868,49	65,470
868,66	81,772
868,83	62,910
868,99	77,899
869,16	75,803
869,32	76,409
869,49	46,132
869,66	49,902
869,82	103,487
869,99	86,091
870,15	41,256
870,32	67,473
870,49	100,993
870,65	103,956
870,82	71,855
870,98	69,733
871,15	131,806
871,32	51,003
871,48	64,621
871,65	45,300
871,81	83,819
871,98	53,466
872,15	27,433
872,31	43,882
872,48	110,306
872,64	83,378
872,81	40,005
872,97	71,593
873,14	108,886
873,31	83,554
873,47	42,832
873,64	64,886
873,80	134,579
873,97	133,052
874,13	45,181
874,30	68,439
874,46	97,201
874,63	72,525
874,80	33,043
874,96	37,371
875,13	102,572
875,29	50,037
875,46	114,724
875,62	52,898
875,79	86,020
875,95	56,805
876,12	56,913
876,28	30,995
876,45	106,457
876,61	65,000
876,78	47,986
876,94	47,459
877,11	89,099
877,27	107,478
877,44	75,668
877,60	78,118
877,77	90,826
877,94	126,093
878,10	65,383
878,27	62,437
878,43	110,733
878,60	43,089
878,76	57,926
878,93	51,998
879,09	95,198
879,26	122,857
879,42	81,614
879,58	77,908
879,75	142,485
879,91	160,910
880,08	23,317
880,24	88,825
880,41	73,882
880,57	111,036
880,74	63,606
880,90	79,550
881,07	74,161
881,23	153,158
881,40	55,547
881,56	75,700
881,73	122,360
881,89	108,380
882,06	-4,201
882,22	105,164
882,38	159,800
882,55	182,526
882,71	58,275
882,88	47,244
883,04	137,101
883,21	190,427
883,37	101,488
883,54	37,032
883,70	247,375
883,86	120,477
884,03	108,279
884,19	50,798
884,36	54,416
884,52	250,751
884,69	125,812
884,85	51,013
885,01	243,923
885,18	105,371
885,34	176,722
885,51	32,213
885,67	119,098
>>>>> Data<<<<< Espectral Procesado Extremo
