Fichero De Datos De SpectraSuite
++++++++++++++++++++++++++++++++++++
Fecha: Wed Apr 22 11:30:20 CEST 2009
Usuario: evoflor
Presente Oscuro Del Espectro: Sí
La Referencia de Presente Del Espectro De: Sí
Muestreados de los componentes de Número de espectros: 1
Espectrómetros: USB4F02353
Tiempo de integración (usec): 500000 (USB4F02353)
Promedio de Espectros Hechos un: 5 (USB4F02353)
El Alisar Del Furgón: 0 (USB4F02353)
Párrafo de de Corregir del la del del de Eléctrica del obscuridad: Sí (USB4F02353)
Estrobo/Lámpara Permitido: No (USB4F02353)
Correct for Detector Non-linearity: No (USB4F02353)
Párrafo de de Corregir del la del del de Externa del luz: No (USB4F02353)
Procesado del espectro de Número de pixeles en: 3648
>>>>> Comienza Data<<<<< Espectral Procesado Del EL
177,79	219,526
178,00	219,526
178,22	219,526
178,44	1169,560
178,66	-184,430
178,88	361,336
179,09	-106,255
179,31	389,339
179,53	570,495
179,75	237,861
179,96	541,121
180,18	133,631
180,40	231,433
180,62	390,902
180,83	-138,554
181,05	-1950,854
181,27	-166270,000
181,49	-95,370
181,70	407,577
181,92	1072,437
182,14	639,066
182,36	52,065
182,58	164,300
182,79	734,241
183,01	-50,921
183,23	310,786
183,45	-140,523
183,66	5,000
183,88	734,529
184,10	-3301,273
184,32	393,738
184,53	173,945
184,75	-67,209
184,97	25,782
185,18	-231,335
185,40	-630,625
185,62	134,765
185,84	34,869
186,05	161,320
186,27	-138,434
186,49	1929,615
186,71	84,054
186,92	135,756
187,14	-139,726
187,36	146,752
187,58	45,957
187,79	-80,350
188,01	259,768
188,23	-293,381
188,45	78,505
188,66	440,938
188,88	-437,636
189,10	-1248,700
189,31	-62,577
189,53	-94,033
189,75	418,795
189,97	248,346
190,18	-178,670
190,40	872,176
190,62	-139,975
190,83	-241,187
191,05	172,766
191,27	289,914
191,49	242,252
191,70	-327,740
191,92	-348,898
192,14	-55,746
192,35	550,849
192,57	3182,000
192,79	-87,216
193,01	43,103
193,22	169,852
193,44	-61,041
193,66	145,991
193,87	16,852
194,09	-29,129
194,31	161,621
194,53	545,944
194,74	34,468
194,96	-6,049
195,18	156,440
195,39	-462,454
195,61	-150,890
195,83	-281,239
196,04	109,501
196,26	-206,884
196,48	15,998
196,70	201,730
196,91	-112,509
197,13	190,810
197,35	-59,578
197,56	629,009
197,78	1522,910
198,00	199,790
198,21	619,272
198,43	-1102,733
198,65	136,431
198,86	106,007
199,08	-24,361
199,30	343,866
199,51	-263,094
199,73	184,551
199,95	429,381
200,16	556,423
200,38	26,722
200,60	120,357
200,81	271,242
201,03	165,679
201,25	-1266,700
201,46	144,654
201,68	48,982
201,90	1508,409
202,11	-473,168
202,33	94,919
202,55	300,875
202,76	-50,195
202,98	165,401
203,20	-158,990
203,41	-131,421
203,63	117,354
203,85	-117670,000
204,06	-15,151
204,28	-116,554
204,50	163,093
204,71	234,929
204,93	336,560
205,15	275,813
205,36	-276,616
205,58	196,488
205,80	-242,701
206,01	99,126
206,23	80,667
206,45	217,229
206,66	81,359
206,88	-57,092
207,10	289,932
207,31	320,358
207,53	35,343
207,75	61,089
207,96	696,791
208,18	-150,119
208,39	126,686
208,61	1562,000
208,83	-467,977
209,04	323,276
209,26	-359,770
209,48	205,308
209,69	134,629
209,91	467,466
210,13	59,207
210,34	-20,169
210,56	147,622
210,77	-1904,488
210,99	195,501
211,21	8033,529
211,42	-16,745
211,64	-59,927
211,86	320,736
212,07	240,275
212,29	273,594
212,50	126,357
212,72	120,269
212,94	161,357
213,15	151,487
213,37	122,921
213,58	-89,290
213,80	-2241,786
214,02	12957,059
214,23	242,646
214,45	459,574
214,67	1352,805
214,88	-147,215
215,10	-199,243
215,31	-51,594
215,53	-4,614
215,75	303,252
215,96	1435,217
216,18	-244,085
216,39	176,175
216,61	378,755
216,83	272,187
217,04	947,978
217,26	15,597
217,47	143,096
217,69	251,023
217,91	79,459
218,12	-37570,000
218,34	74,048
218,55	216,631
218,77	97,994
218,99	109,790
219,20	-187,393
219,42	394,771
219,63	-26,375
219,85	-102,039
220,06	-42,423
220,28	135,504
220,50	61,150
220,71	71,603
220,93	3222,075
221,14	-2085,700
221,36	-37,419
221,58	-92,855
221,79	21,235
222,01	1394,569
222,22	193,882
222,44	-73,371
222,65	109,579
222,87	640,350
223,09	152,742
223,30	135,074
223,52	181,532
223,73	166,988
223,95	7,282
224,16	211,072
224,38	391,872
224,60	78,904
224,81	-40,209
225,03	84,989
225,24	122,211
225,46	75,864
225,67	-15,575
225,89	-40,353
226,10	498,102
226,32	1157,360
226,54	-16,378
226,75	-72,511
226,97	147,075
227,18	165,019
227,40	-3,627
227,61	68,962
227,83	41,497
228,04	87,195
228,26	80,164
228,47	57,952
228,69	261,995
228,91	115,065
229,12	92,159
229,34	35,910
229,55	46,433
229,77	10,594
229,98	14,447
230,20	53,911
230,41	24,269
230,63	129,941
230,84	-45,091
231,06	33,647
231,27	33,008
231,49	45,029
231,71	17,812
231,92	19,836
232,14	11,631
232,35	95,916
232,57	11,681
232,78	30,382
233,00	72,500
233,21	9,790
233,43	12,471
233,64	19,642
233,86	43,893
234,07	13,485
234,29	27,311
234,50	29,153
234,72	41,095
234,93	29,523
235,15	29,126
235,36	17,345
235,58	34,008
235,79	38,153
236,01	11,712
236,22	14,019
236,44	46,067
236,65	19,962
236,87	27,496
237,08	9,536
237,30	2,610
237,51	35,737
237,73	-3,041
237,94	13,052
238,16	15,816
238,37	21,249
238,59	16,635
238,80	21,909
239,02	7,962
239,23	25,398
239,45	-5,282
239,66	21,662
239,88	37,435
240,09	25,285
240,31	10,219
240,52	6,011
240,74	14,785
240,95	10,539
241,17	4,558
241,38	6,148
241,60	6,143
241,81	23,010
242,03	9,152
242,24	9,401
242,46	25,188
242,67	1,942
242,89	12,616
243,10	18,923
243,32	11,732
243,53	17,990
243,75	7,182
243,96	17,887
244,18	21,017
244,39	12,602
244,60	6,215
244,82	5,721
245,03	17,938
245,25	11,879
245,46	30,580
245,68	10,761
245,89	19,461
246,11	17,580
246,32	9,129
246,54	8,323
246,75	11,069
246,97	15,425
247,18	22,491
247,39	2,005
247,61	9,647
247,82	9,921
248,04	3,372
248,25	9,569
248,47	16,403
248,68	15,086
248,90	2,124
249,11	11,708
249,33	20,143
249,54	11,649
249,75	10,869
249,97	4,766
250,18	11,708
250,40	16,398
250,61	-4,127
250,83	5,033
251,04	7,882
251,25	11,328
251,47	6,627
251,68	15,177
251,90	7,159
252,11	11,332
252,33	4,709
252,54	5,884
252,76	4,781
252,97	4,988
253,18	3,681
253,40	8,525
253,61	5,499
253,83	13,400
254,04	7,893
254,25	8,763
254,47	0,353
254,68	7,006
254,90	5,670
255,11	11,443
255,33	9,304
255,54	5,713
255,75	6,745
255,97	7,518
256,18	3,027
256,40	8,594
256,61	11,964
256,82	1,592
257,04	10,265
257,25	6,047
257,47	7,932
257,68	4,615
257,89	10,715
258,11	5,963
258,32	7,264
258,54	7,195
258,75	10,099
258,96	10,401
259,18	6,044
259,39	5,187
259,61	10,345
259,82	9,456
260,03	9,265
260,25	8,043
260,46	4,471
260,68	7,246
260,89	5,270
261,10	3,836
261,32	8,498
261,53	7,758
261,75	9,099
261,96	1,861
262,17	13,622
262,39	12,140
262,60	-0,295
262,81	1,360
263,03	15,243
263,24	7,909
263,46	2,819
263,67	3,472
263,88	7,550
264,10	8,902
264,31	3,391
264,52	10,021
264,74	10,491
264,95	9,399
265,17	8,169
265,38	4,841
265,59	12,376
265,81	10,432
266,02	0,109
266,23	0,949
266,45	10,973
266,66	12,563
266,87	10,782
267,09	5,440
267,30	10,319
267,52	8,636
267,73	7,174
267,94	7,872
268,16	9,095
268,37	3,800
268,58	7,078
268,80	5,032
269,01	6,609
269,22	8,513
269,44	6,064
269,65	11,332
269,86	-0,504
270,08	6,931
270,29	4,078
270,50	10,075
270,72	9,637
270,93	8,611
271,14	4,191
271,36	6,924
271,57	8,550
271,78	9,308
272,00	12,155
272,21	7,479
272,42	10,013
272,64	9,720
272,85	7,506
273,06	4,490
273,28	7,206
273,49	8,172
273,70	9,121
273,92	10,325
274,13	8,035
274,34	4,196
274,56	9,309
274,77	4,975
274,98	8,859
275,20	6,551
275,41	7,351
275,62	6,456
275,84	6,868
276,05	13,275
276,26	5,386
276,47	1,971
276,69	8,417
276,90	6,620
277,11	6,113
277,33	3,495
277,54	10,190
277,75	8,992
277,97	3,902
278,18	4,844
278,39	9,303
278,61	8,895
278,82	7,902
279,03	7,906
279,24	5,403
279,46	8,037
279,67	9,933
279,88	5,712
280,10	11,059
280,31	3,457
280,52	8,146
280,73	5,002
280,95	8,671
281,16	8,791
281,37	4,909
281,59	10,755
281,80	13,135
282,01	5,283
282,22	5,350
282,44	4,486
282,65	14,079
282,86	8,251
283,08	6,685
283,29	6,070
283,50	6,464
283,71	8,275
283,93	3,685
284,14	9,129
284,35	6,106
284,56	5,933
284,78	5,436
284,99	7,174
285,20	8,872
285,42	7,589
285,63	6,731
285,84	4,300
286,05	3,248
286,27	4,914
286,48	2,164
286,69	4,056
286,90	5,309
287,12	5,354
287,33	3,502
287,54	5,921
287,75	7,283
287,97	9,439
288,18	5,143
288,39	0,832
288,60	6,291
288,82	8,056
289,03	7,015
289,24	8,168
289,45	10,564
289,67	6,187
289,88	3,060
290,09	6,172
290,30	7,225
290,52	6,548
290,73	5,404
290,94	2,109
291,15	6,753
291,37	7,717
291,58	5,080
291,79	7,573
292,00	8,680
292,21	8,715
292,43	4,506
292,64	3,566
292,85	5,724
293,06	6,500
293,28	5,435
293,49	4,797
293,70	11,025
293,91	6,300
294,12	5,675
294,34	8,040
294,55	4,107
294,76	5,232
294,97	8,356
295,19	2,865
295,40	6,753
295,61	6,888
295,82	2,932
296,03	7,290
296,25	7,140
296,46	2,320
296,67	4,806
296,88	2,449
297,09	7,561
297,31	4,718
297,52	7,037
297,73	5,099
297,94	7,133
298,15	8,443
298,37	6,503
298,58	6,003
298,79	7,764
299,00	3,372
299,21	3,398
299,43	6,072
299,64	10,905
299,85	7,268
300,06	4,121
300,27	4,794
300,49	9,753
300,70	6,155
300,91	5,460
301,12	7,103
301,33	9,982
301,54	2,352
301,76	8,195
301,97	4,173
302,18	5,765
302,39	9,098
302,60	6,241
302,82	6,182
303,03	10,305
303,24	6,725
303,45	5,859
303,66	5,606
303,87	5,291
304,09	7,145
304,30	5,413
304,51	4,052
304,72	5,459
304,93	8,463
305,14	4,975
305,36	2,995
305,57	3,464
305,78	6,026
305,99	4,201
306,20	7,262
306,41	5,681
306,62	6,536
306,84	6,645
307,05	2,392
307,26	7,523
307,47	11,165
307,68	4,513
307,89	4,389
308,11	7,568
308,32	4,184
308,53	8,769
308,74	4,548
308,95	6,523
309,16	4,541
309,37	10,077
309,59	2,970
309,80	7,144
310,01	6,289
310,22	8,095
310,43	4,070
310,64	6,583
310,85	6,880
311,06	4,346
311,28	5,108
311,49	5,320
311,70	9,689
311,91	2,831
312,12	3,595
312,33	5,945
312,54	8,321
312,75	6,511
312,97	5,040
313,18	6,699
313,39	4,595
313,60	3,880
313,81	5,471
314,02	7,436
314,23	10,536
314,44	1,729
314,65	4,538
314,87	4,908
315,08	4,724
315,29	7,182
315,50	6,397
315,71	8,533
315,92	9,364
316,13	6,360
316,34	6,416
316,55	5,712
316,77	2,491
316,98	6,231
317,19	6,132
317,40	6,822
317,61	10,631
317,82	4,523
318,03	5,598
318,24	5,830
318,45	9,943
318,66	5,875
318,87	1,924
319,09	6,297
319,30	5,675
319,51	8,079
319,72	6,457
319,93	6,303
320,14	9,197
320,35	8,581
320,56	2,501
320,77	6,049
320,98	10,475
321,19	5,552
321,40	6,669
321,62	5,670
321,83	4,225
322,04	5,714
322,25	6,839
322,46	9,055
322,67	9,158
322,88	7,027
323,09	2,476
323,30	7,393
323,51	8,371
323,72	6,623
323,93	4,508
324,14	5,760
324,35	2,599
324,56	3,406
324,77	6,037
324,99	5,456
325,20	2,144
325,41	4,764
325,62	6,962
325,83	3,924
326,04	4,275
326,25	6,670
326,46	3,472
326,67	7,050
326,88	6,779
327,09	6,916
327,30	3,847
327,51	7,707
327,72	6,271
327,93	10,048
328,14	2,412
328,35	3,168
328,56	5,522
328,77	5,405
328,98	6,861
329,19	6,196
329,40	7,791
329,61	5,817
329,82	3,814
330,04	6,108
330,25	2,937
330,46	4,692
330,67	3,642
330,88	5,264
331,09	7,963
331,30	6,757
331,51	4,943
331,72	7,136
331,93	8,885
332,14	4,313
332,35	7,929
332,56	8,697
332,77	4,516
332,98	2,699
333,19	4,698
333,40	5,599
333,61	6,492
333,82	8,394
334,03	6,238
334,24	7,088
334,45	5,060
334,66	8,534
334,87	4,739
335,08	1,477
335,29	2,591
335,50	5,214
335,71	2,379
335,92	8,644
336,13	8,504
336,34	4,181
336,55	7,602
336,76	9,174
336,97	6,322
337,18	6,347
337,39	3,990
337,60	6,859
337,81	5,092
338,02	4,566
338,23	6,599
338,44	6,427
338,65	6,973
338,86	5,622
339,07	4,172
339,28	6,070
339,49	5,472
339,70	4,386
339,91	6,034
340,11	8,642
340,32	7,076
340,53	4,709
340,74	4,886
340,95	4,064
341,16	7,487
341,37	3,715
341,58	4,892
341,79	6,063
342,00	6,426
342,21	4,609
342,42	7,803
342,63	6,206
342,84	2,399
343,05	6,121
343,26	8,425
343,47	5,527
343,68	5,182
343,89	4,626
344,10	4,230
344,31	7,736
344,52	4,701
344,73	3,042
344,94	6,262
345,14	4,708
345,35	5,373
345,56	6,043
345,77	8,214
345,98	5,892
346,19	4,066
346,40	4,204
346,61	7,739
346,82	4,302
347,03	6,243
347,24	9,612
347,45	3,465
347,66	10,296
347,87	5,774
348,08	5,909
348,28	3,215
348,49	5,280
348,70	10,552
348,91	4,800
349,12	3,530
349,33	20,657
349,54	7,850
349,75	8,811
349,96	6,656
350,17	7,369
350,38	2,419
350,59	8,741
350,80	7,724
351,00	8,000
351,21	9,225
351,42	8,715
351,63	4,697
351,84	9,166
352,05	11,361
352,26	3,888
352,47	3,467
352,68	5,347
352,89	7,267
353,09	5,786
353,30	2,340
353,51	6,463
353,72	6,149
353,93	7,912
354,14	4,892
354,35	2,276
354,56	10,906
354,77	5,436
354,98	3,491
355,18	8,191
355,39	8,976
355,60	5,391
355,81	8,294
356,02	4,565
356,23	6,598
356,44	6,199
356,65	6,362
356,85	11,250
357,06	9,165
357,27	6,642
357,48	3,831
357,69	9,247
357,90	6,637
358,11	3,707
358,32	4,885
358,52	6,744
358,73	5,694
358,94	5,588
359,15	6,581
359,36	8,235
359,57	6,333
359,78	7,083
359,98	5,727
360,19	4,812
360,40	7,220
360,61	8,300
360,82	5,898
361,03	11,787
361,24	8,807
361,44	3,652
361,65	7,531
361,86	3,738
362,07	7,985
362,28	6,036
362,49	2,365
362,70	8,109
362,90	7,061
363,11	5,599
363,32	2,427
363,53	8,497
363,74	9,583
363,95	6,200
364,15	4,530
364,36	10,221
364,57	6,757
364,78	3,945
364,99	8,197
365,20	9,326
365,40	7,908
365,61	4,533
365,82	8,865
366,03	6,034
366,24	9,305
366,45	4,809
366,65	5,904
366,86	5,018
367,07	4,628
367,28	4,265
367,49	4,803
367,69	7,468
367,90	7,234
368,11	7,269
368,32	3,894
368,53	7,330
368,73	7,908
368,94	4,793
369,15	5,236
369,36	9,933
369,57	7,938
369,78	6,986
369,98	9,577
370,19	9,457
370,40	6,336
370,61	5,244
370,82	4,977
371,02	7,730
371,23	10,998
371,44	5,264
371,65	6,392
371,85	6,885
372,06	4,117
372,27	5,411
372,48	5,046
372,69	7,061
372,89	5,368
373,10	3,958
373,31	3,293
373,52	5,639
373,73	7,053
373,93	7,476
374,14	6,506
374,35	10,188
374,56	8,480
374,76	5,847
374,97	2,903
375,18	9,075
375,39	6,552
375,60	9,348
375,80	5,092
376,01	3,258
376,22	7,637
376,43	6,725
376,63	4,859
376,84	5,775
377,05	6,234
377,26	6,260
377,46	2,543
377,67	4,707
377,88	6,281
378,09	5,729
378,29	3,797
378,50	8,801
378,71	7,363
378,92	8,472
379,12	4,972
379,33	7,388
379,54	7,309
379,75	8,367
379,95	4,590
380,16	9,882
380,37	10,491
380,58	4,426
380,78	8,183
380,99	3,578
381,20	5,694
381,41	7,464
381,61	8,887
381,82	6,796
382,03	5,909
382,24	7,329
382,44	6,042
382,65	7,680
382,86	7,914
383,06	7,052
383,27	5,112
383,48	2,939
383,69	5,965
383,89	2,447
384,10	6,714
384,31	5,321
384,51	8,029
384,72	7,834
384,93	3,247
385,14	9,443
385,34	6,408
385,55	4,149
385,76	3,197
385,96	8,308
386,17	4,117
386,38	8,858
386,59	10,119
386,79	9,405
387,00	9,297
387,21	8,203
387,41	9,371
387,62	4,482
387,83	11,804
388,03	10,253
388,24	1,890
388,45	7,594
388,66	7,524
388,86	7,139
389,07	3,680
389,28	13,203
389,48	5,542
389,69	5,319
389,90	3,335
390,10	4,607
390,31	10,558
390,52	0,357
390,72	2,504
390,93	7,251
391,14	2,944
391,34	7,519
391,55	10,064
391,76	9,820
391,96	9,775
392,17	5,587
392,38	9,571
392,58	7,595
392,79	7,139
393,00	5,566
393,20	7,876
393,41	7,722
393,62	8,934
393,82	6,962
394,03	6,868
394,24	8,426
394,44	10,845
394,65	8,407
394,86	7,017
395,06	13,032
395,27	6,726
395,48	2,993
395,68	9,439
395,89	8,092
396,10	11,269
396,30	8,004
396,51	4,598
396,72	9,910
396,92	8,932
397,13	7,427
397,34	5,055
397,54	8,199
397,75	6,880
397,95	6,674
398,16	10,719
398,37	8,642
398,57	7,359
398,78	10,500
398,99	10,991
399,19	10,546
399,40	9,733
399,60	6,160
399,81	12,033
400,02	13,873
400,22	12,146
400,43	7,528
400,64	13,108
400,84	7,360
401,05	11,785
401,25	12,342
401,46	11,623
401,67	10,324
401,87	10,082
402,08	4,960
402,29	8,302
402,49	12,922
402,70	14,870
402,90	7,786
403,11	3,686
403,32	11,348
403,52	8,707
403,73	11,495
403,93	14,075
404,14	14,777
404,35	9,929
404,55	9,303
404,76	11,061
404,96	15,434
405,17	14,868
405,38	16,086
405,58	11,619
405,79	13,680
405,99	9,074
406,20	12,855
406,40	8,404
406,61	15,206
406,82	9,650
407,02	12,262
407,23	11,430
407,43	11,310
407,64	10,700
407,85	13,560
408,05	8,562
408,26	20,613
408,46	14,308
408,67	10,481
408,87	13,569
409,08	13,870
409,29	22,094
409,49	16,186
409,70	15,457
409,90	14,238
410,11	14,958
410,31	19,761
410,52	14,781
410,72	13,271
410,93	18,199
411,14	14,714
411,34	15,158
411,55	16,018
411,75	19,260
411,96	17,336
412,16	16,054
412,37	14,367
412,57	15,575
412,78	17,345
412,99	13,185
413,19	16,664
413,40	18,085
413,60	14,865
413,81	15,553
414,01	17,175
414,22	12,177
414,42	16,491
414,63	15,808
414,83	24,079
415,04	20,893
415,24	15,814
415,45	15,794
415,65	14,481
415,86	23,401
416,07	16,909
416,27	18,628
416,48	21,542
416,68	22,254
416,89	14,654
417,09	17,974
417,30	20,082
417,50	16,676
417,71	19,079
417,91	18,819
418,12	15,753
418,32	19,332
418,53	17,061
418,73	17,260
418,94	18,202
419,14	19,412
419,35	17,830
419,55	21,293
419,76	21,154
419,96	15,980
420,17	17,245
420,37	18,638
420,58	22,558
420,78	24,401
420,99	20,597
421,19	21,923
421,40	23,026
421,60	21,826
421,81	16,642
422,01	22,460
422,22	19,167
422,42	24,091
422,63	22,153
422,83	19,518
423,04	24,992
423,24	27,519
423,45	19,267
423,65	25,518
423,86	24,214
424,06	21,096
424,27	22,325
424,47	18,336
424,67	17,957
424,88	23,043
425,08	21,241
425,29	29,745
425,49	18,020
425,70	13,229
425,90	20,348
426,11	19,882
426,31	23,667
426,52	22,854
426,72	23,717
426,93	21,955
427,13	25,105
427,33	23,945
427,54	22,517
427,74	24,561
427,95	27,095
428,15	18,574
428,36	22,345
428,56	24,385
428,77	25,208
428,97	22,669
429,18	23,102
429,38	22,277
429,58	23,064
429,79	25,137
429,99	22,425
430,20	18,189
430,40	27,452
430,61	19,069
430,81	22,645
431,01	24,709
431,22	24,709
431,42	29,569
431,63	18,487
431,83	24,418
432,04	23,525
432,24	26,923
432,44	21,059
432,65	23,717
432,85	20,803
433,06	22,050
433,26	20,265
433,47	22,912
433,67	23,624
433,87	22,755
434,08	21,825
434,28	21,369
434,49	16,943
434,69	24,488
434,89	19,368
435,10	23,181
435,30	23,516
435,51	20,841
435,71	20,095
435,91	22,502
436,12	24,471
436,32	22,290
436,53	23,123
436,73	18,835
436,93	24,949
437,14	22,571
437,34	21,931
437,55	20,991
437,75	20,660
437,95	25,146
438,16	22,463
438,36	22,085
438,57	21,129
438,77	22,164
438,97	24,538
439,18	27,936
439,38	20,927
439,58	21,968
439,79	25,129
439,99	20,467
440,20	26,868
440,40	24,801
440,60	18,742
440,81	29,540
441,01	22,491
441,21	26,642
441,42	27,041
441,62	23,197
441,83	23,019
442,03	23,890
442,23	21,982
442,44	25,322
442,64	25,359
442,84	21,002
443,05	23,646
443,25	22,721
443,45	24,253
443,66	22,695
443,86	22,049
444,06	21,893
444,27	25,063
444,47	24,090
444,67	25,927
444,88	27,285
445,08	27,557
445,28	25,588
445,49	20,926
445,69	19,119
445,90	28,236
446,10	26,020
446,30	26,049
446,51	27,064
446,71	31,163
446,91	30,207
447,12	30,648
447,32	23,388
447,52	28,895
447,72	26,382
447,93	28,666
448,13	19,003
448,33	33,741
448,54	28,242
448,74	20,760
448,94	27,382
449,15	30,964
449,35	27,801
449,55	22,209
449,76	30,459
449,96	25,622
450,16	26,625
450,37	23,040
450,57	25,806
450,77	24,385
450,98	26,894
451,18	25,668
451,38	27,230
451,58	26,723
451,79	28,535
451,99	25,474
452,19	27,032
452,40	27,530
452,60	25,464
452,80	26,410
453,00	27,063
453,21	28,786
453,41	32,042
453,61	26,933
453,82	32,220
454,02	23,991
454,22	30,315
454,42	27,505
454,63	23,178
454,83	27,998
455,03	25,956
455,24	24,982
455,44	24,669
455,64	21,408
455,84	24,457
456,05	28,067
456,25	23,133
456,45	28,291
456,65	24,344
456,86	29,138
457,06	25,481
457,26	32,483
457,47	34,971
457,67	27,603
457,87	24,867
458,07	27,225
458,28	29,276
458,48	32,973
458,68	22,975
458,88	31,155
459,09	28,622
459,29	30,067
459,49	28,082
459,69	28,843
459,90	29,422
460,10	23,628
460,30	28,967
460,50	27,797
460,71	29,135
460,91	25,098
461,11	28,745
461,31	25,560
461,52	29,243
461,72	26,831
461,92	32,476
462,12	32,660
462,32	26,871
462,53	27,233
462,73	23,515
462,93	29,663
463,13	26,406
463,34	24,123
463,54	25,986
463,74	29,057
463,94	29,188
464,14	28,093
464,35	24,307
464,55	32,361
464,75	30,289
464,95	27,705
465,16	25,057
465,36	26,616
465,56	27,579
465,76	23,842
465,96	24,746
466,17	23,975
466,37	25,197
466,57	27,935
466,77	26,739
466,97	25,908
467,18	31,185
467,38	26,317
467,58	28,648
467,78	29,060
467,98	30,605
468,19	28,982
468,39	28,617
468,59	28,536
468,79	29,580
468,99	25,029
469,19	25,563
469,40	27,338
469,60	23,206
469,80	23,989
470,00	26,628
470,20	31,964
470,41	26,117
470,61	27,564
470,81	28,118
471,01	27,814
471,21	24,401
471,41	24,014
471,62	28,842
471,82	24,438
472,02	26,104
472,22	22,600
472,42	24,786
472,62	31,425
472,83	24,380
473,03	28,941
473,23	25,993
473,43	30,938
473,63	25,784
473,83	29,313
474,03	23,694
474,24	32,049
474,44	23,367
474,64	27,507
474,84	24,776
475,04	26,755
475,24	29,868
475,45	26,556
475,65	26,449
475,85	28,954
476,05	23,319
476,25	27,085
476,45	27,096
476,65	31,649
476,85	27,056
477,06	26,325
477,26	24,864
477,46	27,790
477,66	27,694
477,86	27,271
478,06	22,712
478,26	33,406
478,46	25,864
478,67	29,721
478,87	26,398
479,07	26,389
479,27	28,724
479,47	24,979
479,67	22,139
479,87	21,818
480,07	27,862
480,28	25,014
480,48	22,586
480,68	28,101
480,88	30,654
481,08	24,441
481,28	26,436
481,48	26,241
481,68	23,961
481,88	24,988
482,08	23,817
482,29	27,938
482,49	22,358
482,69	25,246
482,89	22,690
483,09	27,137
483,29	26,838
483,49	24,265
483,69	27,122
483,89	24,376
484,09	23,712
484,29	21,659
484,50	22,998
484,70	22,239
484,90	25,363
485,10	23,251
485,30	26,744
485,50	28,092
485,70	24,845
485,90	23,695
486,10	21,131
486,30	23,742
486,50	25,136
486,70	24,560
486,90	23,287
487,10	25,475
487,30	23,912
487,51	25,911
487,71	22,591
487,91	23,547
488,11	26,442
488,31	24,275
488,51	26,445
488,71	23,104
488,91	24,838
489,11	20,163
489,31	23,415
489,51	22,998
489,71	25,733
489,91	23,918
490,11	22,708
490,31	24,908
490,51	26,173
490,71	23,955
490,91	24,163
491,11	27,161
491,31	27,640
491,51	22,378
491,72	24,250
491,92	25,401
492,12	25,939
492,32	25,288
492,52	30,161
492,72	25,151
492,92	25,679
493,12	25,705
493,32	22,715
493,52	22,569
493,72	22,591
493,92	26,718
494,12	25,463
494,32	26,326
494,52	25,713
494,72	25,304
494,92	23,617
495,12	24,995
495,32	27,492
495,52	22,778
495,72	24,192
495,92	27,526
496,12	29,015
496,32	23,583
496,52	23,892
496,72	25,332
496,92	28,387
497,12	23,569
497,32	26,851
497,52	27,639
497,72	28,563
497,92	28,857
498,12	25,745
498,32	26,654
498,52	25,079
498,72	23,965
498,92	21,575
499,12	28,796
499,32	22,721
499,52	25,782
499,72	27,162
499,92	28,738
500,12	27,859
500,32	27,807
500,52	27,567
500,72	30,288
500,91	29,525
501,11	26,397
501,31	22,978
501,51	28,488
501,71	30,357
501,91	27,150
502,11	25,204
502,31	26,445
502,51	31,530
502,71	26,655
502,91	25,460
503,11	26,175
503,31	26,785
503,51	21,684
503,71	24,756
503,91	29,840
504,11	26,368
504,31	25,340
504,51	26,962
504,71	31,186
504,91	26,699
505,10	29,288
505,30	27,137
505,50	28,182
505,70	24,590
505,90	26,614
506,10	24,215
506,30	27,604
506,50	28,179
506,70	29,390
506,90	26,225
507,10	25,430
507,30	27,009
507,50	25,617
507,70	29,497
507,89	26,364
508,09	24,270
508,29	26,650
508,49	26,522
508,69	24,588
508,89	25,382
509,09	25,476
509,29	28,490
509,49	31,262
509,69	28,410
509,89	25,117
510,09	23,537
510,28	26,696
510,48	29,419
510,68	25,987
510,88	25,311
511,08	23,633
511,28	26,567
511,48	24,315
511,68	24,882
511,88	20,757
512,07	29,792
512,27	26,065
512,47	24,994
512,67	26,220
512,87	25,037
513,07	23,997
513,27	24,656
513,47	26,199
513,67	22,522
513,86	26,843
514,06	26,308
514,26	25,369
514,46	29,021
514,66	24,108
514,86	26,539
515,06	28,924
515,26	27,719
515,45	24,585
515,65	23,376
515,85	26,655
516,05	24,307
516,25	23,404
516,45	26,064
516,65	23,165
516,84	27,545
517,04	29,568
517,24	24,508
517,44	24,801
517,64	25,245
517,84	27,478
518,04	25,948
518,23	25,574
518,43	29,537
518,63	22,217
518,83	25,461
519,03	24,499
519,23	26,389
519,42	23,870
519,62	23,358
519,82	24,617
520,02	24,124
520,22	24,153
520,42	22,598
520,61	26,618
520,81	27,629
521,01	26,322
521,21	21,861
521,41	24,920
521,61	27,351
521,80	24,335
522,00	25,050
522,20	27,487
522,40	25,773
522,60	24,994
522,79	20,984
522,99	26,492
523,19	21,371
523,39	24,857
523,59	25,392
523,78	27,866
523,98	25,378
524,18	24,425
524,38	23,537
524,58	22,871
524,77	25,613
524,97	23,770
525,17	26,081
525,37	22,125
525,57	29,699
525,76	23,412
525,96	25,094
526,16	24,571
526,36	22,389
526,56	22,967
526,75	21,323
526,95	25,318
527,15	24,371
527,35	26,428
527,55	21,692
527,74	25,268
527,94	23,622
528,14	22,334
528,34	23,969
528,53	24,088
528,73	23,619
528,93	23,980
529,13	20,527
529,32	20,049
529,52	27,170
529,72	21,813
529,92	22,908
530,12	23,329
530,31	19,576
530,51	21,558
530,71	24,661
530,91	25,786
531,10	20,876
531,30	21,792
531,50	21,453
531,70	25,109
531,89	20,398
532,09	22,029
532,29	21,262
532,49	23,794
532,68	22,692
532,88	20,411
533,08	21,889
533,28	23,585
533,47	19,321
533,67	23,854
533,87	21,601
534,06	26,140
534,26	22,581
534,46	21,458
534,66	22,086
534,85	23,481
535,05	17,564
535,25	20,883
535,45	19,937
535,64	24,178
535,84	21,699
536,04	19,305
536,23	23,938
536,43	24,703
536,63	20,330
536,83	20,867
537,02	21,189
537,22	21,615
537,42	22,782
537,61	21,400
537,81	23,584
538,01	23,496
538,20	21,044
538,40	19,192
538,60	20,523
538,80	20,371
538,99	20,089
539,19	19,151
539,39	18,382
539,58	19,803
539,78	16,610
539,98	17,622
540,17	17,306
540,37	18,303
540,57	16,637
540,76	19,095
540,96	13,589
541,16	17,757
541,36	15,822
541,55	13,261
541,75	13,283
541,95	14,127
542,14	14,925
542,34	14,431
542,54	13,655
542,73	13,622
542,93	14,979
543,13	14,037
543,32	13,846
543,52	14,076
543,72	13,186
543,91	14,009
544,11	14,026
544,31	13,922
544,50	14,704
544,70	13,799
544,89	14,760
545,09	17,778
545,29	13,914
545,48	14,749
545,68	12,365
545,88	15,303
546,07	14,673
546,27	13,281
546,47	16,407
546,66	16,486
546,86	17,064
547,06	15,725
547,25	15,565
547,45	19,132
547,64	17,142
547,84	20,931
548,04	19,172
548,23	18,333
548,43	18,290
548,63	21,612
548,82	19,036
549,02	18,688
549,21	18,247
549,41	18,721
549,61	19,638
549,80	16,943
550,00	18,780
550,20	16,287
550,39	22,014
550,59	18,393
550,78	18,938
550,98	15,674
551,18	17,538
551,37	19,805
551,57	19,914
551,76	18,198
551,96	18,247
552,16	19,797
552,35	18,845
552,55	19,170
552,74	20,961
552,94	20,777
553,14	20,341
553,33	18,357
553,53	18,793
553,72	20,960
553,92	22,204
554,12	17,385
554,31	20,977
554,51	20,113
554,70	17,921
554,90	19,363
555,09	23,688
555,29	20,063
555,49	21,769
555,68	21,472
555,88	19,012
556,07	18,346
556,27	21,678
556,46	18,748
556,66	15,984
556,86	22,959
557,05	19,090
557,25	19,844
557,44	19,813
557,64	20,167
557,83	18,845
558,03	19,367
558,22	17,653
558,42	19,776
558,62	20,920
558,81	19,930
559,01	18,460
559,20	20,960
559,40	20,423
559,59	20,787
559,79	17,699
559,98	20,827
560,18	21,428
560,37	19,122
560,57	21,186
560,76	18,084
560,96	17,811
561,16	21,093
561,35	19,011
561,55	22,837
561,74	20,591
561,94	18,878
562,13	20,802
562,33	22,405
562,52	22,182
562,72	19,493
562,91	18,778
563,11	18,597
563,30	20,099
563,50	16,325
563,69	18,768
563,89	16,251
564,08	20,077
564,28	19,983
564,47	17,023
564,67	18,290
564,86	19,679
565,06	16,927
565,25	17,906
565,45	21,146
565,64	23,989
565,84	20,622
566,03	16,426
566,23	22,561
566,42	20,563
566,62	20,679
566,81	18,066
567,01	18,980
567,20	21,650
567,40	16,114
567,59	18,511
567,79	20,614
567,98	22,014
568,18	20,659
568,37	20,633
568,57	19,882
568,76	21,299
568,96	20,363
569,15	20,517
569,35	21,717
569,54	21,918
569,73	22,043
569,93	18,273
570,12	19,278
570,32	21,070
570,51	20,216
570,71	21,738
570,90	21,362
571,10	18,005
571,29	18,103
571,49	17,621
571,68	20,405
571,87	20,092
572,07	18,621
572,26	17,118
572,46	19,710
572,65	21,023
572,85	18,759
573,04	19,688
573,24	19,199
573,43	22,157
573,62	21,256
573,82	21,572
574,01	21,054
574,21	19,777
574,40	18,634
574,60	17,952
574,79	22,730
574,98	20,016
575,18	20,784
575,37	18,381
575,57	20,278
575,76	21,395
575,96	21,144
576,15	19,654
576,34	19,077
576,54	21,088
576,73	21,589
576,93	20,842
577,12	21,973
577,31	21,079
577,51	19,183
577,70	19,201
577,90	20,657
578,09	19,204
578,28	20,086
578,48	21,421
578,67	22,242
578,87	20,868
579,06	19,184
579,25	22,406
579,45	21,359
579,64	20,197
579,84	19,097
580,03	19,478
580,22	22,189
580,42	19,216
580,61	20,841
580,81	19,817
581,00	21,022
581,19	22,629
581,39	19,282
581,58	20,748
581,77	22,288
581,97	22,268
582,16	19,585
582,35	17,434
582,55	20,865
582,74	23,113
582,94	21,014
583,13	19,439
583,32	20,313
583,52	20,110
583,71	21,429
583,90	21,118
584,10	22,249
584,29	21,369
584,48	20,163
584,68	21,342
584,87	22,251
585,06	21,717
585,26	20,704
585,45	21,218
585,65	23,204
585,84	21,390
586,03	20,710
586,23	20,530
586,42	21,609
586,61	23,395
586,81	21,361
587,00	21,557
587,19	20,835
587,39	24,030
587,58	23,445
587,77	22,394
587,97	21,001
588,16	21,941
588,35	23,122
588,54	23,024
588,74	21,705
588,93	23,853
589,12	23,889
589,32	23,055
589,51	22,917
589,70	21,867
589,90	22,649
590,09	22,530
590,28	26,176
590,48	23,291
590,67	22,419
590,86	23,472
591,06	22,561
591,25	24,870
591,44	24,368
591,63	22,942
591,83	24,403
592,02	24,205
592,21	24,685
592,41	22,732
592,60	24,726
592,79	25,061
592,98	24,997
593,18	25,235
593,37	25,331
593,56	26,248
593,76	25,932
593,95	23,551
594,14	23,179
594,33	25,313
594,53	24,455
594,72	24,599
594,91	28,032
595,10	25,938
595,30	24,766
595,49	25,819
595,68	26,240
595,88	26,243
596,07	26,943
596,26	27,584
596,45	26,267
596,65	23,672
596,84	26,619
597,03	26,038
597,22	28,499
597,42	28,449
597,61	26,509
597,80	27,324
597,99	26,331
598,19	27,119
598,38	27,140
598,57	25,429
598,76	28,600
598,95	29,220
599,15	27,884
599,34	27,002
599,53	27,329
599,72	26,968
599,92	27,163
600,11	26,635
600,30	27,777
600,49	29,496
600,69	26,090
600,88	29,469
601,07	28,383
601,26	27,635
601,45	27,942
601,65	27,187
601,84	28,691
602,03	28,324
602,22	28,342
602,42	30,942
602,61	29,074
602,80	29,128
602,99	29,184
603,18	27,841
603,38	28,078
603,57	29,086
603,76	28,487
603,95	28,894
604,14	28,532
604,34	29,428
604,53	28,800
604,72	29,013
604,91	28,999
605,10	29,249
605,29	29,293
605,49	27,365
605,68	30,758
605,87	30,930
606,06	29,648
606,25	28,411
606,45	28,800
606,64	29,209
606,83	29,853
607,02	28,322
607,21	31,615
607,40	28,273
607,60	28,221
607,79	27,954
607,98	26,546
608,17	26,530
608,36	27,016
608,55	28,774
608,75	27,412
608,94	26,703
609,13	22,744
609,32	24,310
609,51	25,387
609,70	23,943
609,89	27,509
610,09	24,810
610,28	26,413
610,47	24,531
610,66	24,189
610,85	22,805
611,04	26,499
611,23	23,002
611,43	24,052
611,62	22,857
611,81	22,903
612,00	24,444
612,19	22,788
612,38	24,501
612,57	25,529
612,77	24,761
612,96	25,508
613,15	26,199
613,34	27,586
613,53	27,052
613,72	29,245
613,91	27,615
614,10	27,027
614,29	29,921
614,49	26,788
614,68	28,269
614,87	29,014
615,06	31,164
615,25	28,374
615,44	30,232
615,63	30,498
615,82	28,223
616,01	28,745
616,21	28,042
616,40	30,990
616,59	30,833
616,78	30,640
616,97	30,951
617,16	30,441
617,35	32,229
617,54	31,309
617,73	31,878
617,92	31,242
618,11	32,650
618,31	27,377
618,50	31,204
618,69	29,721
618,88	30,889
619,07	28,862
619,26	30,509
619,45	30,279
619,64	29,190
619,83	29,195
620,02	28,885
620,21	31,997
620,40	30,582
620,59	29,107
620,78	27,785
620,97	31,363
621,17	31,478
621,36	29,685
621,55	29,911
621,74	30,609
621,93	30,019
622,12	29,361
622,31	29,925
622,50	29,295
622,69	33,617
622,88	31,933
623,07	32,498
623,26	32,068
623,45	34,158
623,64	31,697
623,83	31,248
624,02	32,479
624,21	33,041
624,40	32,814
624,59	29,978
624,78	32,382
624,97	34,060
625,16	29,398
625,35	30,285
625,54	30,745
625,73	30,896
625,92	32,801
626,12	32,850
626,31	33,316
626,50	32,745
626,69	33,388
626,88	30,316
627,07	33,330
627,26	30,953
627,45	31,003
627,64	32,901
627,83	33,107
628,02	30,561
628,21	32,125
628,40	31,637
628,59	32,112
628,78	30,333
628,97	31,141
629,16	30,173
629,35	32,709
629,54	34,263
629,73	31,863
629,92	30,632
630,10	30,440
630,29	32,210
630,48	32,228
630,67	31,649
630,86	32,749
631,05	32,123
631,24	33,987
631,43	28,078
631,62	33,082
631,81	32,452
632,00	31,649
632,19	31,444
632,38	32,069
632,57	33,413
632,76	31,170
632,95	32,483
633,14	34,922
633,33	33,359
633,52	33,345
633,71	33,827
633,90	32,169
634,09	34,479
634,28	32,776
634,47	31,984
634,66	32,453
634,85	32,727
635,04	35,282
635,22	32,484
635,41	32,714
635,60	34,057
635,79	34,470
635,98	32,257
636,17	33,679
636,36	31,388
636,55	32,830
636,74	32,192
636,93	33,904
637,12	33,817
637,31	30,281
637,50	31,926
637,69	34,447
637,87	31,854
638,06	34,461
638,25	32,788
638,44	33,817
638,63	31,298
638,82	32,953
639,01	33,162
639,20	32,968
639,39	33,723
639,58	31,357
639,77	34,019
639,95	32,078
640,14	34,578
640,33	32,790
640,52	32,152
640,71	35,458
640,90	34,460
641,09	35,022
641,28	32,623
641,47	33,084
641,66	32,187
641,84	34,348
642,03	31,316
642,22	33,501
642,41	35,164
642,60	33,538
642,79	32,434
642,98	33,976
643,17	32,677
643,35	32,924
643,54	33,217
643,73	33,830
643,92	34,446
644,11	33,393
644,30	30,487
644,49	35,006
644,67	32,300
644,86	31,202
645,05	33,866
645,24	30,845
645,43	33,287
645,62	32,583
645,81	33,580
645,99	34,992
646,18	34,415
646,37	32,335
646,56	32,868
646,75	34,526
646,94	34,206
647,13	33,643
647,31	31,416
647,50	32,980
647,69	34,618
647,88	33,071
648,07	34,249
648,26	36,265
648,44	33,073
648,63	31,663
648,82	32,842
649,01	34,719
649,20	32,238
649,38	33,955
649,57	31,860
649,76	31,757
649,95	33,344
650,14	30,526
650,33	32,873
650,51	32,837
650,70	33,527
650,89	32,085
651,08	32,457
651,27	33,587
651,45	33,156
651,64	30,727
651,83	33,049
652,02	32,377
652,21	33,985
652,39	34,198
652,58	34,691
652,77	31,673
652,96	32,057
653,15	33,544
653,33	33,380
653,52	33,542
653,71	35,444
653,90	35,118
654,09	32,645
654,27	33,560
654,46	36,275
654,65	34,509
654,84	32,536
655,02	34,993
655,21	34,075
655,40	34,641
655,59	33,400
655,77	35,158
655,96	34,203
656,15	33,684
656,34	34,270
656,53	33,669
656,71	34,301
656,90	33,593
657,09	34,868
657,28	33,585
657,46	31,908
657,65	33,569
657,84	31,739
658,03	33,776
658,21	31,967
658,40	31,926
658,59	32,039
658,78	33,112
658,96	31,451
659,15	31,612
659,34	31,412
659,52	33,865
659,71	30,478
659,90	29,879
660,09	31,172
660,27	31,816
660,46	32,542
660,65	29,088
660,84	29,726
661,02	31,502
661,21	31,901
661,40	29,679
661,58	31,277
661,77	31,098
661,96	29,051
662,15	28,854
662,33	28,711
662,52	30,708
662,71	29,244
662,89	29,355
663,08	28,588
663,27	28,961
663,45	28,958
663,64	30,650
663,83	27,460
664,02	28,789
664,20	31,580
664,39	27,981
664,58	28,588
664,76	30,067
664,95	29,040
665,14	28,298
665,32	26,305
665,51	31,528
665,70	29,427
665,88	30,012
666,07	28,306
666,26	28,866
666,44	28,291
666,63	27,312
666,82	28,047
667,00	29,479
667,19	27,646
667,38	27,694
667,56	30,098
667,75	27,130
667,94	29,660
668,12	26,962
668,31	29,105
668,50	29,277
668,68	27,011
668,87	27,054
669,06	27,282
669,24	29,208
669,43	26,562
669,62	26,002
669,80	26,144
669,99	27,236
670,18	27,239
670,36	25,900
670,55	26,401
670,74	28,268
670,92	24,952
671,11	27,969
671,29	26,260
671,48	26,345
671,67	26,178
671,85	26,400
672,04	25,569
672,23	25,098
672,41	27,077
672,60	26,894
672,78	26,701
672,97	25,168
673,16	25,722
673,34	25,713
673,53	27,003
673,71	26,125
673,90	27,079
674,09	26,504
674,27	26,938
674,46	25,497
674,64	27,002
674,83	25,895
675,02	24,381
675,20	26,232
675,39	26,728
675,57	25,763
675,76	25,308
675,95	27,436
676,13	26,898
676,32	26,316
676,50	25,120
676,69	23,824
676,88	26,622
677,06	24,838
677,25	26,044
677,43	28,946
677,62	26,873
677,80	26,554
677,99	26,523
678,18	28,227
678,36	28,430
678,55	25,532
678,73	25,214
678,92	26,308
679,10	26,785
679,29	26,962
679,48	24,811
679,66	25,267
679,85	26,793
680,03	26,410
680,22	26,335
680,40	25,740
680,59	26,861
680,77	25,461
680,96	26,930
681,15	25,783
681,33	28,479
681,52	26,850
681,70	26,243
681,89	26,901
682,07	27,988
682,26	27,443
682,44	27,883
682,63	27,057
682,81	28,299
683,00	28,750
683,18	25,493
683,37	30,471
683,55	26,424
683,74	28,382
683,92	34,158
684,11	29,696
684,29	29,178
684,48	27,435
684,67	28,409
684,85	28,609
685,04	28,236
685,22	28,345
685,41	29,036
685,59	30,924
685,78	28,969
685,96	28,974
686,15	29,049
686,33	29,600
686,52	29,926
686,70	29,694
686,89	30,332
687,07	32,865
687,26	30,418
687,44	31,156
687,62	30,165
687,81	31,100
687,99	31,104
688,18	33,022
688,36	32,549
688,55	32,592
688,73	30,783
688,92	29,755
689,10	33,243
689,29	33,093
689,47	34,773
689,66	31,413
689,84	31,747
690,03	34,595
690,21	31,642
690,40	32,631
690,58	32,021
690,76	32,388
690,95	33,484
691,13	31,076
691,32	33,413
691,50	34,026
691,69	33,872
691,87	31,874
692,06	32,910
692,24	33,190
692,43	35,346
692,61	31,111
692,79	32,679
692,98	33,022
693,16	34,361
693,35	32,385
693,53	33,420
693,72	35,709
693,90	35,558
694,08	33,940
694,27	33,259
694,45	38,257
694,64	37,127
694,82	34,150
695,01	34,388
695,19	34,901
695,37	35,264
695,56	32,423
695,74	35,227
695,93	35,974
696,11	34,705
696,29	36,968
696,48	35,076
696,66	35,084
696,85	37,110
697,03	33,428
697,21	37,375
697,40	36,571
697,58	37,590
697,77	34,640
697,95	36,343
698,13	36,378
698,32	36,747
698,50	35,715
698,69	36,783
698,87	36,495
699,05	37,120
699,24	34,635
699,42	36,659
699,60	35,176
699,79	34,843
699,97	35,341
700,16	33,703
700,34	36,855
700,52	36,061
700,71	34,192
700,89	35,115
701,07	37,843
701,26	37,963
701,44	34,407
701,63	34,908
701,81	36,633
701,99	36,668
702,18	32,555
702,36	33,816
702,54	37,150
702,73	37,864
702,91	34,293
703,09	35,549
703,28	34,800
703,46	38,246
703,64	37,590
703,83	37,414
704,01	36,778
704,19	37,508
704,38	34,576
704,56	36,466
704,74	36,793
704,93	35,988
705,11	37,351
705,29	34,686
705,48	38,146
705,66	37,027
705,84	38,068
706,03	34,298
706,21	35,927
706,39	36,628
706,58	35,503
706,76	34,764
706,94	37,357
707,12	36,402
707,31	35,064
707,49	35,121
707,67	37,286
707,86	37,929
708,04	36,109
708,22	35,132
708,41	36,115
708,59	38,317
708,77	33,743
708,95	36,826
709,14	40,810
709,32	38,443
709,50	35,000
709,69	36,743
709,87	36,586
710,05	36,542
710,23	36,250
710,42	35,702
710,60	37,679
710,78	38,041
710,97	35,909
711,15	36,857
711,33	37,264
711,51	35,753
711,70	33,705
711,88	35,763
712,06	37,158
712,24	37,609
712,43	37,567
712,61	36,067
712,79	36,742
712,97	37,030
713,16	38,535
713,34	36,252
713,52	37,408
713,70	36,346
713,89	37,592
714,07	36,363
714,25	37,679
714,43	38,691
714,62	34,166
714,80	36,428
714,98	35,204
715,16	37,399
715,35	35,980
715,53	35,929
715,71	38,154
715,89	38,130
716,07	36,416
716,26	40,582
716,44	39,118
716,62	38,768
716,80	37,369
716,99	37,989
717,17	40,634
717,35	38,538
717,53	35,899
717,71	35,410
717,90	38,814
718,08	36,731
718,26	34,403
718,44	38,896
718,62	38,190
718,81	38,324
718,99	37,175
719,17	37,766
719,35	37,484
719,53	37,254
719,72	34,361
719,90	35,634
720,08	35,965
720,26	38,261
720,44	35,777
720,62	35,952
720,81	38,802
720,99	38,669
721,17	36,810
721,35	38,650
721,53	39,274
721,72	39,854
721,90	37,275
722,08	36,541
722,26	37,499
722,44	37,586
722,62	36,213
722,81	36,385
722,99	37,549
723,17	36,725
723,35	37,400
723,53	37,668
723,71	39,118
723,89	40,217
724,08	34,024
724,26	35,922
724,44	37,233
724,62	37,333
724,80	36,020
724,98	37,842
725,16	38,900
725,35	36,507
725,53	36,787
725,71	36,654
725,89	38,188
726,07	39,575
726,25	41,024
726,43	36,223
726,61	37,072
726,80	40,605
726,98	37,573
727,16	37,160
727,34	38,915
727,52	39,442
727,70	37,149
727,88	39,102
728,06	35,427
728,25	37,108
728,43	37,763
728,61	35,223
728,79	35,898
728,97	38,164
729,15	37,551
729,33	37,889
729,51	38,526
729,69	38,602
729,87	36,746
730,06	36,976
730,24	37,865
730,42	37,614
730,60	37,135
730,78	37,749
730,96	36,824
731,14	37,880
731,32	37,872
731,50	36,990
731,68	36,533
731,86	37,835
732,04	37,701
732,22	37,491
732,41	40,357
732,59	37,945
732,77	38,274
732,95	38,251
733,13	37,385
733,31	38,148
733,49	36,396
733,67	38,164
733,85	38,917
734,03	38,384
734,21	37,309
734,39	37,320
734,57	39,553
734,75	39,623
734,93	36,430
735,11	36,357
735,29	35,550
735,47	40,600
735,65	37,024
735,84	35,597
736,02	37,800
736,20	41,224
736,38	37,314
736,56	39,231
736,74	37,220
736,92	38,148
737,10	38,423
737,28	36,955
737,46	37,291
737,64	36,587
737,82	37,498
738,00	37,498
738,18	37,274
738,36	39,511
738,54	36,581
738,72	36,323
738,90	37,106
739,08	38,980
739,26	36,770
739,44	36,587
739,62	38,689
739,80	38,849
739,98	36,759
740,16	37,051
740,34	38,544
740,52	40,130
740,70	38,156
740,88	37,164
741,06	37,214
741,24	36,685
741,42	38,048
741,60	36,270
741,78	39,545
741,96	37,477
742,14	37,996
742,32	36,025
742,50	37,498
742,68	37,501
742,86	39,321
743,04	35,287
743,21	38,736
743,39	39,014
743,57	36,380
743,75	37,301
743,93	36,345
744,11	34,385
744,29	34,452
744,47	38,067
744,65	36,481
744,83	35,582
745,01	35,590
745,19	37,261
745,37	41,270
745,55	39,493
745,73	37,371
745,91	36,366
746,09	37,090
746,27	35,251
746,45	35,773
746,62	36,700
746,80	38,085
746,98	37,314
747,16	35,084
747,34	37,911
747,52	37,675
747,70	37,572
747,88	37,678
748,06	36,152
748,24	38,647
748,42	38,243
748,60	38,948
748,78	37,473
748,95	39,325
749,13	40,149
749,31	34,297
749,49	36,840
749,67	36,946
749,85	38,057
750,03	37,413
750,21	37,392
750,39	38,731
750,57	39,393
750,74	40,026
750,92	37,889
751,10	39,124
751,28	36,794
751,46	36,612
751,64	39,109
751,82	37,213
752,00	39,595
752,17	37,370
752,35	35,568
752,53	37,427
752,71	38,036
752,89	38,640
753,07	35,900
753,25	39,647
753,43	36,418
753,60	40,150
753,78	36,434
753,96	39,740
754,14	37,649
754,32	41,021
754,50	38,384
754,68	38,479
754,85	38,966
755,03	37,400
755,21	36,831
755,39	38,416
755,57	39,480
755,75	38,914
755,92	35,935
756,10	38,491
756,28	39,250
756,46	35,432
756,64	36,385
756,82	37,823
756,99	37,268
757,17	37,461
757,35	34,809
757,53	38,616
757,71	38,044
757,89	36,941
758,06	37,330
758,24	37,177
758,42	38,831
758,60	36,321
758,78	36,820
758,95	38,879
759,13	39,477
759,31	36,851
759,49	38,596
759,67	37,202
759,84	36,192
760,02	36,871
760,20	36,435
760,38	36,111
760,56	35,602
760,73	36,021
760,91	39,017
761,09	38,930
761,27	36,041
761,45	36,000
761,62	37,480
761,80	37,161
761,98	38,290
762,16	37,209
762,33	35,696
762,51	38,677
762,69	38,614
762,87	35,807
763,05	37,291
763,22	35,949
763,40	36,216
763,58	35,041
763,76	37,402
763,93	39,011
764,11	39,091
764,29	35,309
764,47	36,919
764,64	37,798
764,82	40,048
765,00	37,103
765,18	35,518
765,35	36,012
765,53	34,794
765,71	35,413
765,89	36,902
766,06	35,407
766,24	36,747
766,42	36,572
766,60	37,147
766,77	37,693
766,95	35,287
767,13	36,445
767,30	36,623
767,48	36,493
767,66	36,089
767,84	34,476
768,01	38,164
768,19	37,441
768,37	37,980
768,54	36,674
768,72	36,568
768,90	36,204
769,08	36,769
769,25	37,831
769,43	34,293
769,61	35,276
769,78	38,606
769,96	36,889
770,14	36,406
770,31	40,118
770,49	40,678
770,67	37,860
770,85	35,428
771,02	37,785
771,20	36,373
771,38	38,693
771,55	36,767
771,73	36,337
771,91	37,010
772,08	39,242
772,26	35,886
772,44	35,951
772,61	36,743
772,79	36,461
772,97	35,772
773,14	34,314
773,32	39,335
773,50	36,039
773,67	37,341
773,85	39,300
774,03	39,117
774,20	36,201
774,38	36,496
774,56	36,281
774,73	38,596
774,91	34,569
775,09	37,078
775,26	38,194
775,44	37,292
775,61	35,989
775,79	35,867
775,97	37,622
776,14	34,826
776,32	37,256
776,50	36,569
776,67	38,499
776,85	38,785
777,03	35,775
777,20	39,165
777,38	38,227
777,55	39,106
777,73	34,104
777,91	33,723
778,08	37,752
778,26	37,104
778,43	38,604
778,61	33,071
778,79	35,810
778,96	36,117
779,14	36,854
779,32	37,185
779,49	38,218
779,67	40,550
779,84	38,698
780,02	38,086
780,20	34,041
780,37	38,613
780,55	32,236
780,72	40,978
780,90	38,713
781,07	36,465
781,25	39,157
781,43	38,798
781,60	35,625
781,78	38,743
781,95	37,656
782,13	35,937
782,30	40,190
782,48	38,454
782,66	37,019
782,83	35,516
783,01	42,056
783,18	37,827
783,36	36,555
783,53	37,620
783,71	36,938
783,89	38,159
784,06	35,937
784,24	37,419
784,41	38,134
784,59	35,616
784,76	39,509
784,94	37,098
785,11	34,980
785,29	38,589
785,46	36,135
785,64	37,896
785,82	37,092
785,99	39,689
786,17	38,968
786,34	35,711
786,52	36,531
786,69	39,737
786,87	34,093
787,04	35,775
787,22	37,197
787,39	37,314
787,57	38,548
787,74	39,062
787,92	42,385
788,09	40,218
788,27	36,852
788,44	34,966
788,62	38,827
788,79	37,140
788,97	39,517
789,14	37,096
789,32	36,371
789,49	37,020
789,67	36,526
789,84	35,120
790,02	37,569
790,19	34,171
790,37	37,198
790,54	37,996
790,72	41,701
790,89	41,703
791,07	38,451
791,24	33,694
791,42	38,281
791,59	37,088
791,77	39,676
791,94	35,062
792,12	38,439
792,29	38,942
792,47	40,010
792,64	38,056
792,81	40,722
792,99	38,657
793,16	38,385
793,34	38,260
793,51	36,839
793,69	40,180
793,86	36,146
794,04	36,564
794,21	39,786
794,39	35,810
794,56	35,636
794,73	36,995
794,91	41,873
795,08	37,865
795,26	37,818
795,43	36,358
795,61	41,157
795,78	40,296
795,95	39,126
796,13	38,317
796,30	39,313
796,48	35,843
796,65	37,620
796,83	39,270
797,00	39,903
797,17	35,905
797,35	39,865
797,52	39,010
797,70	41,862
797,87	40,597
798,04	35,406
798,22	36,000
798,39	38,836
798,57	36,596
798,74	38,886
798,91	35,420
799,09	37,511
799,26	40,796
799,44	39,349
799,61	34,997
799,78	37,850
799,96	42,444
800,13	35,422
800,31	36,224
800,48	41,568
800,65	42,743
800,83	37,487
801,00	38,284
801,17	41,424
801,35	41,295
801,52	36,837
801,70	38,309
801,87	37,392
802,04	40,443
802,22	38,462
802,39	37,642
802,56	45,096
802,74	39,334
802,91	38,633
803,08	37,583
803,26	38,998
803,43	40,469
803,61	38,294
803,78	38,670
803,95	38,154
804,13	41,065
804,30	37,715
804,47	40,424
804,65	39,186
804,82	38,469
804,99	39,770
805,17	35,707
805,34	43,122
805,51	41,724
805,69	38,077
805,86	38,307
806,03	44,789
806,21	40,870
806,38	38,777
806,55	44,534
806,72	42,546
806,90	42,210
807,07	36,219
807,24	39,003
807,42	34,561
807,59	41,246
807,76	34,680
807,94	39,444
808,11	42,585
808,28	42,748
808,45	41,047
808,63	39,439
808,80	40,345
808,97	39,216
809,15	37,480
809,32	40,946
809,49	39,124
809,67	37,040
809,84	39,459
810,01	42,366
810,18	46,511
810,36	44,878
810,53	39,746
810,70	42,006
810,87	41,294
811,05	39,598
811,22	41,311
811,39	39,058
811,57	45,682
811,74	36,735
811,91	36,129
812,08	38,197
812,26	41,659
812,43	40,051
812,60	42,421
812,77	39,923
812,95	43,521
813,12	44,097
813,29	40,394
813,46	40,406
813,64	42,452
813,81	40,341
813,98	36,511
814,15	41,073
814,32	40,656
814,50	43,225
814,67	42,763
814,84	41,649
815,01	41,649
815,19	36,730
815,36	32,438
815,53	42,054
815,70	35,248
815,87	42,099
816,05	36,447
816,22	37,599
816,39	45,596
816,56	47,156
816,74	42,192
816,91	41,896
817,08	45,748
817,25	45,483
817,42	36,563
817,60	39,991
817,77	42,359
817,94	41,077
818,11	38,510
818,28	43,131
818,45	37,792
818,63	46,317
818,80	39,770
818,97	42,004
819,14	46,655
819,31	47,125
819,49	48,209
819,66	35,599
819,83	40,473
820,00	42,799
820,17	40,164
820,34	41,880
820,52	43,363
820,69	48,039
820,86	39,198
821,03	38,286
821,20	41,527
821,37	49,045
821,55	35,916
821,72	36,704
821,89	42,694
822,06	45,845
822,23	38,728
822,40	43,191
822,57	42,535
822,75	47,088
822,92	37,871
823,09	44,312
823,26	42,874
823,43	46,799
823,60	39,597
823,77	35,639
823,94	42,363
824,12	48,983
824,29	42,337
824,46	37,807
824,63	44,823
824,80	41,889
824,97	40,779
825,14	41,563
825,31	49,256
825,49	42,827
825,66	41,225
825,83	33,600
826,00	47,671
826,17	53,805
826,34	45,934
826,51	34,774
826,68	39,752
826,85	42,797
827,02	39,681
827,20	35,163
827,37	44,418
827,54	39,295
827,71	42,746
827,88	44,054
828,05	40,702
828,22	42,708
828,39	46,284
828,56	45,704
828,73	48,562
828,90	43,956
829,07	36,446
829,25	46,580
829,42	42,283
829,59	47,309
829,76	41,011
829,93	45,166
830,10	45,140
830,27	45,117
830,44	41,915
830,61	40,423
830,78	54,441
830,95	49,783
831,12	41,025
831,29	41,333
831,46	39,999
831,63	39,184
831,80	41,743
831,97	42,414
832,14	50,588
832,31	56,976
832,48	35,145
832,65	43,942
832,83	38,650
833,00	48,216
833,17	38,564
833,34	42,954
833,51	46,391
833,68	49,044
833,85	52,815
834,02	38,734
834,19	40,752
834,36	43,729
834,53	30,339
834,70	35,739
834,87	56,669
835,04	48,613
835,21	43,905
835,38	40,264
835,55	42,020
835,72	56,351
835,89	41,005
836,06	43,634
836,23	47,298
836,40	37,404
836,57	44,912
836,74	44,112
836,91	47,673
837,08	56,854
837,25	43,275
837,42	35,814
837,59	40,644
837,76	41,144
837,93	46,409
838,09	41,434
838,26	46,771
838,43	57,110
838,60	44,932
838,77	39,682
838,94	47,220
839,11	39,971
839,28	43,744
839,45	37,379
839,62	46,791
839,79	49,252
839,96	46,167
840,13	48,856
840,30	42,395
840,47	38,386
840,64	43,296
840,81	39,680
840,98	43,686
841,15	49,869
841,32	35,551
841,48	51,619
841,65	49,950
841,82	43,514
841,99	48,203
842,16	40,516
842,33	50,175
842,50	46,735
842,67	38,813
842,84	41,970
843,01	43,934
843,18	50,898
843,35	37,184
843,52	44,496
843,68	50,572
843,85	48,396
844,02	37,532
844,19	35,010
844,36	57,460
844,53	48,606
844,70	40,214
844,87	59,616
845,04	50,250
845,21	38,298
845,37	47,293
845,54	40,522
845,71	39,059
845,88	57,585
846,05	41,650
846,22	40,653
846,39	48,578
846,56	56,201
846,72	30,700
846,89	49,788
847,06	50,144
847,23	59,836
847,40	41,611
847,57	38,169
847,74	44,796
847,90	60,777
848,07	46,911
848,24	43,415
848,41	55,207
848,58	53,410
848,75	45,923
848,92	43,155
849,08	47,887
849,25	38,900
849,42	39,616
849,59	48,593
849,76	36,378
849,93	50,715
850,09	48,650
850,26	33,167
850,43	68,997
850,60	44,756
850,77	46,251
850,94	47,160
851,10	44,841
851,27	45,877
851,44	40,044
851,61	46,311
851,78	58,489
851,95	52,343
852,11	35,944
852,28	49,980
852,45	55,270
852,62	55,921
852,79	42,851
852,95	43,513
853,12	59,836
853,29	50,239
853,46	43,438
853,63	47,789
853,79	59,920
853,96	48,894
854,13	59,280
854,30	43,755
854,46	74,399
854,63	58,092
854,80	47,764
854,97	49,587
855,14	70,582
855,30	59,848
855,47	41,960
855,64	46,608
855,81	48,682
855,97	61,696
856,14	48,296
856,31	25,912
856,48	70,794
856,65	73,853
856,81	44,354
856,98	35,929
857,15	56,843
857,32	47,670
857,48	42,401
857,65	51,246
857,82	61,033
857,99	59,466
858,15	38,098
858,32	38,522
858,49	48,425
858,65	74,684
858,82	55,593
858,99	46,179
859,16	62,809
859,32	63,322
859,49	43,999
859,66	60,197
859,83	55,405
859,99	52,242
860,16	45,834
860,33	43,450
860,49	58,613
860,66	64,719
860,83	47,618
861,00	39,611
861,16	60,312
861,33	60,107
861,50	43,675
861,66	40,732
861,83	83,023
862,00	50,323
862,16	49,727
862,33	40,029
862,50	75,523
862,67	56,193
862,83	39,607
863,00	60,353
863,17	73,372
863,33	51,186
863,50	17,537
863,67	56,777
863,83	59,516
864,00	51,704
864,17	36,271
864,33	42,848
864,50	70,463
864,67	57,621
864,83	39,530
865,00	38,283
865,17	39,538
865,33	60,629
865,50	38,987
865,67	29,700
865,83	82,432
866,00	96,731
866,17	76,906
866,33	46,655
866,50	86,315
866,66	48,732
866,83	61,967
867,00	64,228
867,16	62,229
867,33	83,499
867,50	23,007
867,66	44,284
867,83	83,299
868,00	76,934
868,16	53,487
868,33	41,461
868,49	61,256
868,66	46,997
868,83	49,962
868,99	69,731
869,16	85,490
869,32	67,653
869,49	54,572
869,66	40,853
869,82	91,016
869,99	88,239
870,15	35,525
870,32	72,588
870,49	64,017
870,65	105,654
870,82	75,620
870,98	55,449
871,15	96,877
871,32	57,101
871,48	23,840
871,65	62,776
871,81	68,640
871,98	25,994
872,15	25,407
872,31	18,381
872,48	122,593
872,64	70,557
872,81	40,977
872,97	62,610
873,14	67,614
873,31	84,918
873,47	59,551
873,64	69,752
873,80	87,068
873,97	79,950
874,13	38,255
874,30	50,073
874,46	83,110
874,63	78,500
874,80	65,419
874,96	8,701
875,13	89,895
875,29	71,185
875,46	93,780
875,62	40,869
875,79	104,406
875,95	63,464
876,12	25,372
876,28	-8,918
876,45	101,743
876,61	86,420
876,78	58,889
876,94	67,524
877,11	95,855
877,27	107,805
877,44	61,387
877,60	68,043
877,77	113,721
877,94	91,693
878,10	57,781
878,27	64,137
878,43	145,830
878,60	60,668
878,76	48,877
878,93	82,921
879,09	127,261
879,26	122,919
879,42	75,726
879,58	61,888
879,75	108,694
879,91	108,056
880,08	-34,917
880,24	26,879
880,41	111,759
880,57	87,188
880,74	61,379
880,90	113,417
881,07	26,817
881,23	79,029
881,40	31,737
881,56	59,638
881,73	97,678
881,89	93,461
882,06	66,548
882,22	119,381
882,38	146,805
882,55	148,314
882,71	55,632
882,88	17,260
883,04	165,584
883,21	190,548
883,37	48,306
883,54	101,794
883,70	236,080
883,86	64,728
884,03	45,918
884,19	55,699
884,36	-13,864
884,52	231,580
884,69	80,556
884,85	79,551
885,01	287,165
885,18	125,052
885,34	79,504
885,51	22,427
885,67	77,837
>>>>> Data<<<<< Espectral Procesado Extremo
