Fichero De Datos De SpectraSuite
++++++++++++++++++++++++++++++++++++
Fecha: Wed Apr 22 11:32:28 CEST 2009
Usuario: evoflor
Presente Oscuro Del Espectro: Sí
La Referencia de Presente Del Espectro De: Sí
Muestreados de los componentes de Número de espectros: 1
Espectrómetros: USB4F02353
Tiempo de integración (usec): 500000 (USB4F02353)
Promedio de Espectros Hechos un: 5 (USB4F02353)
El Alisar Del Furgón: 0 (USB4F02353)
Párrafo de de Corregir del la del del de Eléctrica del obscuridad: Sí (USB4F02353)
Estrobo/Lámpara Permitido: No (USB4F02353)
Correct for Detector Non-linearity: No (USB4F02353)
Párrafo de de Corregir del la del del de Externa del luz: No (USB4F02353)
Procesado del espectro de Número de pixeles en: 3648
>>>>> Comienza Data<<<<< Espectral Procesado Del EL
177,79	262,429
178,00	262,429
178,22	262,429
178,44	1666,319
178,66	-299,562
178,88	98,160
179,09	-438,574
179,31	152,635
179,53	324,659
179,75	307,726
179,96	911,767
180,18	-142,662
180,40	308,169
180,62	302,029
180,83	-53,864
181,05	126,037
181,27	-85065,000
181,49	-163,402
181,70	424,096
181,92	815,558
182,14	570,678
182,36	166,033
182,58	499,350
182,79	1078,862
183,01	-139,040
183,23	54,102
183,45	-76,200
183,66	-296,748
183,88	595,676
184,10	-1890,273
184,32	212,785
184,53	176,250
184,75	-202,084
184,97	56,337
185,18	-234,333
185,40	-391,659
185,62	163,944
185,84	56,037
186,05	160,994
186,27	-87,133
186,49	4621,731
186,71	-62,218
186,92	212,775
187,14	-109,604
187,36	68,725
187,58	139,107
187,79	6,132
188,01	255,278
188,23	-267,230
188,45	58,577
188,66	243,147
188,88	-1808,455
189,10	-1381,650
189,31	5,350
189,53	-48,422
189,75	258,784
189,97	50,250
190,18	-260,665
190,40	431,559
190,62	-119,055
190,83	-151,488
191,05	265,445
191,27	91,329
191,49	395,458
191,70	32,380
191,92	-339,534
192,14	-30,786
192,35	528,820
192,57	1864,714
192,79	18,340
193,01	200,822
193,22	137,761
193,44	-186,630
193,66	117,531
193,87	35,685
194,09	-29,886
194,31	221,024
194,53	764,790
194,74	99,460
194,96	48,932
195,18	111,455
195,39	-321,807
195,61	-120,977
195,83	-220,141
196,04	88,392
196,26	-196,809
196,48	12,887
196,70	297,942
196,91	51,821
197,13	87,759
197,35	12,926
197,56	358,096
197,78	1904,216
198,00	-147,797
198,21	439,150
198,43	-735,262
198,65	204,995
198,86	519,658
199,08	-60,443
199,30	263,289
199,51	-584,902
199,73	117,496
199,95	226,151
200,16	649,096
200,38	75,135
200,60	123,916
200,81	394,143
201,03	326,535
201,25	-1363,650
201,46	153,234
201,68	77,630
201,90	3099,205
202,11	-262,844
202,33	243,205
202,55	669,562
202,76	-57,168
202,98	233,676
203,20	-32,524
203,41	-476,132
203,63	102,554
203,85	-86865,000
204,06	38,666
204,28	-254,855
204,50	199,771
204,71	299,761
204,93	-233,880
205,15	345,678
205,36	-231,482
205,58	251,372
205,80	-343,766
206,01	89,020
206,23	182,175
206,45	216,170
206,66	157,549
206,88	38,546
207,10	156,511
207,31	293,861
207,53	173,614
207,75	43,618
207,96	1064,664
208,18	-248,063
208,39	121,290
208,61	4050,429
208,83	-160,791
209,04	305,493
209,26	-22,880
209,48	229,950
209,69	141,556
209,91	670,490
210,13	58,388
210,34	94,831
210,56	195,950
210,77	-1640,669
210,99	144,355
211,21	6115,588
211,42	-120,241
211,64	-50,869
211,86	292,414
212,07	242,579
212,29	227,082
212,50	132,322
212,72	-53,596
212,94	189,549
213,15	83,800
213,37	138,628
213,58	-138,725
213,80	336,964
214,02	7915,588
214,23	306,323
214,45	320,213
214,67	356,524
214,88	-297,534
215,10	-346,241
215,31	-61,867
215,53	19,466
215,75	132,287
215,96	1439,534
216,18	107,958
216,39	195,918
216,61	478,526
216,83	536,451
217,04	1764,775
217,26	41,395
217,47	71,652
217,69	258,804
217,91	56,791
218,12	-98565,000
218,34	51,107
218,55	464,363
218,77	114,621
218,99	129,424
219,20	-68,001
219,42	334,093
219,63	-87,345
219,85	13,086
220,06	8,712
220,28	129,373
220,50	93,887
220,71	86,630
220,93	3201,226
221,14	-1624,650
221,36	21,482
221,58	-30,300
221,79	251,731
222,01	1229,871
222,22	1027,401
222,44	-35,225
222,65	127,824
222,87	204,650
223,09	89,824
223,30	55,139
223,52	178,698
223,73	128,853
223,95	75,444
224,16	138,278
224,38	229,301
224,60	85,043
224,81	115,928
225,03	124,411
225,24	149,583
225,46	96,453
225,67	9,460
225,89	85,425
226,10	389,051
226,32	687,720
226,54	62,931
226,75	-40,751
226,97	159,040
227,18	157,323
227,40	9,329
227,61	38,983
227,83	-40,768
228,04	120,635
228,26	63,089
228,47	32,228
228,69	170,333
228,91	24,593
229,12	90,075
229,34	51,699
229,55	79,304
229,77	46,018
229,98	-3,635
230,20	108,987
230,41	-24,113
230,63	82,952
230,84	99,679
231,06	8,243
231,27	30,349
231,49	55,392
231,71	13,169
231,92	12,799
232,14	24,513
232,35	82,861
232,57	41,717
232,78	9,411
233,00	16,077
233,21	37,340
233,43	19,051
233,64	15,595
233,86	31,461
234,07	18,574
234,29	20,517
234,50	21,622
234,72	29,899
234,93	10,581
235,15	22,743
235,36	30,389
235,58	19,871
235,79	28,330
236,01	14,655
236,22	4,876
236,44	32,128
236,65	23,368
236,87	31,630
237,08	-2,069
237,30	-10,884
237,51	33,156
237,73	-7,308
237,94	13,155
238,16	24,286
238,37	11,035
238,59	5,581
238,80	20,860
239,02	13,644
239,23	16,610
239,45	-3,478
239,66	21,330
239,88	26,237
240,09	21,864
240,31	8,808
240,52	-0,046
240,74	16,923
240,95	9,574
241,17	12,831
241,38	11,912
241,60	10,107
241,81	34,987
242,03	1,438
242,24	11,395
242,46	21,825
242,67	5,850
242,89	8,540
243,10	15,133
243,32	18,835
243,53	12,761
243,75	7,166
243,96	9,846
244,18	16,851
244,39	15,226
244,60	5,429
244,82	4,407
245,03	13,816
245,25	15,251
245,46	19,476
245,68	2,559
245,89	18,598
246,11	16,624
246,32	11,831
246,54	3,661
246,75	10,807
246,97	13,247
247,18	16,911
247,39	-1,231
247,61	15,250
247,82	12,256
248,04	4,375
248,25	10,796
248,47	14,950
248,68	9,155
248,90	3,596
249,11	7,314
249,33	19,563
249,54	8,791
249,75	13,179
249,97	1,993
250,18	14,864
250,40	16,934
250,61	-1,227
250,83	2,852
251,04	5,679
251,25	9,952
251,47	1,334
251,68	11,315
251,90	9,294
252,11	7,323
252,33	5,613
252,54	4,283
252,76	2,282
252,97	2,549
253,18	1,143
253,40	6,904
253,61	3,303
253,83	11,022
254,04	9,373
254,25	6,582
254,47	6,949
254,68	5,054
254,90	4,817
255,11	7,928
255,33	7,650
255,54	1,104
255,75	5,840
255,97	5,736
256,18	4,206
256,40	6,053
256,61	7,662
256,82	-3,414
257,04	11,975
257,25	1,762
257,47	7,635
257,68	3,765
257,89	7,752
258,11	6,482
258,32	10,599
258,54	6,055
258,75	11,985
258,96	9,816
259,18	7,135
259,39	2,342
259,61	9,709
259,82	3,316
260,03	4,381
260,25	4,109
260,46	4,660
260,68	6,194
260,89	3,381
261,10	4,110
261,32	4,053
261,53	5,485
261,75	6,094
261,96	1,103
262,17	12,487
262,39	10,195
262,60	1,242
262,81	-1,058
263,03	12,168
263,24	5,223
263,46	1,169
263,67	4,152
263,88	4,517
264,10	4,115
264,31	3,381
264,52	6,341
264,74	8,344
264,95	2,334
265,17	4,683
265,38	3,878
265,59	10,910
265,81	7,330
266,02	3,047
266,23	1,899
266,45	10,541
266,66	11,697
266,87	6,006
267,09	2,447
267,30	8,670
267,52	6,196
267,73	5,540
267,94	4,257
268,16	6,848
268,37	4,781
268,58	2,802
268,80	4,943
269,01	3,731
269,22	6,896
269,44	7,110
269,65	6,227
269,86	0,134
270,08	5,377
270,29	4,713
270,50	6,113
270,72	7,357
270,93	4,216
271,14	4,256
271,36	4,238
271,57	10,653
271,78	6,093
272,00	7,394
272,21	9,325
272,42	3,468
272,64	6,095
272,85	1,375
273,06	3,725
273,28	3,279
273,49	3,966
273,70	6,714
273,92	4,834
274,13	7,678
274,34	1,884
274,56	6,147
274,77	0,980
274,98	5,491
275,20	5,616
275,41	5,417
275,62	3,320
275,84	4,018
276,05	8,449
276,26	-0,123
276,47	1,857
276,69	8,157
276,90	4,972
277,11	5,340
277,33	4,180
277,54	5,135
277,75	6,889
277,97	2,659
278,18	3,371
278,39	8,873
278,61	3,754
278,82	5,916
279,03	8,883
279,24	2,787
279,46	3,475
279,67	6,973
279,88	5,031
280,10	9,895
280,31	4,324
280,52	6,116
280,73	1,204
280,95	5,882
281,16	6,306
281,37	2,092
281,59	6,998
281,80	9,297
282,01	5,175
282,22	1,480
282,44	0,491
282,65	12,426
282,86	3,190
283,08	4,184
283,29	4,171
283,50	4,478
283,71	6,801
283,93	7,047
284,14	6,889
284,35	4,113
284,56	4,464
284,78	2,829
284,99	3,878
285,20	10,087
285,42	7,217
285,63	4,957
285,84	0,939
286,05	2,571
286,27	7,082
286,48	3,198
286,69	3,289
286,90	3,792
287,12	4,889
287,33	1,571
287,54	3,746
287,75	6,686
287,97	4,562
288,18	2,242
288,39	1,028
288,60	5,941
288,82	5,682
289,03	3,317
289,24	6,521
289,45	7,071
289,67	4,426
289,88	3,366
290,09	6,648
290,30	6,406
290,52	5,892
290,73	2,867
290,94	1,443
291,15	6,262
291,37	7,092
291,58	1,756
291,79	3,804
292,00	5,503
292,21	7,478
292,43	2,176
292,64	4,247
292,85	2,665
293,06	8,424
293,28	1,302
293,49	2,046
293,70	5,580
293,91	2,857
294,12	5,101
294,34	6,675
294,55	5,109
294,76	5,989
294,97	5,001
295,19	4,013
295,40	3,479
295,61	8,790
295,82	1,560
296,03	4,580
296,25	5,935
296,46	4,819
296,67	0,517
296,88	3,708
297,09	4,583
297,31	3,874
297,52	5,315
297,73	1,657
297,94	6,294
298,15	4,188
298,37	5,280
298,58	5,897
298,79	5,489
299,00	2,282
299,21	2,384
299,43	2,687
299,64	8,786
299,85	7,434
300,06	3,503
300,27	3,435
300,49	9,747
300,70	4,777
300,91	4,179
301,12	2,449
301,33	6,264
301,54	5,573
301,76	5,993
301,97	1,733
302,18	1,530
302,39	6,214
302,60	5,541
302,82	5,759
303,03	8,709
303,24	4,796
303,45	3,931
303,66	2,632
303,87	2,837
304,09	5,011
304,30	2,394
304,51	5,631
304,72	3,742
304,93	7,494
305,14	5,208
305,36	2,330
305,57	2,172
305,78	3,334
305,99	5,112
306,20	3,281
306,41	3,527
306,62	2,376
306,84	1,698
307,05	1,506
307,26	5,718
307,47	9,048
307,68	3,098
307,89	3,725
308,11	5,155
308,32	2,897
308,53	5,054
308,74	2,228
308,95	4,227
309,16	5,491
309,37	5,598
309,59	2,915
309,80	6,866
310,01	3,486
310,22	6,413
310,43	3,099
310,64	6,721
310,85	5,487
311,06	1,348
311,28	4,258
311,49	5,726
311,70	7,169
311,91	3,090
312,12	2,405
312,33	4,936
312,54	5,095
312,75	3,657
312,97	2,758
313,18	5,798
313,39	5,295
313,60	3,419
313,81	4,399
314,02	5,769
314,23	6,154
314,44	1,121
314,65	2,647
314,87	5,505
315,08	5,348
315,29	6,719
315,50	6,638
315,71	5,937
315,92	7,241
316,13	5,735
316,34	4,696
316,55	6,587
316,77	-0,315
316,98	5,232
317,19	2,236
317,40	6,596
317,61	8,016
317,82	3,583
318,03	1,377
318,24	4,973
318,45	6,355
318,66	4,824
318,87	-0,207
319,09	6,605
319,30	6,587
319,51	4,289
319,72	5,065
319,93	8,243
320,14	5,324
320,35	7,012
320,56	2,967
320,77	2,636
320,98	9,477
321,19	3,590
321,40	5,240
321,62	5,949
321,83	4,986
322,04	3,287
322,25	3,021
322,46	9,924
322,67	5,317
322,88	3,582
323,09	4,143
323,30	7,518
323,51	7,522
323,72	6,214
323,93	3,150
324,14	3,582
324,35	1,290
324,56	1,252
324,77	3,120
324,99	1,654
325,20	2,290
325,41	4,094
325,62	5,989
325,83	2,351
326,04	3,841
326,25	6,043
326,46	2,644
326,67	3,786
326,88	4,972
327,09	3,893
327,30	2,405
327,51	5,505
327,72	6,050
327,93	4,881
328,14	0,811
328,35	3,062
328,56	5,841
328,77	4,085
328,98	6,704
329,19	4,861
329,40	6,246
329,61	4,147
329,82	2,904
330,04	4,099
330,25	3,667
330,46	5,444
330,67	4,153
330,88	4,214
331,09	6,527
331,30	4,444
331,51	3,931
331,72	3,898
331,93	7,956
332,14	2,790
332,35	5,812
332,56	0,653
332,77	5,983
332,98	1,800
333,19	4,087
333,40	6,175
333,61	2,276
333,82	7,512
334,03	3,910
334,24	5,590
334,45	5,269
334,66	6,458
334,87	3,646
335,08	1,206
335,29	4,201
335,50	3,655
335,71	1,403
335,92	5,516
336,13	6,979
336,34	0,900
336,55	4,653
336,76	8,345
336,97	3,685
337,18	2,861
337,39	3,566
337,60	6,404
337,81	4,094
338,02	5,409
338,23	5,131
338,44	5,108
338,65	4,149
338,86	6,688
339,07	1,158
339,28	6,352
339,49	3,984
339,70	1,777
339,91	4,129
340,11	5,252
340,32	4,465
340,53	3,363
340,74	0,121
340,95	4,031
341,16	4,893
341,37	2,867
341,58	1,841
341,79	6,276
342,00	1,588
342,21	3,003
342,42	5,103
342,63	6,254
342,84	1,770
343,05	4,841
343,26	7,912
343,47	2,076
343,68	0,889
343,89	3,962
344,10	5,780
344,31	6,936
344,52	5,251
344,73	1,788
344,94	5,479
345,14	4,122
345,35	7,290
345,56	5,981
345,77	1,838
345,98	5,995
346,19	4,572
346,40	3,395
346,61	3,804
346,82	4,464
347,03	5,702
347,24	6,493
347,45	3,571
347,66	7,755
347,87	3,182
348,08	6,242
348,28	1,783
348,49	6,037
348,70	4,990
348,91	6,424
349,12	3,181
349,33	19,282
349,54	2,914
349,75	7,458
349,96	3,045
350,17	4,618
350,38	1,711
350,59	7,402
350,80	7,354
351,00	7,648
351,21	9,978
351,42	3,651
351,63	3,423
351,84	6,979
352,05	6,185
352,26	4,694
352,47	2,526
352,68	7,107
352,89	7,551
353,09	7,235
353,30	-0,225
353,51	6,067
353,72	9,669
353,93	7,175
354,14	3,129
354,35	6,176
354,56	5,910
354,77	8,425
354,98	0,404
355,18	6,774
355,39	9,451
355,60	4,259
355,81	5,853
356,02	5,190
356,23	7,518
356,44	3,524
356,65	4,441
356,85	10,746
357,06	6,001
357,27	8,348
357,48	2,714
357,69	5,055
357,90	6,600
358,11	2,424
358,32	0,224
358,52	6,590
358,73	6,662
358,94	0,883
359,15	6,634
359,36	5,584
359,57	5,416
359,78	5,707
359,98	2,838
360,19	1,793
360,40	3,922
360,61	7,029
360,82	3,657
361,03	7,465
361,24	7,913
361,44	3,797
361,65	2,952
361,86	3,516
362,07	6,410
362,28	2,070
362,49	4,762
362,70	5,318
362,90	8,445
363,11	5,741
363,32	3,714
363,53	6,232
363,74	10,132
363,95	6,163
364,15	4,877
364,36	8,198
364,57	6,666
364,78	4,949
364,99	3,883
365,20	6,771
365,40	5,471
365,61	4,093
365,82	6,930
366,03	8,251
366,24	4,411
366,45	2,771
366,65	7,457
366,86	4,829
367,07	3,598
367,28	4,624
367,49	5,835
367,69	10,257
367,90	4,752
368,11	6,059
368,32	8,670
368,53	9,069
368,73	9,192
368,94	8,507
369,15	4,345
369,36	5,854
369,57	5,683
369,78	4,450
369,98	9,148
370,19	10,915
370,40	7,126
370,61	5,019
370,82	6,946
371,02	7,412
371,23	10,325
371,44	7,277
371,65	8,040
371,85	10,804
372,06	6,110
372,27	4,326
372,48	7,261
372,69	9,213
372,89	8,619
373,10	3,145
373,31	8,852
373,52	7,987
373,73	9,927
373,93	7,744
374,14	5,810
374,35	8,105
374,56	9,751
374,76	7,191
374,97	5,650
375,18	8,659
375,39	5,090
375,60	9,497
375,80	7,261
376,01	1,063
376,22	9,147
376,43	8,684
376,63	3,818
376,84	7,487
377,05	9,889
377,26	6,796
377,46	2,190
377,67	5,469
377,88	8,420
378,09	8,728
378,29	5,903
378,50	11,404
378,71	10,419
378,92	5,236
379,12	5,721
379,33	7,286
379,54	10,508
379,75	8,486
379,95	5,701
380,16	10,243
380,37	12,481
380,58	8,758
380,78	10,543
380,99	6,713
381,20	10,552
381,41	9,492
381,61	9,992
381,82	7,847
382,03	5,051
382,24	11,295
382,44	9,139
382,65	8,041
382,86	7,011
383,06	9,630
383,27	10,519
383,48	9,117
383,69	11,058
383,89	12,430
384,10	12,760
384,31	8,438
384,51	13,687
384,72	15,573
384,93	9,981
385,14	12,359
385,34	10,283
385,55	9,805
385,76	5,426
385,96	12,699
386,17	8,730
386,38	16,946
386,59	12,814
386,79	9,922
387,00	16,047
387,21	15,906
387,41	13,436
387,62	10,026
387,83	17,870
388,03	14,723
388,24	6,780
388,45	9,580
388,66	13,468
388,86	12,803
389,07	13,182
389,28	17,723
389,48	11,521
389,69	11,292
389,90	8,506
390,10	16,726
390,31	15,426
390,52	8,580
390,72	10,719
390,93	15,231
391,14	10,562
391,34	15,616
391,55	16,471
391,76	18,651
391,96	13,877
392,17	12,773
392,38	16,631
392,58	14,933
392,79	10,191
393,00	8,863
393,20	13,070
393,41	10,741
393,62	15,674
393,82	14,322
394,03	14,971
394,24	16,199
394,44	20,793
394,65	18,361
394,86	14,036
395,06	17,316
395,27	12,711
395,48	14,217
395,68	17,434
395,89	15,355
396,10	13,894
396,30	15,153
396,51	14,342
396,72	15,433
396,92	11,523
397,13	15,472
397,34	13,209
397,54	20,267
397,75	11,282
397,95	14,522
398,16	14,751
398,37	13,398
398,57	17,306
398,78	18,842
398,99	18,194
399,19	18,733
399,40	18,392
399,60	16,590
399,81	17,823
400,02	16,898
400,22	20,162
400,43	15,257
400,64	16,962
400,84	16,441
401,05	20,053
401,25	18,903
401,46	11,174
401,67	16,629
401,87	17,011
402,08	15,387
402,29	15,141
402,49	20,984
402,70	19,610
402,90	15,347
403,11	17,180
403,32	21,394
403,52	19,643
403,73	16,102
403,93	19,644
404,14	24,087
404,35	19,694
404,55	17,395
404,76	20,272
404,96	21,394
405,17	20,988
405,38	24,526
405,58	16,848
405,79	22,344
405,99	24,482
406,20	20,477
406,40	19,785
406,61	20,351
406,82	19,264
407,02	22,617
407,23	20,475
407,43	23,358
407,64	18,037
407,85	17,380
408,05	16,879
408,26	28,364
408,46	25,263
408,67	16,814
408,87	18,658
409,08	19,744
409,29	25,317
409,49	24,783
409,70	22,455
409,90	21,719
410,11	21,455
410,31	24,942
410,52	20,633
410,72	20,448
410,93	25,674
411,14	22,323
411,34	18,126
411,55	24,415
411,75	25,866
411,96	24,109
412,16	22,109
412,37	25,019
412,57	23,093
412,78	27,158
412,99	21,100
413,19	24,900
413,40	23,832
413,60	22,851
413,81	20,640
414,01	24,209
414,22	22,347
414,42	18,040
414,63	18,065
414,83	29,795
415,04	27,131
415,24	23,902
415,45	23,049
415,65	20,783
415,86	26,436
416,07	24,805
416,27	25,110
416,48	27,580
416,68	26,362
416,89	21,244
417,09	25,159
417,30	28,451
417,50	24,882
417,71	26,516
417,91	26,943
418,12	22,808
418,32	23,598
418,53	21,576
418,73	21,780
418,94	26,024
419,14	24,226
419,35	20,505
419,55	24,358
419,76	28,236
419,96	22,549
420,17	22,966
420,37	24,940
420,58	27,319
420,78	19,227
420,99	26,136
421,19	26,349
421,40	27,599
421,60	28,293
421,81	23,885
422,01	26,082
422,22	29,159
422,42	23,831
422,63	24,438
422,83	22,892
423,04	31,364
423,24	28,405
423,45	25,817
423,65	28,684
423,86	32,005
424,06	31,431
424,27	22,690
424,47	24,741
424,67	22,280
424,88	27,095
425,08	26,811
425,29	31,392
425,49	23,910
425,70	19,704
425,90	24,193
426,11	24,539
426,31	26,614
426,52	25,637
426,72	27,034
426,93	27,584
427,13	27,241
427,33	27,149
427,54	29,995
427,74	30,079
427,95	35,741
428,15	25,139
428,36	26,203
428,56	25,166
428,77	26,592
428,97	29,454
429,18	23,700
429,38	24,606
429,58	26,690
429,79	27,791
429,99	25,287
430,20	20,046
430,40	27,444
430,61	26,183
430,81	21,494
431,01	24,460
431,22	28,826
431,42	28,780
431,63	20,659
431,83	25,523
432,04	23,729
432,24	29,514
432,44	25,717
432,65	24,785
432,85	24,235
433,06	27,087
433,26	26,723
433,47	25,282
433,67	22,844
433,87	25,361
434,08	19,658
434,28	20,683
434,49	25,762
434,69	29,881
434,89	21,018
435,10	21,420
435,30	31,296
435,51	23,917
435,71	23,562
435,91	24,952
436,12	23,822
436,32	26,934
436,53	23,413
436,73	24,789
436,93	26,898
437,14	24,834
437,34	26,411
437,55	23,616
437,75	25,756
437,95	30,591
438,16	23,844
438,36	23,753
438,57	20,829
438,77	24,530
438,97	26,236
439,18	27,429
439,38	24,178
439,58	25,426
439,79	23,915
439,99	22,837
440,20	32,170
440,40	25,702
440,60	27,186
440,81	27,289
441,01	27,250
441,21	29,024
441,42	27,864
441,62	27,518
441,83	26,903
442,03	24,341
442,23	30,409
442,44	27,333
442,64	28,654
442,84	26,256
443,05	29,304
443,25	24,907
443,45	31,076
443,66	28,102
443,86	27,256
444,06	27,186
444,27	26,190
444,47	28,505
444,67	25,578
444,88	26,162
445,08	30,005
445,28	28,981
445,49	23,609
445,69	25,813
445,90	30,906
446,10	30,927
446,30	28,032
446,51	28,017
446,71	31,686
446,91	33,256
447,12	36,240
447,32	27,453
447,52	30,412
447,72	28,041
447,93	29,484
448,13	27,557
448,33	34,909
448,54	32,374
448,74	28,037
448,94	30,274
449,15	32,149
449,35	32,472
449,55	25,636
449,76	34,749
449,96	29,892
450,16	30,246
450,37	28,537
450,57	30,795
450,77	28,150
450,98	31,958
451,18	32,840
451,38	31,221
451,58	32,325
451,79	33,523
451,99	34,213
452,19	29,693
452,40	32,017
452,60	27,309
452,80	27,266
453,00	35,184
453,21	32,492
453,41	36,208
453,61	32,498
453,82	31,748
454,02	32,305
454,22	35,569
454,42	33,225
454,63	25,884
454,83	30,832
455,03	32,776
455,24	31,211
455,44	30,400
455,64	29,694
455,84	30,032
456,05	28,058
456,25	28,961
456,45	34,064
456,65	28,113
456,86	32,289
457,06	32,470
457,26	30,234
457,47	33,728
457,67	32,932
457,87	32,053
458,07	32,345
458,28	32,845
458,48	32,418
458,68	27,804
458,88	35,132
459,09	28,425
459,29	38,076
459,49	26,259
459,69	32,962
459,90	30,776
460,10	32,149
460,30	33,010
460,50	32,482
460,71	39,308
460,91	26,564
461,11	33,342
461,31	32,421
461,52	33,265
461,72	30,010
461,92	32,280
462,12	38,480
462,32	26,903
462,53	28,896
462,73	29,028
462,93	33,450
463,13	34,825
463,34	30,572
463,54	28,923
463,74	33,611
463,94	33,306
464,14	31,195
464,35	24,912
464,55	39,152
464,75	34,318
464,95	33,883
465,16	25,910
465,36	33,420
465,56	29,987
465,76	29,297
465,96	28,592
466,17	31,533
466,37	27,938
466,57	33,503
466,77	30,733
466,97	30,262
467,18	33,535
467,38	30,790
467,58	31,774
467,78	32,858
467,98	33,355
468,19	36,326
468,39	34,781
468,59	37,474
468,79	34,332
468,99	31,829
469,19	28,355
469,40	30,739
469,60	23,431
469,80	29,715
470,00	35,748
470,20	36,491
470,41	31,195
470,61	32,269
470,81	34,121
471,01	28,649
471,21	32,267
471,41	33,838
471,62	28,428
471,82	27,227
472,02	30,102
472,22	28,200
472,42	31,123
472,62	30,924
472,83	32,479
473,03	33,798
473,23	29,783
473,43	35,289
473,63	30,990
473,83	30,607
474,03	32,775
474,24	35,402
474,44	30,287
474,64	32,445
474,84	30,239
475,04	33,510
475,24	30,053
475,45	28,135
475,65	29,145
475,85	33,914
476,05	25,959
476,25	29,638
476,45	30,772
476,65	37,506
476,85	31,421
477,06	31,371
477,26	30,705
477,46	31,450
477,66	29,592
477,86	34,960
478,06	29,936
478,26	36,134
478,46	31,049
478,67	32,323
478,87	28,889
479,07	27,698
479,27	33,892
479,47	30,323
479,67	25,362
479,87	27,990
480,07	31,708
480,28	33,441
480,48	26,327
480,68	32,828
480,88	34,097
481,08	31,199
481,28	31,571
481,48	29,838
481,68	30,376
481,88	30,371
482,08	30,485
482,29	35,827
482,49	28,136
482,69	31,415
482,89	31,208
483,09	33,645
483,29	30,343
483,49	31,272
483,69	32,023
483,89	30,038
484,09	27,003
484,29	28,337
484,50	29,047
484,70	33,032
484,90	29,780
485,10	28,753
485,30	32,191
485,50	32,371
485,70	28,913
485,90	28,957
486,10	27,967
486,30	28,880
486,50	31,281
486,70	29,002
486,90	31,401
487,10	32,243
487,30	30,347
487,51	32,217
487,71	27,781
487,91	29,583
488,11	33,712
488,31	26,922
488,51	31,953
488,71	29,382
488,91	31,073
489,11	28,171
489,31	28,489
489,51	29,611
489,71	29,589
489,91	30,775
490,11	28,705
490,31	31,414
490,51	32,327
490,71	32,381
490,91	30,040
491,11	31,499
491,31	32,027
491,51	27,701
491,72	30,961
491,92	33,755
492,12	35,176
492,32	32,102
492,52	34,204
492,72	31,977
492,92	29,744
493,12	32,497
493,32	30,366
493,52	29,990
493,72	29,641
493,92	31,355
494,12	32,178
494,32	33,686
494,52	32,099
494,72	31,460
494,92	29,286
495,12	34,223
495,32	37,172
495,52	32,654
495,72	34,612
495,92	35,625
496,12	36,980
496,32	31,247
496,52	33,054
496,72	34,873
496,92	34,918
497,12	33,048
497,32	34,506
497,52	34,800
497,72	35,372
497,92	37,217
498,12	35,010
498,32	33,538
498,52	35,497
498,72	31,766
498,92	31,933
499,12	39,100
499,32	31,203
499,52	34,497
499,72	37,060
499,92	38,246
500,12	33,106
500,32	37,243
500,52	33,885
500,72	38,716
500,91	38,615
501,11	36,538
501,31	31,223
501,51	36,316
501,71	35,412
501,91	40,263
502,11	35,352
502,31	35,531
502,51	42,909
502,71	34,809
502,91	34,344
503,11	37,150
503,31	37,858
503,51	36,206
503,71	34,386
503,91	38,706
504,11	37,088
504,31	36,413
504,51	36,884
504,71	39,669
504,91	37,766
505,10	38,460
505,30	35,582
505,50	38,507
505,70	34,867
505,90	38,364
506,10	34,997
506,30	35,676
506,50	40,677
506,70	40,461
506,90	37,028
507,10	38,060
507,30	37,926
507,50	40,946
507,70	39,009
507,89	39,232
508,09	38,014
508,29	38,065
508,49	38,464
508,69	37,728
508,89	40,792
509,09	35,964
509,29	38,210
509,49	40,284
509,69	41,647
509,89	40,989
510,09	38,266
510,28	37,519
510,48	38,049
510,68	37,622
510,88	38,402
511,08	38,803
511,28	41,030
511,48	38,076
511,68	38,223
511,88	35,123
512,07	39,405
512,27	40,105
512,47	37,903
512,67	38,126
512,87	37,193
513,07	37,543
513,27	35,323
513,47	39,603
513,67	37,118
513,86	42,134
514,06	40,104
514,26	40,420
514,46	40,857
514,66	38,926
514,86	38,666
515,06	41,220
515,26	39,809
515,45	39,865
515,65	40,206
515,85	40,477
516,05	38,175
516,25	41,752
516,45	39,018
516,65	39,575
516,84	39,787
517,04	42,975
517,24	39,532
517,44	39,762
517,64	43,093
517,84	43,341
518,04	41,143
518,23	41,272
518,43	41,373
518,63	38,926
518,83	37,551
519,03	39,510
519,23	41,921
519,42	38,544
519,62	38,145
519,82	38,721
520,02	41,567
520,22	39,756
520,42	38,774
520,61	43,877
520,81	41,008
521,01	45,903
521,21	36,747
521,41	42,521
521,61	42,030
521,80	37,720
522,00	40,593
522,20	43,008
522,40	41,289
522,60	40,891
522,79	38,537
522,99	41,081
523,19	40,199
523,39	39,448
523,59	40,412
523,78	43,462
523,98	38,505
524,18	40,430
524,38	38,267
524,58	39,929
524,77	43,168
524,97	38,534
525,17	40,243
525,37	40,401
525,57	44,201
525,76	39,525
525,96	42,087
526,16	39,272
526,36	38,606
526,56	40,057
526,75	39,056
526,95	40,468
527,15	41,193
527,35	41,141
527,55	38,483
527,74	48,298
527,94	39,110
528,14	37,468
528,34	41,338
528,53	39,386
528,73	42,284
528,93	38,920
529,13	40,474
529,32	43,806
529,52	42,152
529,72	40,808
529,92	39,789
530,12	40,196
530,31	38,813
530,51	39,145
530,71	42,911
530,91	41,761
531,10	36,941
531,30	41,013
531,50	38,663
531,70	41,502
531,89	39,122
532,09	39,465
532,29	38,159
532,49	41,241
532,68	38,487
532,88	40,284
533,08	38,574
533,28	40,871
533,47	41,844
533,67	41,245
533,87	37,593
534,06	45,656
534,26	41,564
534,46	39,868
534,66	41,917
534,85	40,676
535,05	38,025
535,25	39,592
535,45	37,383
535,64	39,655
535,84	40,696
536,04	35,978
536,23	40,634
536,43	41,732
536,63	39,029
536,83	39,531
537,02	39,138
537,22	38,072
537,42	40,047
537,61	36,189
537,81	38,005
538,01	39,870
538,20	39,681
538,40	35,879
538,60	37,276
538,80	35,349
538,99	36,758
539,19	34,274
539,39	35,465
539,58	36,042
539,78	33,405
539,98	33,441
540,17	30,993
540,37	35,835
540,57	31,972
540,76	29,934
540,96	28,835
541,16	33,802
541,36	29,569
541,55	26,375
541,75	26,470
541,95	29,993
542,14	28,401
542,34	26,776
542,54	25,684
542,73	28,238
542,93	28,227
543,13	27,365
543,32	25,088
543,52	27,933
543,72	26,576
543,91	27,469
544,11	25,623
544,31	26,698
544,50	27,375
544,70	27,290
544,89	28,158
545,09	29,584
545,29	28,469
545,48	28,670
545,68	28,386
545,88	29,972
546,07	30,706
546,27	27,773
546,47	31,873
546,66	30,851
546,86	32,460
547,06	31,159
547,25	30,887
547,45	35,366
547,64	33,174
547,84	38,177
548,04	34,133
548,23	36,592
548,43	34,759
548,63	36,265
548,82	36,234
549,02	34,019
549,21	36,063
549,41	36,319
549,61	37,860
549,80	35,058
550,00	36,872
550,20	35,276
550,39	35,163
550,59	36,568
550,78	38,157
550,98	35,395
551,18	38,525
551,37	35,045
551,57	36,062
551,76	36,859
551,96	36,534
552,16	38,344
552,35	37,690
552,55	39,322
552,74	38,102
552,94	38,532
553,14	37,926
553,33	36,596
553,53	35,970
553,72	36,938
553,92	40,665
554,12	37,816
554,31	39,521
554,51	37,941
554,70	35,986
554,90	40,440
555,09	41,596
555,29	41,693
555,49	39,666
555,68	39,508
555,88	39,037
556,07	38,601
556,27	43,721
556,46	38,781
556,66	38,057
556,86	41,227
557,05	38,494
557,25	37,168
557,44	36,053
557,64	39,497
557,83	40,436
558,03	38,776
558,22	39,371
558,42	38,249
558,62	41,205
558,81	39,047
559,01	37,324
559,20	41,779
559,40	39,421
559,59	39,023
559,79	38,998
559,98	40,696
560,18	42,545
560,37	39,474
560,57	38,880
560,76	37,118
560,96	37,400
561,16	40,442
561,35	38,862
561,55	43,072
561,74	40,673
561,94	42,806
562,13	38,512
562,33	41,504
562,52	41,354
562,72	39,379
562,91	38,806
563,11	41,483
563,30	43,945
563,50	37,486
563,69	36,924
563,89	40,273
564,08	40,855
564,28	38,499
564,47	40,011
564,67	37,265
564,86	39,952
565,06	36,661
565,25	38,638
565,45	39,777
565,64	43,374
565,84	37,138
566,03	37,103
566,23	39,437
566,42	39,382
566,62	40,672
566,81	38,755
567,01	38,426
567,20	42,020
567,40	38,281
567,59	36,694
567,79	40,469
567,98	40,725
568,18	40,057
568,37	39,629
568,57	39,972
568,76	41,483
568,96	38,961
569,15	37,851
569,35	39,597
569,54	40,904
569,73	40,288
569,93	38,467
570,12	37,944
570,32	39,538
570,51	39,128
570,71	41,072
570,90	40,355
571,10	37,377
571,29	38,636
571,49	39,402
571,68	40,384
571,87	39,662
572,07	39,124
572,26	35,679
572,46	39,749
572,65	38,902
572,85	38,706
573,04	37,443
573,24	39,086
573,43	43,896
573,62	40,901
573,82	39,991
574,01	39,086
574,21	39,424
574,40	35,616
574,60	36,235
574,79	41,781
574,98	38,069
575,18	38,488
575,37	37,595
575,57	38,890
575,76	39,590
575,96	38,927
576,15	37,896
576,34	38,610
576,54	40,068
576,73	38,920
576,93	37,672
577,12	38,768
577,31	37,624
577,51	36,547
577,70	36,833
577,90	36,990
578,09	38,856
578,28	36,776
578,48	37,764
578,67	38,238
578,87	39,277
579,06	37,844
579,25	37,971
579,45	38,016
579,64	37,526
579,84	36,579
580,03	36,123
580,22	39,103
580,42	36,655
580,61	36,356
580,81	37,152
581,00	38,764
581,19	39,143
581,39	37,488
581,58	37,166
581,77	38,595
581,97	39,153
582,16	37,334
582,35	36,858
582,55	37,214
582,74	37,717
582,94	39,227
583,13	35,728
583,32	36,932
583,52	38,764
583,71	36,874
583,90	36,817
584,10	37,099
584,29	39,013
584,48	34,898
584,68	36,833
584,87	38,515
585,06	36,271
585,26	35,927
585,45	36,763
585,65	39,778
585,84	35,828
586,03	35,190
586,23	34,877
586,42	36,468
586,61	37,273
586,81	38,704
587,00	36,812
587,19	34,807
587,39	38,024
587,58	37,380
587,77	38,191
587,97	37,201
588,16	37,301
588,35	38,369
588,54	37,001
588,74	36,006
588,93	37,299
589,12	37,351
589,32	37,191
589,51	35,359
589,70	35,307
589,90	36,334
590,09	36,788
590,28	40,335
590,48	35,299
590,67	37,447
590,86	38,094
591,06	37,540
591,25	40,076
591,44	37,138
591,63	35,796
591,83	38,261
592,02	36,633
592,21	37,307
592,41	35,985
592,60	37,837
592,79	39,336
592,98	37,086
593,18	37,171
593,37	37,395
593,56	38,368
593,76	38,677
593,95	36,782
594,14	36,329
594,33	40,511
594,53	38,037
594,72	37,649
594,91	40,980
595,10	38,467
595,30	38,605
595,49	37,320
595,68	39,170
595,88	39,285
596,07	38,199
596,26	39,256
596,45	39,828
596,65	36,610
596,84	37,858
597,03	37,379
597,22	41,131
597,42	40,310
597,61	38,237
597,80	37,097
597,99	37,721
598,19	38,759
598,38	39,719
598,57	38,712
598,76	38,750
598,95	39,243
599,15	38,262
599,34	36,958
599,53	37,343
599,72	39,354
599,92	39,160
600,11	37,758
600,30	38,093
600,49	39,744
600,69	37,134
600,88	38,544
601,07	38,301
601,26	39,604
601,45	37,682
601,65	38,774
601,84	38,557
602,03	38,060
602,22	37,651
602,42	41,381
602,61	37,671
602,80	40,468
602,99	37,799
603,18	38,213
603,38	38,707
603,57	38,155
603,76	38,135
603,95	36,651
604,14	38,183
604,34	39,142
604,53	37,156
604,72	38,678
604,91	37,942
605,10	37,616
605,29	39,709
605,49	35,587
605,68	37,880
605,87	38,404
606,06	37,858
606,25	37,077
606,45	38,681
606,64	37,497
606,83	37,895
607,02	37,999
607,21	38,788
607,40	37,363
607,60	35,818
607,79	35,288
607,98	35,754
608,17	34,779
608,36	34,364
608,55	36,134
608,75	35,360
608,94	34,340
609,13	31,426
609,32	30,955
609,51	31,322
609,70	31,261
609,89	31,884
610,09	30,800
610,28	31,716
610,47	29,898
610,66	29,083
610,85	29,866
611,04	31,573
611,23	29,197
611,43	29,466
611,62	29,107
611,81	29,540
612,00	30,030
612,19	29,757
612,38	30,735
612,57	31,878
612,77	31,779
612,96	32,024
613,15	31,107
613,34	33,761
613,53	33,461
613,72	34,717
613,91	33,324
614,10	33,907
614,29	36,010
614,49	31,511
614,68	33,840
614,87	35,233
615,06	36,425
615,25	33,423
615,44	36,435
615,63	33,662
615,82	36,135
616,01	33,678
616,21	34,878
616,40	37,048
616,59	39,679
616,78	35,848
616,97	36,005
617,16	36,705
617,35	37,768
617,54	35,080
617,73	36,390
617,92	35,920
618,11	38,653
618,31	33,462
618,50	36,084
618,69	36,388
618,88	36,979
619,07	34,392
619,26	35,047
619,45	34,888
619,64	35,148
619,83	34,587
620,02	34,992
620,21	36,267
620,40	36,293
620,59	34,786
620,78	32,775
620,97	36,229
621,17	35,901
621,36	35,713
621,55	34,000
621,74	34,569
621,93	35,442
622,12	35,276
622,31	34,700
622,50	36,376
622,69	37,906
622,88	36,510
623,07	37,656
623,26	37,390
623,45	39,104
623,64	34,321
623,83	35,063
624,02	37,247
624,21	37,837
624,40	35,614
624,59	34,451
624,78	35,731
624,97	39,684
625,16	34,398
625,35	32,251
625,54	34,439
625,73	36,533
625,92	36,071
626,12	37,611
626,31	37,783
626,50	35,011
626,69	36,824
626,88	34,640
627,07	34,806
627,26	35,390
627,45	37,586
627,64	35,912
627,83	36,958
628,02	34,615
628,21	35,203
628,40	36,065
628,59	36,608
628,78	33,681
628,97	33,281
629,16	33,849
629,35	34,707
629,54	37,415
629,73	35,479
629,92	33,543
630,10	35,054
630,29	35,397
630,48	35,293
630,67	35,307
630,86	37,290
631,05	34,799
631,24	36,889
631,43	32,614
631,62	35,568
631,81	34,773
632,00	34,827
632,19	34,306
632,38	36,713
632,57	36,920
632,76	36,567
632,95	36,049
633,14	38,427
633,33	36,694
633,52	35,349
633,71	35,883
633,90	34,522
634,09	36,938
634,28	36,781
634,47	36,235
634,66	36,879
634,85	34,750
635,04	39,029
635,22	35,584
635,41	36,699
635,60	37,282
635,79	37,508
635,98	34,948
636,17	37,412
636,36	37,108
636,55	37,892
636,74	34,263
636,93	36,812
637,12	38,757
637,31	35,315
637,50	34,979
637,69	36,046
637,87	36,397
638,06	36,102
638,25	37,206
638,44	35,913
638,63	32,768
638,82	36,479
639,01	36,787
639,20	35,237
639,39	36,536
639,58	35,040
639,77	35,744
639,95	35,317
640,14	36,591
640,33	35,624
640,52	36,155
640,71	36,600
640,90	35,323
641,09	37,843
641,28	34,815
641,47	37,115
641,66	36,592
641,84	36,960
642,03	36,571
642,22	35,778
642,41	37,486
642,60	35,190
642,79	34,169
642,98	35,251
643,17	34,219
643,35	35,138
643,54	34,745
643,73	36,783
643,92	36,160
644,11	33,607
644,30	35,134
644,49	37,127
644,67	34,113
644,86	34,774
645,05	37,521
645,24	35,374
645,43	35,987
645,62	35,659
645,81	35,724
645,99	36,800
646,18	37,204
646,37	33,543
646,56	34,680
646,75	35,982
646,94	36,788
647,13	34,449
647,31	33,318
647,50	34,400
647,69	37,563
647,88	36,029
648,07	34,758
648,26	37,593
648,44	33,870
648,63	34,859
648,82	33,857
649,01	35,359
649,20	33,604
649,38	33,799
649,57	35,457
649,76	33,002
649,95	35,085
650,14	33,161
650,33	32,843
650,51	33,766
650,70	36,701
650,89	35,199
651,08	32,759
651,27	35,152
651,45	33,400
651,64	32,548
651,83	34,873
652,02	33,028
652,21	35,104
652,39	34,463
652,58	34,258
652,77	34,679
652,96	36,157
653,15	33,775
653,33	33,133
653,52	34,961
653,71	35,179
653,90	35,673
654,09	35,818
654,27	35,550
654,46	34,561
654,65	34,631
654,84	35,095
655,02	35,895
655,21	35,710
655,40	34,926
655,59	34,602
655,77	34,627
655,96	34,699
656,15	35,563
656,34	35,643
656,53	35,366
656,71	35,094
656,90	35,881
657,09	35,968
657,28	35,714
657,46	34,113
657,65	34,833
657,84	32,228
658,03	35,911
658,21	36,094
658,40	33,286
658,59	34,192
658,78	33,245
658,96	32,479
659,15	33,401
659,34	32,643
659,52	33,397
659,71	34,795
659,90	31,549
660,09	33,412
660,27	32,154
660,46	33,832
660,65	32,494
660,84	31,008
661,02	34,186
661,21	32,894
661,40	31,820
661,58	31,274
661,77	32,870
661,96	28,714
662,15	33,257
662,33	30,879
662,52	29,209
662,71	32,205
662,89	30,355
663,08	30,884
663,27	30,478
663,45	31,393
663,64	30,702
663,83	28,961
664,02	30,119
664,20	32,079
664,39	29,897
664,58	30,935
664,76	30,805
664,95	31,937
665,14	29,481
665,32	29,512
665,51	31,010
665,70	30,592
665,88	30,920
666,07	30,081
666,26	30,978
666,44	32,102
666,63	29,172
666,82	29,228
667,00	30,903
667,19	28,270
667,38	31,849
667,56	31,271
667,75	29,953
667,94	30,150
668,12	27,928
668,31	30,843
668,50	28,393
668,68	29,202
668,87	28,600
669,06	29,793
669,24	30,597
669,43	28,809
669,62	27,396
669,80	27,560
669,99	28,222
670,18	29,634
670,36	27,663
670,55	28,821
670,74	28,181
670,92	26,667
671,11	29,443
671,29	25,991
671,48	29,213
671,67	29,446
671,85	29,314
672,04	27,317
672,23	27,517
672,41	28,175
672,60	27,709
672,78	28,329
672,97	29,114
673,16	28,739
673,34	28,764
673,53	27,136
673,71	27,224
673,90	28,917
674,09	27,846
674,27	26,497
674,46	27,492
674,64	29,507
674,83	27,901
675,02	26,547
675,20	28,997
675,39	27,729
675,57	28,983
675,76	27,309
675,95	29,238
676,13	28,299
676,32	27,180
676,50	28,289
676,69	26,173
676,88	27,309
677,06	26,522
677,25	27,065
677,43	30,481
677,62	28,310
677,80	27,958
677,99	28,024
678,18	27,995
678,36	30,087
678,55	26,513
678,73	28,304
678,92	28,477
679,10	29,731
679,29	29,145
679,48	26,460
679,66	27,995
679,85	27,850
680,03	28,741
680,22	27,748
680,40	27,341
680,59	29,192
680,77	27,367
680,96	30,511
681,15	28,517
681,33	30,569
681,52	27,393
681,70	30,145
681,89	30,260
682,07	30,956
682,26	29,040
682,44	29,610
682,63	29,760
682,81	28,724
683,00	31,759
683,18	28,620
683,37	30,865
683,55	30,059
683,74	29,112
683,92	34,716
684,11	32,314
684,29	30,954
684,48	30,210
684,67	31,228
684,85	31,719
685,04	32,848
685,22	30,671
685,41	30,061
685,59	32,586
685,78	30,841
685,96	30,292
686,15	30,739
686,33	31,218
686,52	31,372
686,70	32,340
686,89	32,495
687,07	33,310
687,26	33,691
687,44	33,508
687,62	32,463
687,81	33,261
687,99	34,413
688,18	32,616
688,36	33,731
688,55	36,270
688,73	36,089
688,92	33,306
689,10	34,107
689,29	34,976
689,47	35,076
689,66	34,412
689,84	33,114
690,03	37,072
690,21	34,886
690,40	35,397
690,58	35,427
690,76	33,131
690,95	37,299
691,13	35,134
691,32	37,095
691,50	36,176
691,69	37,747
691,87	33,574
692,06	35,671
692,24	35,123
692,43	36,636
692,61	34,850
692,79	35,273
692,98	35,042
693,16	38,455
693,35	37,444
693,53	38,136
693,72	38,405
693,90	40,010
694,08	36,856
694,27	34,960
694,45	39,281
694,64	38,809
694,82	37,300
695,01	38,183
695,19	38,117
695,37	37,642
695,56	36,289
695,74	36,032
695,93	41,327
696,11	37,245
696,29	39,107
696,48	37,782
696,66	38,511
696,85	37,996
697,03	36,659
697,21	38,986
697,40	38,156
697,58	39,176
697,77	38,115
697,95	38,706
698,13	39,226
698,32	37,244
698,50	36,758
698,69	36,997
698,87	38,557
699,05	38,422
699,24	35,996
699,42	37,988
699,60	35,173
699,79	37,598
699,97	38,934
700,16	36,646
700,34	41,489
700,52	38,645
700,71	37,722
700,89	36,616
701,07	38,367
701,26	38,976
701,44	37,044
701,63	36,762
701,81	38,981
701,99	40,250
702,18	37,398
702,36	36,220
702,54	38,425
702,73	38,321
702,91	37,881
703,09	37,657
703,28	37,722
703,46	40,024
703,64	39,174
703,83	38,230
704,01	39,357
704,19	39,347
704,38	36,791
704,56	37,639
704,74	39,619
704,93	39,487
705,11	38,378
705,29	39,339
705,48	40,226
705,66	39,932
705,84	38,594
706,03	37,063
706,21	38,398
706,39	37,455
706,58	38,880
706,76	37,840
706,94	39,226
707,12	39,435
707,31	38,156
707,49	37,202
707,67	39,217
707,86	39,732
708,04	37,520
708,22	38,317
708,41	39,591
708,59	38,520
708,77	35,394
708,95	39,209
709,14	41,907
709,32	40,712
709,50	38,660
709,69	37,790
709,87	38,762
710,05	38,770
710,23	39,446
710,42	37,640
710,60	38,825
710,78	39,332
710,97	38,341
711,15	38,713
711,33	41,719
711,51	38,994
711,70	37,102
711,88	36,979
712,06	41,337
712,24	38,109
712,43	39,022
712,61	37,956
712,79	39,176
712,97	38,720
713,16	40,175
713,34	38,568
713,52	41,796
713,70	40,398
713,89	37,041
714,07	39,303
714,25	40,692
714,43	42,237
714,62	40,096
714,80	36,120
714,98	36,130
715,16	39,873
715,35	37,965
715,53	38,414
715,71	40,964
715,89	41,184
716,07	37,041
716,26	43,685
716,44	41,084
716,62	40,002
716,80	39,149
716,99	39,646
717,17	40,810
717,35	39,693
717,53	37,410
717,71	37,663
717,90	39,471
718,08	39,592
718,26	37,422
718,44	40,006
718,62	41,812
718,81	40,741
718,99	38,198
719,17	39,699
719,35	39,685
719,53	38,092
719,72	37,926
719,90	40,531
720,08	38,212
720,26	42,059
720,44	37,832
720,62	36,483
720,81	40,547
720,99	40,465
721,17	38,512
721,35	39,769
721,53	39,923
721,72	42,224
721,90	40,037
722,08	39,063
722,26	38,437
722,44	40,142
722,62	38,399
722,81	39,515
722,99	38,645
723,17	40,318
723,35	40,630
723,53	38,985
723,71	41,311
723,89	41,565
724,08	35,233
724,26	37,643
724,44	40,379
724,62	39,218
724,80	37,219
724,98	40,409
725,16	42,334
725,35	38,535
725,53	37,416
725,71	38,159
725,89	39,090
726,07	41,495
726,25	39,990
726,43	39,353
726,61	40,246
726,80	40,955
726,98	38,742
727,16	38,714
727,34	40,491
727,52	39,612
727,70	38,582
727,88	39,597
728,06	38,602
728,25	38,625
728,43	40,085
728,61	37,779
728,79	40,130
728,97	39,929
729,15	39,058
729,33	39,359
729,51	39,165
729,69	41,286
729,87	36,659
730,06	39,397
730,24	39,060
730,42	40,982
730,60	38,037
730,78	40,956
730,96	40,145
731,14	42,135
731,32	40,187
731,50	40,698
731,68	38,784
731,86	41,136
732,04	39,745
732,22	39,321
732,41	42,761
732,59	38,351
732,77	41,337
732,95	41,083
733,13	41,940
733,31	40,022
733,49	36,827
733,67	40,652
733,85	40,144
734,03	38,608
734,21	39,430
734,39	38,924
734,57	41,483
734,75	40,875
734,93	40,257
735,11	39,037
735,29	37,610
735,47	41,631
735,65	40,549
735,84	38,994
736,02	39,909
736,20	43,055
736,38	39,366
736,56	40,226
736,74	39,639
736,92	39,118
737,10	38,202
737,28	39,207
737,46	40,750
737,64	39,486
737,82	42,303
738,00	40,881
738,18	41,790
738,36	39,659
738,54	38,462
738,72	39,403
738,90	40,003
739,08	39,027
739,26	35,736
739,44	40,836
739,62	40,526
739,80	40,878
739,98	39,230
740,16	40,415
740,34	38,991
740,52	42,362
740,70	38,840
740,88	39,370
741,06	38,873
741,24	41,424
741,42	40,398
741,60	38,390
741,78	40,937
741,96	39,153
742,14	39,605
742,32	36,379
742,50	40,728
742,68	39,525
742,86	38,948
743,04	37,898
743,21	39,983
743,39	39,948
743,57	39,654
743,75	39,385
743,93	37,430
744,11	36,972
744,29	38,913
744,47	40,116
744,65	38,844
744,83	38,774
745,01	40,050
745,19	39,091
745,37	41,768
745,55	38,566
745,73	40,537
745,91	38,065
746,09	39,019
746,27	38,247
746,45	37,843
746,62	38,781
746,80	37,794
746,98	39,062
747,16	37,000
747,34	37,890
747,52	40,123
747,70	40,895
747,88	38,730
748,06	39,385
748,24	40,632
748,42	41,766
748,60	37,466
748,78	39,135
748,95	38,947
749,13	41,922
749,31	38,816
749,49	39,128
749,67	39,454
749,85	41,559
750,03	38,736
750,21	39,353
750,39	41,560
750,57	45,006
750,74	41,227
750,92	39,219
751,10	40,846
751,28	39,684
751,46	40,724
751,64	40,404
751,82	40,231
752,00	39,993
752,17	40,123
752,35	36,588
752,53	39,740
752,71	40,532
752,89	40,634
753,07	39,364
753,25	41,263
753,43	36,003
753,60	40,897
753,78	37,687
753,96	41,628
754,14	39,730
754,32	39,193
754,50	39,357
754,68	39,977
754,85	40,891
755,03	41,850
755,21	41,528
755,39	43,669
755,57	39,781
755,75	39,345
755,92	38,332
756,10	39,354
756,28	42,252
756,46	36,934
756,64	38,696
756,82	41,401
756,99	39,202
757,17	37,786
757,35	37,398
757,53	42,358
757,71	41,023
757,89	37,016
758,06	40,628
758,24	41,678
758,42	40,733
758,60	39,591
758,78	39,227
758,95	40,424
759,13	42,771
759,31	38,919
759,49	38,770
759,67	39,775
759,84	40,569
760,02	39,475
760,20	39,970
760,38	39,980
760,56	38,917
760,73	40,862
760,91	40,514
761,09	41,005
761,27	40,218
761,45	39,444
761,62	40,525
761,80	39,018
761,98	39,300
762,16	39,831
762,33	39,905
762,51	40,359
762,69	40,289
762,87	39,933
763,05	39,367
763,22	38,987
763,40	39,638
763,58	38,819
763,76	39,501
763,93	41,601
764,11	41,111
764,29	38,738
764,47	38,303
764,64	42,170
764,82	42,828
765,00	38,578
765,18	38,499
765,35	39,169
765,53	39,374
765,71	40,896
765,89	38,411
766,06	37,147
766,24	41,517
766,42	39,619
766,60	38,268
766,77	38,492
766,95	38,255
767,13	38,485
767,30	38,529
767,48	38,916
767,66	39,439
767,84	38,183
768,01	40,331
768,19	42,494
768,37	38,709
768,54	37,950
768,72	42,247
768,90	39,130
769,08	39,996
769,25	41,594
769,43	38,204
769,61	38,101
769,78	38,602
769,96	38,623
770,14	41,911
770,31	42,287
770,49	42,003
770,67	41,687
770,85	40,538
771,02	40,646
771,20	38,638
771,38	42,165
771,55	38,577
771,73	38,075
771,91	40,592
772,08	40,228
772,26	38,235
772,44	40,388
772,61	40,785
772,79	39,531
772,97	39,120
773,14	38,116
773,32	39,446
773,50	37,750
773,67	38,013
773,85	41,155
774,03	42,843
774,20	38,781
774,38	39,408
774,56	40,052
774,73	38,071
774,91	39,275
775,09	39,847
775,26	41,060
775,44	39,867
775,61	39,337
775,79	39,650
775,97	42,611
776,14	38,979
776,32	40,736
776,50	38,703
776,67	40,875
776,85	40,274
777,03	39,999
777,20	41,278
777,38	41,676
777,55	40,938
777,73	36,940
777,91	39,153
778,08	40,206
778,26	38,695
778,43	41,460
778,61	37,995
778,79	36,934
778,96	37,361
779,14	39,310
779,32	41,324
779,49	39,016
779,67	41,741
779,84	40,117
780,02	43,737
780,20	36,573
780,37	40,885
780,55	35,883
780,72	40,995
780,90	40,220
781,07	39,441
781,25	38,963
781,43	39,289
781,60	41,180
781,78	40,917
781,95	40,960
782,13	40,053
782,30	42,198
782,48	40,813
782,66	39,420
782,83	39,664
783,01	43,622
783,18	42,043
783,36	40,525
783,53	43,219
783,71	37,898
783,89	37,370
784,06	43,823
784,24	37,818
784,41	42,105
784,59	39,309
784,76	42,365
784,94	39,686
785,11	39,556
785,29	38,814
785,46	39,817
785,64	38,716
785,82	39,631
785,99	41,058
786,17	39,546
786,34	40,188
786,52	40,247
786,69	45,002
786,87	39,433
787,04	40,449
787,22	40,180
787,39	42,517
787,57	39,798
787,74	39,631
787,92	44,514
788,09	41,518
788,27	40,695
788,44	39,332
788,62	40,120
788,79	40,978
788,97	42,357
789,14	39,933
789,32	39,386
789,49	41,058
789,67	42,679
789,84	39,647
790,02	40,941
790,19	39,488
790,37	41,685
790,54	41,553
790,72	41,821
790,89	43,865
791,07	39,562
791,24	38,516
791,42	42,510
791,59	41,741
791,77	40,442
791,94	37,104
792,12	40,528
792,29	41,371
792,47	41,550
792,64	45,489
792,81	42,708
792,99	42,282
793,16	41,202
793,34	41,129
793,51	41,012
793,69	42,022
793,86	39,763
794,04	41,834
794,21	42,348
794,39	39,476
794,56	40,040
794,73	42,607
794,91	42,937
795,08	41,950
795,26	42,329
795,43	42,010
795,61	44,110
795,78	42,460
795,95	41,601
796,13	41,216
796,30	42,119
796,48	38,079
796,65	41,519
796,83	41,787
797,00	44,047
797,17	38,764
797,35	40,754
797,52	41,918
797,70	45,725
797,87	38,292
798,04	36,923
798,22	42,356
798,39	40,183
798,57	40,865
798,74	41,800
798,91	38,920
799,09	42,677
799,26	41,105
799,44	42,150
799,61	39,939
799,78	42,782
799,96	43,724
800,13	38,673
800,31	43,049
800,48	45,330
800,65	44,216
800,83	41,315
801,00	42,431
801,17	44,573
801,35	43,600
801,52	41,872
801,70	40,829
801,87	43,110
802,04	46,484
802,22	38,485
802,39	38,437
802,56	47,662
802,74	41,770
802,91	39,590
803,08	39,141
803,26	40,912
803,43	43,025
803,61	39,745
803,78	40,287
803,95	42,461
804,13	44,533
804,30	41,038
804,47	42,199
804,65	40,525
804,82	43,563
804,99	40,657
805,17	43,315
805,34	47,147
805,51	49,407
805,69	37,056
805,86	38,853
806,03	48,705
806,21	43,511
806,38	41,876
806,55	42,275
806,72	47,708
806,90	47,650
807,07	44,102
807,24	40,811
807,42	40,125
807,59	44,971
807,76	37,883
807,94	42,390
808,11	46,323
808,28	48,204
808,45	42,236
808,63	39,294
808,80	41,078
808,97	42,254
809,15	38,850
809,32	45,357
809,49	36,576
809,67	50,361
809,84	43,792
810,01	43,213
810,18	49,296
810,36	45,578
810,53	41,486
810,70	42,140
810,87	41,250
811,05	40,868
811,22	41,925
811,39	42,270
811,57	48,066
811,74	45,033
811,91	41,556
812,08	37,861
812,26	42,747
812,43	39,895
812,60	43,291
812,77	43,659
812,95	48,057
813,12	46,454
813,29	40,385
813,46	42,698
813,64	47,650
813,81	41,892
813,98	40,768
814,15	40,117
814,32	44,313
814,50	45,227
814,67	42,513
814,84	42,180
815,01	43,390
815,19	39,405
815,36	33,239
815,53	43,927
815,70	44,489
815,87	45,295
816,05	38,585
816,22	43,924
816,39	47,594
816,56	46,396
816,74	44,004
816,91	42,741
817,08	52,585
817,25	45,714
817,42	41,247
817,60	42,342
817,77	45,936
817,94	48,483
818,11	43,892
818,28	45,058
818,45	42,011
818,63	48,327
818,80	45,753
818,97	43,963
819,14	48,898
819,31	42,688
819,49	46,894
819,66	40,416
819,83	44,411
820,00	47,208
820,17	36,171
820,34	46,742
820,52	49,402
820,69	49,175
820,86	42,304
821,03	42,339
821,20	48,462
821,37	47,696
821,55	37,232
821,72	39,307
821,89	43,806
822,06	49,097
822,23	41,760
822,40	42,324
822,57	49,211
822,75	52,186
822,92	40,064
823,09	41,654
823,26	48,771
823,43	49,333
823,60	40,663
823,77	45,775
823,94	55,282
824,12	52,907
824,29	41,285
824,46	38,658
824,63	46,343
824,80	47,311
824,97	44,279
825,14	44,224
825,31	48,608
825,49	41,670
825,66	39,979
825,83	40,477
826,00	49,351
826,17	52,390
826,34	44,143
826,51	42,070
826,68	42,963
826,85	44,665
827,02	41,955
827,20	41,796
827,37	45,837
827,54	48,574
827,71	42,030
827,88	40,471
828,05	45,693
828,22	44,485
828,39	43,871
828,56	39,562
828,73	46,008
828,90	54,147
829,07	43,900
829,25	49,706
829,42	47,870
829,59	43,800
829,76	44,046
829,93	43,989
830,10	44,333
830,27	43,253
830,44	41,011
830,61	48,238
830,78	56,166
830,95	45,483
831,12	40,572
831,29	42,609
831,46	42,452
831,63	46,801
831,80	47,005
831,97	44,316
832,14	54,837
832,31	52,897
832,48	41,518
832,65	48,946
832,83	43,499
833,00	49,016
833,17	44,026
833,34	44,295
833,51	47,753
833,68	51,344
833,85	47,442
834,02	39,185
834,19	49,740
834,36	50,469
834,53	36,622
834,70	38,301
834,87	62,000
835,04	46,156
835,21	50,400
835,38	41,576
835,55	47,225
835,72	54,909
835,89	46,203
836,06	49,544
836,23	52,256
836,40	40,814
836,57	39,145
836,74	50,411
836,91	45,108
837,08	57,162
837,25	49,110
837,42	36,802
837,59	45,401
837,76	43,929
837,93	44,921
838,09	35,526
838,26	56,127
838,43	56,688
838,60	38,671
838,77	48,915
838,94	57,488
839,11	44,282
839,28	43,869
839,45	41,709
839,62	47,108
839,79	45,323
839,96	43,140
840,13	49,617
840,30	46,887
840,47	39,171
840,64	41,832
840,81	47,066
840,98	34,144
841,15	63,211
841,32	39,437
841,48	57,499
841,65	43,328
841,82	45,134
841,99	49,171
842,16	36,164
842,33	48,713
842,50	52,106
842,67	44,497
842,84	43,875
843,01	48,669
843,18	44,716
843,35	45,808
843,52	39,591
843,68	47,622
843,85	54,499
844,02	41,128
844,19	40,844
844,36	65,079
844,53	60,075
844,70	48,806
844,87	53,816
845,04	50,051
845,21	35,062
845,37	54,470
845,54	48,198
845,71	41,711
845,88	71,468
846,05	44,818
846,22	37,980
846,39	56,352
846,56	63,412
846,72	42,257
846,89	47,966
847,06	56,846
847,23	63,574
847,40	42,034
847,57	37,794
847,74	51,072
847,90	68,853
848,07	46,380
848,24	46,609
848,41	48,377
848,58	61,580
848,75	51,791
848,92	44,101
849,08	46,500
849,25	52,617
849,42	43,342
849,59	53,835
849,76	45,457
849,93	47,950
850,09	46,066
850,26	35,883
850,43	54,984
850,60	46,827
850,77	41,035
850,94	48,804
851,10	50,155
851,27	50,341
851,44	42,856
851,61	39,956
851,78	71,104
851,95	48,826
852,11	51,515
852,28	53,051
852,45	53,483
852,62	58,077
852,79	49,409
852,95	40,209
853,12	61,774
853,29	45,116
853,46	46,946
853,63	56,731
853,79	52,087
853,96	44,530
854,13	57,112
854,30	38,915
854,46	65,534
854,63	59,447
854,80	50,462
854,97	43,653
855,14	57,878
855,30	69,144
855,47	38,473
855,64	47,328
855,81	52,114
855,97	63,761
856,14	52,210
856,31	49,645
856,48	50,517
856,65	70,936
856,81	43,380
856,98	42,609
857,15	43,333
857,32	49,463
857,48	50,597
857,65	54,846
857,82	63,173
857,99	68,199
858,15	61,605
858,32	44,376
858,49	56,513
858,65	72,616
858,82	58,666
858,99	45,458
859,16	63,581
859,32	61,432
859,49	43,069
859,66	60,659
859,83	49,315
859,99	42,994
860,16	61,612
860,33	40,294
860,49	63,825
860,66	69,174
860,83	49,596
861,00	55,100
861,16	72,558
861,33	51,599
861,50	31,433
861,66	52,137
861,83	71,166
862,00	53,236
862,16	59,805
862,33	56,456
862,50	90,597
862,67	53,160
862,83	51,154
863,00	67,338
863,17	88,535
863,33	73,343
863,50	29,787
863,67	55,646
863,83	59,641
864,00	81,326
864,17	44,358
864,33	53,242
864,50	80,755
864,67	66,706
864,83	53,521
865,00	39,358
865,17	51,468
865,33	69,059
865,50	44,524
865,67	39,924
865,83	60,915
866,00	77,855
866,17	52,356
866,33	59,222
866,50	93,773
866,66	73,169
866,83	54,671
867,00	57,320
867,16	90,305
867,33	79,882
867,50	29,806
867,66	46,128
867,83	72,911
868,00	67,606
868,16	48,001
868,33	41,968
868,49	68,589
868,66	85,394
868,83	59,462
868,99	68,414
869,16	76,564
869,32	89,586
869,49	59,775
869,66	38,652
869,82	74,552
869,99	91,850
870,15	35,230
870,32	54,874
870,49	75,497
870,65	125,748
870,82	58,461
870,98	59,996
871,15	95,276
871,32	55,103
871,48	43,897
871,65	36,041
871,81	67,023
871,98	56,996
872,15	37,743
872,31	39,071
872,48	105,087
872,64	63,671
872,81	40,924
872,97	64,057
873,14	93,647
873,31	60,576
873,47	57,509
873,64	49,130
873,80	127,196
873,97	87,646
874,13	42,678
874,30	45,658
874,46	94,822
874,63	55,383
874,80	66,461
874,96	60,670
875,13	120,015
875,29	50,294
875,46	113,161
875,62	8,230
875,79	66,553
875,95	44,832
876,12	52,507
876,28	-4,152
876,45	101,973
876,61	31,157
876,78	34,767
876,94	35,019
877,11	71,969
877,27	87,567
877,44	39,978
877,60	54,165
877,77	124,875
877,94	122,218
878,10	33,162
878,27	82,537
878,43	129,510
878,60	62,110
878,76	49,351
878,93	55,524
879,09	107,029
879,26	73,925
879,42	66,901
879,58	76,707
879,75	135,995
879,91	112,603
880,08	-1,864
880,24	45,080
880,41	74,252
880,57	71,154
880,74	81,529
880,90	15,051
881,07	39,181
881,23	65,159
881,40	58,894
881,56	87,038
881,73	104,493
881,89	89,318
882,06	14,073
882,22	184,377
882,38	161,575
882,55	159,481
882,71	59,335
882,88	41,579
883,04	180,522
883,21	194,734
883,37	50,634
883,54	90,520
883,70	239,103
883,86	120,021
884,03	59,433
884,19	26,832
884,36	-1,068
884,52	238,405
884,69	96,416
884,85	88,313
885,01	214,791
885,18	107,701
885,34	164,459
885,51	-26,532
885,67	77,392
>>>>> Data<<<<< Espectral Procesado Extremo
